#   1 NUMBER                 Running object number                                     
#   2 X_IMAGE                Object position along x                                    [pixel]
#   3 Y_IMAGE                Object position along y                                    [pixel]
#   4 ALPHA_J2000            Right ascension of barycenter (J2000)                      [deg]
#   5 DELTA_J2000            Declination of barycenter (J2000)                          [deg]
#   6 FLUX_APER              Flux vector within fixed circular aperture(s)              [count]
#   7 FLUXERR_APER           RMS error vector for aperture flux(es)                     [count]
#   8 FLUX_RADIUS            Fraction-of-light radii                                    [pixel]
#   9 FWHM_IMAGE             FWHM assuming a gaussian core                              [pixel]
#  10 BACKGROUND             Background at centroid position                            [count]
#  11 THRESHOLD              Detection threshold above background                       [count]
#  12 FLUX_MAX               Peak flux above background                                 [count]
#  13 ISOAREA_IMAGE          Isophotal area above Analysis threshold                    [pixel**2]
#  14 A_IMAGE                Profile RMS along major axis                               [pixel]
#  15 B_IMAGE                Profile RMS along minor axis                               [pixel]
#  16 THETA_IMAGE            Position angle (CCW/x)                                     [deg]
#  17 FLAGS                  Extraction flags                                          
         1    406.4367     14.9236 300.3409112 +22.5070674     2273.281     72.53992      1.354     2.55     4.735315     20.47615     270.7288        21     1.136     0.889  71.26   0
         2     53.6011     13.1107 300.2318005 +22.4008144     1524.676     72.50293      1.504     2.90     5.458818     20.47615     181.6261        20     1.088     1.039  68.73   0
         3    897.1844     12.0949 300.4946837 +22.6531901     262.2023     72.50293      1.079     2.66     5.159761     20.47615     47.56254         8     0.796     0.654 -57.61   0
         4    537.4270      9.0702 300.3835770 +22.5446193      523.666     72.57691      1.419     4.94      4.81838     20.47615     49.74129         8     1.126     0.614  82.14   0
         5    196.1206      7.0718 300.2780477 +22.4417966     301.6611     72.68774      1.297     3.82     5.217926     20.47615     39.93076         5     0.782     0.536 -55.50   0
         6    881.1960      3.7455 300.4924052 +22.6460035     384.6793     68.13361      1.139     2.37     5.171265     20.47615     55.81186         6     0.708     0.562 -56.89  16
         7    345.6254   1011.8636 299.9981554 +22.7749642     6574.109     72.55842      1.642     3.36     3.270532     20.47615     592.8041        41     1.351     1.255 -50.99   0
         8    613.2991   1023.8533 300.0775479 +22.8587436     493.1902      55.4053      1.477     4.23      3.02692     20.47615     75.00189         8     1.521     0.335  -4.35  24
         9    184.1266   1023.3094 299.9442217 +22.7297505      798.726     58.62906      7.399     9.00     13.96503     20.47615     44.71505        14     2.483     0.910 -12.96  27
        10    190.1024   1021.9006 299.9465375 +22.7311415      1062.93     65.68729      5.436     9.47     12.52313     20.47615     56.13496        24     2.712     0.922  70.85  27
        11    123.8737   1022.1294 299.9258832 +22.7113158     993.3796     64.55413      7.034     9.19     25.68645     20.47615     42.55679        14     1.930     1.221 -20.62  27
        12    121.3699   1017.8816 299.9264879 +22.7093467     906.1804     72.57691      7.949     8.90     25.35314     20.47615     38.91103        14     2.037     1.087  27.97  19
        13    107.3916   1022.0219 299.9207974 +22.7063343     1001.971     64.90649      7.040     9.75     28.75327     20.47615     38.97364        14     1.714     1.545 -10.97  26
        14     70.5052   1012.3555 299.9124852 +22.6924850     2332.592     72.59539     17.397    31.67      34.9906     20.47615     64.75452       159     5.436     5.121 -45.26  19
        15     61.1426   1011.4637 299.9098673 +22.6894171     1718.172     72.63235     13.596    17.59     37.30487     20.47615     52.82302        65     3.179     2.706 -30.64  19
        16     39.2592   1014.6428 299.9020357 +22.6837541     3477.781     72.55842      9.349    38.50     44.97666     20.47615     76.12117       426     7.015     5.865  33.18  27
        17     52.5459   1000.3354 299.9108191 +22.6836467     1594.109     72.61387     10.614    12.42       34.954     20.47615      70.5883        39     3.229     1.437 -19.82   3
        18    193.3313   1022.5242 299.9473380 +22.7322899     1310.861     62.67709      7.293    11.58     11.92984     20.47615     51.89815        28     2.732     1.367  57.89  27
        19     83.2292   1021.5873 299.9134327 +22.6989520     1555.045     66.88152     16.525    20.41     34.80645     20.47615     46.87358        78     5.478     2.113   8.70  27
        20    698.3151   1013.7795 300.1073034 +22.8813622     349.3729     72.52143      1.861     5.79     2.974279     20.47615     38.49292         7     1.148     0.821 -52.20   0
        21    656.2749   1001.1759 300.0983125 +22.8651337      190.692     72.61387      1.507     6.14     3.103827     20.47615     28.48542         7     1.436     0.739 -18.37   0
        22     37.8078    994.8366 299.9080313 +22.6776441      2540.83     72.57691      7.626    24.38     36.08991     20.47615     52.95021       166     5.641     2.926 -11.38  19
        23     37.8400    982.7001 299.9119912 +22.6741768     2454.004     72.55842      6.349    27.35     30.59008     20.47615     57.14542       199     7.650     2.714 -21.42  27
        24     47.7792    990.9323 299.9123990 +22.6795209     1690.534     72.55842      7.824    10.77      32.2785     20.47615      60.1305        28     2.205     1.591  51.94   3
        25    891.9070    990.4103 300.1752370 +22.9327233     2151.267     72.52143      1.698     3.84     2.947604     20.47615     151.0757        26     1.279     1.195 -88.93   0
        26    237.4292    995.8156 299.9697380 +22.7378783     207.6225     72.57691      1.992     5.16      4.43227     20.47615     23.32248         5     1.031     0.729   8.48   0
        27    542.2768    987.3885 300.0673072 +22.8269727       516.48     72.57691      1.657     3.68     2.854686     20.47615     50.73761         5     0.870     0.447  46.92   0
        28    390.5334    986.3005 300.0204438 +22.7811171       320.84     72.66928      1.403     5.03     3.076377     20.47615     48.20355         8     1.007     0.848  43.37   0
        29    680.9894    979.4695 300.1130751 +22.8663213     806.4539     72.55842      1.845     7.17      3.17074     20.47615     61.46114        17     1.478     0.974  64.90   0
        30   1007.4164    977.7183 300.2153876 +22.9637141     555.1512     72.55842      1.619     4.98     2.992387     20.47615     41.74561         9     0.953     0.737  72.75   0
        31    377.6855    998.4444 300.0124948 +22.7807420     519.7573     72.55842      1.704     5.32     3.108016     20.47615     43.68798        10     0.935     0.855 -40.55   0
        32    715.5952    973.7347 300.1257209 +22.8750572     1066.292     72.57691      1.694     4.34     3.174408     20.47615     95.10797        18     1.240     1.018 -44.01   0
        33    492.8713    974.5946 300.0560944 +22.8084769     398.1252     72.52143      1.627     4.99     2.848181     20.47615     44.18357         8     1.064     0.661 -39.86   0
        34    737.7442    967.1533 300.1347630 +22.8798128     11351.45     72.61387      1.551     3.10     3.218091     20.47615      1046.09        46     1.298     1.245 -85.44   0
        35    928.6758    967.0490 300.1943047 +22.9370432     378.2111     72.57691      1.709     4.45     3.092325     20.47615     45.16866         7     0.992     0.709   4.75   0
        36    784.0269    966.9278 300.1492567 +22.8936303     417.9844     72.57691      1.493     4.75     3.055516     20.47615     44.12949         8     1.098     0.584 -59.27   0
        37     49.5209    958.7637 299.9234087 +22.6708277     237.6518     72.52143      1.248     2.91     18.52595     20.47615     66.85318         7     0.858     0.619  15.60   0
        38    442.7447    955.6215 300.0466714 +22.7879919     432.8059     72.59539      1.321     3.96     3.026656     20.47615     57.25762         7     1.078     0.605 -14.72   0
        39    789.7265    954.8392 300.1549672 +22.8918707     517.0983     72.55842      1.673     4.27     3.061208     20.47615     57.65909         9     1.029     0.640  63.37   0
        40    746.2042    949.2092 300.1432387 +22.8772014     1441.812     72.41034      1.592     3.41     3.318005     20.47615     116.7412        20     1.143     1.045   2.58   0
        41    929.4740    947.9907 300.2007566 +22.9318116      489.411     72.57691      1.811     5.06     3.264945     20.47615     45.78194         8     1.080     0.671   9.66   0
        42    597.9606    946.4958 300.0979511 +22.8319518     551.7363     72.55842      1.902     4.55     3.247001     20.47615      51.5351        11     1.060     0.820 -37.81   0
        43    784.4102    942.6115 300.1572902 +22.8867671     918.8493      72.4659      1.992     5.32     3.125283     20.47615     73.24123        16     1.380     0.894  58.58   2
        44    918.5459    941.4987 300.1994621 +22.9266713     603.2739     72.66928      0.826     0.66     3.341695     20.47615      226.562         5     0.570     0.488 -21.56   0
        45    893.4966    940.1138 300.1921031 +22.9187631     424.5609     72.76154      1.764     3.89     3.384669     20.47615     40.59401         6     0.977     0.496 -85.55   0
        46    832.7187    933.7437 300.1752309 +22.8987096     577.1392     72.61387      1.560     4.35     3.250807     20.47615     47.89064        14     1.094     0.910 -42.62   0
        47    684.1830    932.9363 300.1292143 +22.8539284     761.6451     72.55842      1.385     3.41      3.35982     20.47615      81.8458        11     0.886     0.833  79.02   0
        48    695.5608    930.0773 300.1336886 +22.8565210     599.8358     72.55842      1.587     4.59     3.406218     20.47615     64.78113        16     1.155     1.103  82.99   0
        49    396.6947    929.5023 300.0408446 +22.7666808     4114.718     72.76154      1.512     2.84     3.391649     20.47615     441.0108        32     1.229     1.125 -57.44   0
        50    175.5001    918.2737 299.9757235 +22.6970581     480.2416      72.7062      1.748     3.03     4.567013     20.47615     53.17189         9     0.876     0.765  72.18   0
        51    440.3556    917.4936 300.0583353 +22.7763408      396.938     72.59539      1.510     4.86     3.257986     20.47615     42.49706         7     1.007     0.664  51.49   0
        52    122.3009    915.5824 299.9600682 +22.6803121       819.23     72.48442      1.597     4.14     5.541924     20.47615     84.55816        12     1.156     0.780 -69.88   0
        53     99.1882    912.2940 299.9539574 +22.6724289     1521.834     72.52143      1.734     3.68     5.969652     20.47615     146.1463        23     1.246     1.151   3.56   0
        54    970.8252    901.2337 300.2288673 +22.9307848     2157.273     72.57691      1.612     3.14     3.528418     20.47615     165.4653        27     1.214     1.184 -61.73   0
        55    925.0606    899.4957 300.2151619 +22.9165662     2080.882     72.66928      1.544     3.37     3.539903     20.47615     192.8437        27     1.376     1.125  55.97   0
        56    630.2995    900.0538 300.1231331 +22.8283299     523.3874     72.66928      1.835     5.37     3.344579     20.47615     42.83729         7     1.184     0.688 -85.30   0
        57    708.7596    893.3788 300.1497414 +22.8499492     461.7385     72.61387      1.352     3.73     3.448977     20.47615     67.07956        12     1.040     0.983  62.48   0
        58    130.8460    893.8977 299.9697783 +22.6766633     542.9281     72.61387      1.554     4.52     4.868801     20.47615     76.33564        10     1.177     0.828  26.99   0
        59    456.3354    892.2820 300.0715104 +22.7739056     319.0344     72.68774      1.863     4.39     3.295455     20.47615     29.40369         5     0.952     0.576 -37.94   0
        60    576.8231    887.5466 300.1105520 +22.8086989     4756.354     72.59539      1.389     2.52     3.294176     20.47615     567.9247        31     1.178     1.047 -86.87   0
        61     67.2661    888.6827 299.9517225 +22.6560760     470.8228     72.68774      1.572     4.11     4.778642     20.47615     43.01525         7     1.066     0.459 -63.24   0
        62    378.9972    884.7434 300.0499026 +22.7485341     606.8849     72.53992      1.382     3.91     3.690141     20.47615     67.64909        12     1.039     0.810  43.66   0
        63    127.0179    881.4574 299.9726360 +22.6719483     1385.686     72.55842      1.543     3.37      4.63484     20.47615     142.6916        22     1.209     1.070  50.19   0
        64    597.3795    879.8893 300.1194433 +22.8126689     690.4239     72.52143      1.325     2.75     3.329819     20.47615     85.33891        11     0.914     0.752 -13.09   0
        65    395.6758    879.5917 300.0567668 +22.7520622     249.7076     72.55842      1.261     4.06     3.631596     20.47615       35.235         5     0.963     0.489   3.64   0
        66    146.4297    878.6102 299.9795939 +22.6769609       535.79     72.57691      1.635     5.35     4.457973     20.47615     46.36951        10     1.006     0.826 -24.89   0
        67    513.7727    870.8526 300.0963568 +22.7849933     382.3156     72.59539      1.141     4.08     3.280787     20.47615     41.81133         6     1.190     0.400 -30.03   0
        68   1007.7300    868.1425 300.2511445 +22.9323449     413.5151     72.59539      2.337     4.78     3.635495     20.47615     32.77311         7     1.288     0.502  43.67   0
        69    752.7612    867.2663 300.1719453 +22.8556515     4125.084     72.53992      1.369     2.59     3.542062     20.47615      451.462        27     1.116     1.061 -41.69   0
        70    969.7101    867.0735 300.2396343 +22.9206418     1113.543      72.7431      1.605     4.75      3.63874     20.47615      87.1601        19     1.324     1.014 -85.59   0
        71    484.0320    864.2363 300.0892533 +22.7741720     297.5735     72.61387      1.286     5.86      3.30265     20.47615     42.82462         8     1.266     0.762  61.28   0
        72    161.0220    861.5991 299.9896621 +22.6764662     517.6851     72.50293      1.599     4.08     4.254606     20.47615     55.87908         8     0.901     0.779  65.21   0
        73    469.7808    859.8558 300.0862435 +22.7686394     661.6771     72.55842      1.418     2.56     3.373736     20.47615     103.6735        11     0.908     0.799  29.67   0
        74    116.0472    857.9756 299.9768659 +22.6619238     1013.784     72.59539      1.640     3.17     4.240719     20.47615     127.8913        18     1.105     1.091  50.05   0
        75    265.8001    849.9788 300.0260101 +22.7045897     52701.52     72.50293      1.481     2.78     3.980226     20.47615     6126.292       100     1.374     1.364 -44.77   0
        76    531.2640    853.1483 300.1075605 +22.7851622     572.4043     72.63235      1.640     3.79      3.40026     20.47615     70.84378        10     1.046     0.695  42.42   0
        77    523.6694    848.9846 300.1065510 +22.7816893      1524.89     72.59539      1.348     2.56     3.426584     20.47615      206.627        21     1.108     1.000  51.86   0
        78    936.4607    847.9849 300.2354760 +22.9051938     1010.417     72.53992      1.605     3.52     3.705765     20.47615     94.80508        16     1.141     0.910 -65.71   0
        79    194.1961    847.6346 300.0045143 +22.6824228     381.8367     72.57691      1.441     4.15     4.107496     20.47615     52.59912         8     1.106     0.648  64.23   0
        80    552.6436    844.9881 300.1168700 +22.7892351     924.0669     72.57691      1.382     2.78     3.467722     20.47615      113.062        13     1.003     0.754 -13.59   0
        81    563.4192    843.2031 300.1208051 +22.7919555     608.7109     72.50293      1.246     2.83     3.469922     20.47615     74.25668        11     0.944     0.726  25.20   0
        82    883.5930    840.2099 300.2215221 +22.8871130     442.7245     72.44739      1.474     2.88     3.788146     20.47615     45.94507         6     0.719     0.613  43.39   0
        83    668.9591    839.4789 300.1548798 +22.8225440     437.0456     72.55842      1.256     3.15     3.338887     20.47615     61.13406         6     0.892     0.499   0.69   0
        84    706.5664    829.6143 300.1698026 +22.8309916     749.1985     72.55842      1.254     2.50     3.374317     20.47615     100.3856        12     0.930     0.767 -53.43   0
        85    315.4719    827.1854 300.0488688 +22.7129627     31226.14     72.57691      1.450     2.59     3.787339     20.47615     3763.936        68     1.293     1.259 -81.00   0
        86    329.8366    827.8613 300.0531161 +22.7174677     2033.246     72.59539      1.405     2.59     3.782294     20.47615     254.1932        21     1.097     0.993 -20.50   0
        87    838.6432    822.8254 300.2131656 +22.8686459     2784.596     72.61387      1.414     2.67     3.752228     20.47615     329.4019        26     1.154     1.070 -40.11   0
        88    326.4417    821.5837 300.0541022 +22.7146485     742.3988     72.59539      1.884     3.28     3.757082     20.47615     78.99116        11     0.966     0.864  18.14   0
        89    867.8922    821.2239 300.2228036 +22.8769548     209.1126     72.50293      1.375     4.39     3.863808     20.47615     37.56361         5     0.772     0.710  36.10   0
        90    596.3765    818.6918 300.1390388 +22.7948087     874.7308     72.50293      1.470     4.13      3.52261     20.47615     110.1237        18     1.211     1.053  59.33   0
        91    433.0021    819.2825 300.0879973 +22.7459655     413.4765     72.48442      1.486     2.49     3.625252     20.47615     53.86989         7     0.717     0.655   2.40   0
        92    197.9396    819.0298 300.0149817 +22.6753459     699.5469     72.61387      1.324     2.73     3.805486     20.47615     103.6655        11     0.927     0.749 -12.50   0
        93    443.4766    813.9825 300.0929802 +22.7475880     810.4169     72.57691      1.253     2.61     3.629821     20.47615      127.688        13     0.950     0.825  33.57   0
        94      2.4585    814.5206 299.9557167 +22.6153608      526.386     62.61284      1.630     3.18     3.220701     20.47615     63.12885         7     0.954     0.549  55.47  24
        95    844.6336    810.6814 300.2189829 +22.8669552      455.713     72.53992      1.241     2.60     3.802901     20.47615     66.61492         8     0.840     0.642  70.17   0
        96    345.1876    810.3262 300.0635935 +22.7170458     305.3901     72.59539      1.246     3.79     3.697141     20.47615     42.11421         6     0.740     0.638 -50.86   0
        97    389.5932    809.0045 300.0778355 +22.7299921     413.1042     72.42887      1.269     2.21     3.668521     20.47615     69.25234         6     0.755     0.491 -89.72   0
        98    302.0808    809.2619 300.0505342 +22.7038038      423.934     72.68774      1.467     2.86     3.701423     20.47615     52.96289         7     0.732     0.649  37.96   0
        99     30.7571    808.2000 299.9665608 +22.6220472     522.6719     72.55842      2.071     6.09     3.461734     20.47615     61.70593        11     1.139     0.916  77.25   0
       100    597.9095    807.9139 300.1430217 +22.7921757     340.7853      72.7431      1.583     4.49     3.558207     20.47615     45.14823        10     1.134     0.665  -3.51   0
       101    822.7056    805.8096 300.2137329 +22.8589825     395.1582     72.52143      1.280     2.87     3.704471     20.47615     54.46616         7     0.824     0.584 -59.61   0
       102    195.8517    803.6027 300.0193500 +22.6702961     471.0429     72.57691      1.257     2.43     3.669553     20.47615     67.78987         9     0.809     0.687 -85.73   0
       103    518.9657    793.7841 300.1230415 +22.7644411     427.7802     72.57691      1.466     2.84     3.806217     20.47615     56.41163         8     0.787     0.690 -48.08   0
       104    488.6364    791.8670 300.1142256 +22.7547925     610.9111     72.57691      1.224     2.81      3.74883     20.47615     78.20422        10     0.890     0.747 -62.28   0
       105    397.8561    791.0865 300.0862333 +22.7273320     315.7816     72.65082      1.277     3.64     3.718915     20.47615     53.80469         7     0.902     0.721 -12.36   0
       106    904.9731    788.0900 300.2451409 +22.8785563     4566.594     72.53992      1.403     2.70     3.958288     20.47615     512.9373        29     1.184     1.062  75.61   0
       107    510.5320    789.2702 300.1218846 +22.7606160     1312.234     72.61387      1.210     2.30     3.807241     20.47615     189.1494        16     0.966     0.867  39.68   0
       108    430.2528    788.9518 300.0970064 +22.7364401     321.0029     72.61387      1.171     2.67     3.742152     20.47615     57.78778         6     0.806     0.513 -58.46   0
       109    592.2636    784.4077 300.1489087 +22.7837369     211.7285     72.55842      1.142     3.12     3.686801     20.47615     41.64269         7     0.885     0.555  56.94   0
       110    893.5317    779.5550 300.2443496 +22.8726759     1666.897     72.55842      1.409     2.75     3.990296     20.47615     189.4088        18     1.063     0.928 -15.91   0
       111    661.2036    779.2524 300.1720532 +22.8029332     241.0021     72.57691      1.205     4.73     3.439184     20.47615     42.48182         7     1.206     0.527  20.92   0
       112    256.3697    773.8340 300.0478428 +22.6799251     867.6587     72.59539      1.412     2.62     3.626093     20.47615     97.21688        12     0.893     0.815 -18.67   0
       113    719.8909    770.9525 300.1930328 +22.8181492     2591.916     72.57691      1.324     2.15     3.509111     20.47615     389.8735        24     1.233     0.923 -15.53   0
       114    924.5007    769.7677 300.2571883 +22.8791477     1553.999     72.55842      1.360     2.57     4.018709     20.47615      181.522        18     1.023     0.932 -83.33   0
       115    292.0169    766.9871 300.0611526 +22.6886598     628.3312     72.52143      0.439     1.71     3.794887     20.47615     529.2592         5     0.323     0.292   0.65   0
       116    105.1927    757.6746 300.0061128 +22.6299134     582.8005     72.52143      1.508     3.22     3.928995     20.47615     64.06165        11     0.881     0.842  68.11   0
       117    802.1900    756.6712 300.2233202 +22.8387239     664.0652     72.55842      1.484     2.91     3.828394     20.47615     80.39418        10     0.985     0.663  33.44   0
       118    838.2274    747.8077 300.2374340 +22.8469819     147272.9     72.57691      1.331     2.39     4.006652     20.47615     20435.62       161     1.385     1.329  86.40   0
       119    600.4914    751.5157 300.1621668 +22.7767651     251.1099      72.7431      1.110     2.51     3.799797     20.47615     50.24991         6     0.811     0.452  71.56   0
       120    985.1500    749.5748 300.2826685 +22.8915243     1099.931     72.59539      1.360     2.79     3.977181     20.47615     137.3165        16     1.035     0.917   6.57   0
       121    690.6455    748.2347 300.1913102 +22.8028587     882.5793     72.61387      1.398     2.48     3.559316     20.47615     105.5465        13     0.876     0.862  24.39   0
       122    871.1068    740.6778 300.2500015 +22.8547900     432.2084     72.72465      1.289     4.52     4.128558     20.47615     54.77711         9     1.010     0.786  20.38   0
       123    705.6602    734.0411 300.2006025 +22.8032862     9115.635     72.55842      1.265     2.13     3.675626     20.47615     1409.515        37     1.101     1.021  76.98   0
       124    524.4300    736.6434 300.1433236 +22.7496843     1612.248     72.61387      1.225     2.25     3.994696     20.47615     229.7006        16     0.947     0.881  57.84   0
       125    187.5208    735.4476 300.0389226 +22.6482534     261.0774     72.57691      0.947     3.69     3.799037     20.47615     39.69332         6     0.955     0.410  70.67   0
       126    207.1787    729.3466 300.0470161 +22.6524039     4888.354     72.57691      1.386     2.53     3.710878     20.47615     533.0024        31     1.145     1.091  -2.21   0
       127    289.3136    727.4262 300.0731751 +22.6765022      1254.22     72.55842      1.328     2.47     3.876663     20.47615     141.2697        16     1.031     0.851 -10.57   0
       128    164.9404    725.2333 300.0352257 +22.6385471      514.757     72.61387      1.530     3.56     3.901905     20.47615     58.20848        11     1.039     0.782  16.85   0
       129    497.5975    722.7656 300.1394843 +22.7376536     668.0779     72.53992      1.205     2.43     4.053988     20.47615     121.0547        12     0.892     0.796  30.36   0
       130    489.0740    714.9193 300.1393826 +22.7328454     3034.775     72.68774      1.256     2.23      4.09222     20.47615     485.3443        22     0.988     0.932  37.21   0
       131    479.3179    708.6353 300.1383894 +22.7281159     1361.074     72.53992      1.217     2.25      4.12647     20.47615     221.3119        15     0.947     0.867 -27.58   0
       132    873.0456    706.0526 300.2618642 +22.8454272     498.3904     72.61387      1.585     4.75     4.135938     20.47615     50.32993         9     0.844     0.759 -28.55   0
       133    390.2767    705.7269 300.1116304 +22.7005708     243.0621     72.65082      1.246     3.80     4.022511     20.47615      39.9081         5     0.830     0.503 -44.89   0
       134    142.8127    704.9966 300.0349281 +22.6261027       640.48     72.41034      1.374     2.52     3.918876     20.47615     100.1117        10     0.879     0.720  -7.08   0
       135     42.6865    703.3846 300.0043454 +22.5955846     404.5268     72.52143      2.056     7.60     4.514148     20.47615     31.50399         9     1.837     0.881  45.05   0
       136    157.0209    703.5356 300.0398183 +22.6299483     662.3769     72.55842      1.300     2.80     3.907343     20.47615     84.77107        10     0.891     0.749  65.12   0
       137    926.2047    699.4560 300.2805827 +22.8594640     490.3047     72.53992      1.207     2.94     4.084874     20.47615     63.49528         9     0.859     0.705  -8.14   0
       138    404.1790    698.4042 300.1183358 +22.7026406     1837.011     72.53992      1.247     2.26     4.059395     20.47615     250.9398        18     0.972     0.895 -89.13   0
       139    213.4084    699.8378 300.0585457 +22.6458111     359.8261     72.59539      1.500     4.12     3.698264     20.47615      47.4443         6     0.936     0.517  48.90   0
       140    182.6442    700.2267 300.0488572 +22.6366899     588.8011     72.59539      1.323     2.73       3.8153     20.47615     76.43689         8     0.897     0.590 -17.00   0
       141    503.5600    699.0435 300.1490523 +22.7326347     482.8219     72.66928      1.222     2.59     4.107407     20.47615     77.55582         7     0.711     0.661 -87.31   0
       142     58.0870    693.5568 300.0123238 +22.5973903     19808.75     72.55842      1.502     2.83     4.385201     20.47615     2259.328        61     1.314     1.287  59.90   0
       143    979.8469    695.5446 300.2985827 +22.8744147     793.3297     72.61387      1.351     2.70     4.048388     20.47615     98.84885        15     0.978     0.895 -12.61   0
       144    489.0480    693.7077 300.1462704 +22.7267508     1068.675     72.59539      1.252     2.37      4.16012     20.47615     160.0159        16     0.943     0.910 -62.81   0
       145    524.7213    692.8431 300.1576544 +22.7372021     316.0531     72.55842      1.230     1.99      4.06608     20.47615     61.44315         6     0.700     0.533  36.72   0
       146    242.7568    685.3032 300.0723937 +22.6504499     324.4355     72.57691      1.272     3.58     3.679085     20.47615     44.93259         6     0.964     0.546 -39.03   0
       147    907.2350    679.7135 300.2810863 +22.8481085     1077.567     72.55842      1.289     2.52     4.082999     20.47615     160.0529        16     1.066     0.873 -74.29   0
       148    571.8451    681.0469 300.1761588 +22.7479489     303.0851     72.61387      1.317     4.56     3.954221     20.47615     31.97243         7     0.889     0.665 -37.61   0
       149      4.1255    677.6456 300.0007356 +22.5766294     1427.355     69.47906      1.781     4.98     5.061844     20.47615      113.631        24     1.614     0.988 -85.25  16
       150    773.8412    677.8240 300.2401220 +22.8075857     537.0649     72.61387      1.331     2.12     3.873272     20.47615     86.63239         8     0.780     0.606 -35.15   0
       151     70.2351    678.1391 300.0211089 +22.5966167     474.5606     72.59539      1.347     2.58     4.291406     20.47615     57.25427         6     0.747     0.535  32.39   0
       152    452.7517    674.8450 300.1411070 +22.7104511     434.3085     72.61387      1.298     5.73     4.180788     20.47615     60.50766        10     1.366     0.691  72.71   0
       153    847.3477    672.4174 300.2647884 +22.8280652     922.0455     72.55842      1.694     2.56     4.068336     20.47615     92.35493        12     0.905     0.798 -49.29   0
       154    409.2872    666.5714 300.1302727 +22.6950395      758.577     72.57691      1.187     2.48     4.078189     20.47615     98.74637        14     0.899     0.858 -33.69   0
       155    557.2522    665.2275 300.1767580 +22.7390322     553.4768     72.59539      1.213     2.12     4.020407     20.47615     92.96699         9     0.798     0.672 -73.94   0
       156    604.4693    663.5840 300.1919930 +22.7527191     431.7206     72.59539      1.159     2.50     3.925946     20.47615     63.66561         8     0.849     0.637 -43.54   0
       157    574.8325    663.1140 300.1829181 +22.7436974     697.2248     72.53992      1.285     2.41     3.989985     20.47615     115.5085         8     0.948     0.537 -72.91   0
       158    453.5851    662.4116 300.1454077 +22.7071332     964.6436     72.50293      1.401     2.65      4.19188     20.47615     124.2928        16     1.159     0.829  36.64   0
       159    887.1338    657.7480 300.2819597 +22.8357754      3390.31     72.61387      1.276     2.23     4.107065     20.47615     501.2982        25     1.069     0.963 -83.39   0
       160    418.9676    657.8323 300.1361250 +22.6954356      1714.96     72.63235      1.281     2.02     4.111575     20.47615     299.2629        18     1.003     0.867  47.31   0
       161    985.1498    655.7374 300.3131775 +22.8645675     786.7037     72.63235      1.476     2.69     4.040164     20.47615     106.2581        10     0.917     0.732  37.49   0
       162    784.1829    655.0342 300.2507528 +22.8041412       228.96     72.57691      1.209     2.28      3.87696     20.47615     52.88151         5     0.770     0.460  29.42   0
       163    394.4927    653.0670 300.1300596 +22.6867267     274.8575     72.72465      1.300     2.58     4.047844     20.47615     40.96789         6     0.757     0.500 -89.92   0
       164    448.3239    648.7452 300.1482126 +22.7016333     322.9883     72.61387      1.253     3.45     4.183954     20.47615     46.59846         5     0.772     0.445 -76.85   0
       165    926.5607    647.7888 300.2974899 +22.8447292     321.2559     72.57691      1.316     3.50     4.042962     20.47615     49.80206         6     0.896     0.587  20.76   0
       166    282.3903    644.7392 300.0979007 +22.6507066     9153.634     72.53992      1.306     2.30      3.78249     20.47615       1232.6        40     1.145     1.090 -70.03   0
       167    404.7737    641.7059 300.1369505 +22.6865507      8978.92     72.52143      1.259     2.15     4.086418     20.47615     1451.343        37     1.094     1.046 -79.45   0
       168    170.0460    639.0073 300.0648400 +22.6153522      293.814     72.59539      1.172     3.72     3.871542     20.47615      45.7572         5     0.681     0.584 -89.84   0
       169    651.4451    637.9830 300.2149430 +22.7594542     325.3683     72.59539      1.424     2.79     3.861593     20.47615     43.46263         5     0.731     0.590  -2.91   0
       170   1009.1718    636.9123 300.3267894 +22.8663558     923.9811     72.57691      1.306     2.86     4.039217     20.47615     119.9089        13     1.031     0.754  35.71   0
       171    816.4438    635.4777 300.2671634 +22.8081939     1835.232     72.55842      1.221     2.19     3.941375     20.47615     258.6155        20     1.106     0.884 -69.14   0
       172    901.1071    632.8491 300.2944094 +22.8328104     12378.89     72.61387      1.302     2.21     4.084097     20.47615     1956.469        47     1.163     1.102 -54.13   0
       173    465.3792    631.3166 300.1591843 +22.7017469     11507.88     72.53992      1.190     2.11     4.225792     20.47615     1547.178        39     1.107     1.019 -82.10   0
       174    634.8234    627.1164 300.2132982 +22.7513511     527.8522     72.53992      1.222     2.03     3.981838     20.47615     106.2798         8     0.750     0.632  60.68   0
       175    192.8473    626.8231 300.0758864 +22.6186999     1391.277     72.59539      1.360     2.34     3.872908     20.47615     211.6823        17     0.992     0.917   9.02   0
       176    350.5493    626.1450 300.1251402 +22.6658201     211.1907     72.61387      1.008     2.65     3.923578     20.47615     64.17014         5     0.846     0.504 -38.40   0
       177    439.5698    624.4070 300.1533987 +22.6920233     364.7487     72.57691      1.070     2.70     4.181804     20.47615     61.35117         7     0.794     0.647  -9.21   0
       178    397.0144    619.5370 300.1417413 +22.6778618     4251.557     72.53992      1.204     2.16     4.074999     20.47615     639.9906        25     1.014     0.953 -66.34   0
       179    739.9052    619.3620 300.2485506 +22.7806253     825.5786     72.55842      1.247     2.22     3.877616     20.47615     123.9054        11     0.867     0.716 -78.43   0
       180    375.3100    618.0317 300.1354787 +22.6709196     1153.111     72.52143      1.186     2.00     3.999755     20.47615     181.6764        13     0.855     0.807 -64.27   0
       181    816.8665    614.8790 300.2739899 +22.8024042     1653.197     72.68774      1.361     2.59     3.945471     20.47615     209.5302        20     1.044     0.955 -48.21   0
       182    513.6761    607.0050 300.1821163 +22.7092530     199682.3     72.48442      1.244     2.02     4.218854     20.47615     34117.05       210     1.389     1.364 -80.12   0
       183    337.0319    613.3073 300.1251079 +22.6580817     352.9514     72.50293      1.513     3.45     3.917691     20.47615     40.62594         6     0.811     0.637  36.90   0
       184    697.4315    611.7421 300.2377949 +22.7657057     842.5411     72.59539      1.149     2.36     3.824109     20.47615     126.2837        11     0.936     0.680 -62.37   0
       185    199.6937    607.0276 300.0844472 +22.6150763     3536.344     72.48442      1.398     2.59     3.918095     20.47615     451.3857        25     1.086     1.049  19.50   0
       186    765.7648    602.8545 300.2619727 +22.7836354     449.9538     72.59539      1.276     3.36     3.897513     20.47615     69.65047         9     1.014     0.638 -16.45   0
       187    129.6595    617.1929 300.0593787 +22.5969760     817.2591     72.53992      1.572     4.01     3.928955     20.47615     108.6119        16     1.299     0.946 -45.60   0
       188    784.3854    600.7786 300.2684497 +22.7886200     243.9264     72.55842      1.251     3.44     3.890841     20.47615     45.59652         5     0.933     0.429 -73.85   0
       189    545.4797    593.4778 300.1964119 +22.7149065     183.3342     72.68774      0.990     3.68     4.237586     20.47615     35.84943         6     0.943     0.413  70.61   0
       190    404.1696    587.6003 300.1543454 +22.6708430     2782.225     72.53992      1.346     2.59     4.118479     20.47615     346.3559        25     1.392     0.937 -79.61   0
       191    248.4176    589.8543 300.1051738 +22.6247688     458.7065     72.55842      1.278     3.30     3.933055     20.47615     73.29839         9     0.990     0.670  15.62   0
       192    853.4900    586.3950 300.2946619 +22.8051974     360.3856     72.48442      1.898     4.12     4.046365     20.47615     44.53991         5     1.003     0.635  27.17   0
       193    815.4902    583.4688 300.2837686 +22.7929698     463.8907     72.72465      1.418     3.18     3.920896     20.47615     55.11453         6     0.894     0.412  69.08   0
       194    635.0157    582.4089 300.2278868 +22.7385725     179.9352     72.50293      1.101     3.09      4.16213     20.47615     52.36083         6     0.907     0.480 -89.38   0
       195    721.6163    575.9127 300.2569723 +22.7626658     341.7534     72.52143      1.197     1.80      4.05021     20.47615     71.41988         6     0.712     0.486 -88.32   0
       196    801.2443    573.4253 300.2825922 +22.7858157     1569.813     72.59539      1.196     2.23      3.87574     20.47615     227.2704        18     0.993     0.904 -76.93   0
       197    687.7406    573.4915 300.2472061 +22.7518167      230.689     72.65082      1.196     2.62     4.047781     20.47615      46.8244         5     0.707     0.473 -18.02   0
       198    672.4474    571.0227 300.2432447 +22.7465237     2544.384     72.59539      1.180     2.04     4.056693     20.47615     408.2549        20     0.943     0.897  24.84   0
       199    310.3219    570.8317 300.1306031 +22.6378819     235.2319     72.55842      1.309     3.21     3.920646     20.47615     45.16357         5     0.844     0.452 -40.57   0
       200    916.8469    568.3232 300.3202868 +22.8189888     477.7877     72.57691      1.306     3.46     3.962949     20.47615     62.45483         9     0.934     0.766  87.16   3
       201    915.6019    564.0807 300.3212771 +22.8173968     740.6419     72.48442      1.152     2.43     3.955227     20.47615     108.9831        10     0.849     0.738  59.01   3
       202    881.5718    568.1326 300.3093505 +22.8083652     237.4706     72.55842      1.041     3.29     4.015512     20.47615     39.81119         5     0.866     0.513  38.82   0
       203    577.4628    567.7582 300.2147262 +22.7171120     415.5143     72.55842      1.042     1.83     4.325139     20.47615     88.37512         5     0.660     0.447  62.85   0
       204    459.8020    567.1186 300.1783103 +22.6816488     812.6475     72.48442      1.261     2.04     4.207186     20.47615     123.1897        11     0.800     0.773   1.28   0
       205    929.8158    564.8681 300.3254534 +22.8218814     1206.125     72.55842      1.286     2.29     3.938143     20.47615     182.8184        18     1.031     0.911 -58.18   0
       206    801.4603    563.3082 300.2859469 +22.7829744     2240.949     72.65082      1.424     4.03     3.874572     20.47615     328.2629        24     1.558     0.850  82.71   0
       207    554.7972    561.3569 300.2097496 +22.7084788       737.71     72.59539      1.726     3.97     4.354118     20.47615      99.2375        12     1.322     0.601  65.11   2
       208    340.7556    561.4630 300.1431119 +22.6443224     423.9589     72.59539      1.280     3.07     3.920646     20.47615     54.45685         7     0.831     0.646  74.41   0
       209    393.5376    560.6984 300.1597787 +22.6599338     321.6315     72.66928      1.101     3.67     4.091731     20.47615     72.67542         8     1.135     0.576 -11.87   0
       210    839.6199    558.5179 300.2993969 +22.7930330     4291.562     72.53992      1.145     2.05      3.96232     20.47615     639.4721        26     1.005     0.940  43.48   0
       211    500.3305    554.5961 300.1949919 +22.6902071     335.1843     72.53992      1.047     1.91     4.259094     20.47615     66.57285         5     0.650     0.468 -19.16   0
       212    931.4308    548.9540 300.3311279 +22.8177926     878.3099     72.63235      1.386     2.42     3.901912     20.47615     116.3102        14     0.970     0.823  67.59   0
       213     71.7040    549.1838 300.0634691 +22.5600789     990.5784     72.48442      1.394     2.97     4.261196     20.47615      135.736        16     1.031     0.907  61.03   0
       214    732.3696    542.7131 300.2711095 +22.7563536     428.1592     72.55842      1.446     3.24      4.23298     20.47615     49.31543         9     1.091     0.540 -44.29   0
       215    338.3248    542.1129 300.1486424 +22.6380405     96.74464      72.7062      0.999     1.84     3.934942     20.47615     54.59927         5     0.699     0.422  68.66   0
       216     64.0690    539.5981 300.0642112 +22.5550385     381.1359     72.53992      1.307     3.87     4.316412     20.47615     62.43963         8     1.076     0.594 -12.21   0
       217    927.6746    538.0028 300.3335147 +22.8135206     303.1701     72.48442      1.399     2.37     3.904838     20.47615     66.97361         6     0.896     0.464  12.08   0
       218    672.0056    533.0135 300.2554564 +22.7354760     481.4377     72.44739      1.204     2.16     4.266073     20.47615     80.12301         7     0.785     0.541  46.80   0
       219    560.5097    530.9852 300.2213955 +22.7014715     267.4779     72.50293      1.063     2.68     4.408669     20.47615     72.02155         6     0.790     0.642 -56.97   0
       220    280.3193    531.3169 300.1341109 +22.6175439     391.0107     72.72465      1.614     3.19      4.00862     20.47615     39.38232         6     0.936     0.636 -29.89   0
       221    613.0948    529.0751 300.2383889 +22.7166869     648.7577     72.72465      1.131     2.12     4.374805     20.47615     133.6246         9     0.775     0.669  60.16   0
       222   1020.5076    526.5602 300.3661857 +22.8380396      1008.34     70.62818      1.174     2.27     3.882715     20.47615     153.3172        14     0.874     0.860 -31.67  16
       223    673.8734    521.3495 300.2598274 +22.7326861     890.3261     72.59539      1.195     2.12      4.29939     20.47615     157.0864        11     0.866     0.690 -71.19   0
       224    927.8388    521.2487 300.3390091 +22.8087556     490.5125     72.59539      1.067     2.00     3.930557     20.47615     94.92978         8     0.748     0.624  46.60   0
       225    831.0513    517.4947 300.3100543 +22.7786802     1083.853     72.65082      1.265     2.23     4.138504     20.47615     149.4682        15     1.020     0.813 -30.85   0
       226    815.2007    513.6138 300.3063747 +22.7728161     630.3926     72.41034      1.229     2.27     4.146962     20.47615     94.28873        10     0.878     0.632  64.29   0
       227    559.6532    511.9198 300.2273223 +22.6957406     3239.509     72.59539      1.171     2.05     4.413001     20.47615     559.1792        21     0.964     0.887 -88.86   0
       228    920.1761    510.6389 300.3400665 +22.8034113     508.0674     72.59539      1.387     3.03     3.979522     20.47615      58.5916         9     0.826     0.763  88.83   0
       229    399.5437    498.9888 300.1816940 +22.6440233     359.7753     72.55842      1.058     1.85     4.229342     20.47615     75.05891         6     0.712     0.498  89.60   0
       230    331.2193    499.3165 300.1603345 +22.6236275     282.0773     72.52143      1.306     3.29     4.148827     20.47615     52.54078         6     0.776     0.531  57.10   0
       231    970.9467    490.7363 300.3623646 +22.8128995     1281.137     72.61387      1.208     2.25     3.919488     20.47615     225.4424        12     0.959     0.700  65.36   0
       232    842.7756    490.6867 300.3224172 +22.7744907     546.1522     72.53992      1.284     3.07     4.340105     20.47615     79.07995         9     0.911     0.705 -41.86   0
       233    929.3724    489.4990 300.3498013 +22.8000912     982.7803     72.52143      1.240     2.27     3.972931     20.47615     137.6174        13     0.916     0.774  44.86   0
       234    579.4622    487.7804 300.2413307 +22.6947472     318.8939     72.55842      1.069     2.39     4.415737     20.47615      44.0943         5     0.701     0.453 -67.00   0
       235    670.1969    485.7773 300.2702375 +22.7213676     1106.848     72.52143      1.230     1.98     4.403682     20.47615     178.5137        11     0.819     0.755 -27.56   0
       236    466.0645    486.3489 300.2064977 +22.6603409     514.3719     72.63235      1.117     1.87     4.219837     20.47615     92.78633         7     0.668     0.628   9.72   0
       237    174.3448    484.2736 300.1164468 +22.5722561     755.0392     72.57691      1.326     2.31     4.242104     20.47615     105.7106        12     0.883     0.772  19.47   0
       238    236.6102    479.8639 300.1372339 +22.5896688     3473.683     72.52143      1.246     2.27     4.316219     20.47615      569.075        24     1.071     0.901  69.49   0
       239    969.6788    478.0460 300.3660913 +22.8088725     4432.197     72.57691      1.270     2.19     3.924321     20.47615     635.5397        26     1.017     0.988 -39.44   0
       240    183.8258    474.6790 300.1225097 +22.5723474     7410.538     72.57691      1.309     2.30     4.291031     20.47615     1125.431        33     1.113     1.024  71.52   0
       241    949.6754    469.1889 300.3627297 +22.8003356     1779.972     72.59539      1.184     2.03     3.951466     20.47615     273.2596        18     1.013     0.839  20.54   0
       242    324.5759    468.8774 300.1681547 +22.6128991     4715.007     72.59539      1.208     2.03     4.288361     20.47615     773.8519        26     1.002     0.949 -80.81   0
       243    568.7818    465.4702 300.2452517 +22.6851391     18082.16     72.61387      1.142     1.98     4.453802     20.47615     3022.815        47     1.094     0.996  81.88   0
       244    586.2262    465.5448 300.2506588 +22.6903894     778.8445     72.57691      1.657     5.96     4.437306     20.47615     87.93714        13     1.401     0.713 -43.83   0
       245    195.9438    463.9966 300.1297455 +22.5729175     302.5616     72.53992      1.436     2.23     4.345611     20.47615     42.08332         5     0.598     0.588  -0.93   0
       246    765.8098    455.5549 300.3098410 +22.7413374     436.6863     72.59539      1.366     2.79     4.420857     20.47615      70.9263         8     1.029     0.576  85.03   0
       247    188.8850    452.6360 300.1312407 +22.5675404      339.959     72.55842      1.165     3.38     4.383433     20.47615     41.19426         7     0.751     0.649  -2.26   0
       248    902.5115    447.6455 300.3550198 +22.7800174     699.0954     72.57691      1.253     3.19     4.177065     20.47615     103.7466        12     1.075     0.769 -29.45   0
       249    123.4505    445.7394 300.1131447 +22.5459324     1988.262     72.63235      1.285     2.36     4.362477     20.47615     299.1393        19     1.009     0.934  44.00   0
       250    509.4212    434.9120 300.2366967 +22.6585705     6629.777     72.50293      1.181     1.99      4.57191     20.47615     1014.423        34     1.086     0.989  81.95   0
       251    923.0483    435.0870 300.3655019 +22.7825593     1232.981     72.57691      1.210     2.09     4.030526     20.47615      217.063        12     0.901     0.728 -83.97   0
       252    224.4127    434.5631 300.1481532 +22.5730108     600.7394     72.55842      1.227     2.61     4.465978     20.47615     79.43609        10     0.939     0.680  39.41   0
       253     81.7255    427.3962 300.1061367 +22.5281521     445.2874     72.48442      1.319     2.72     4.497379     20.47615     72.68933         8     0.922     0.567  22.60   0
       254    713.6825    423.8663 300.3038905 +22.7166148     1127.179     72.68774      1.291     2.39     4.454686     20.47615     192.9218        15     1.066     0.791  59.20   0
       255    623.0311    425.1269 300.2752453 +22.6898122     495.2141     72.57691      1.263     1.71      4.42676     20.47615     102.7618         8     0.703     0.609  41.20   0
       256   1000.7951    422.9149 300.3937022 +22.8023446     262.4191     72.50293      1.588     5.61     3.833858     20.47615     32.13837         7     1.178     0.754   3.96   0
       257    416.0884    421.2744 300.2120802 +22.6266747     6046.896     72.72465      1.188     2.02     4.679486     20.47615     988.0504        28     1.040     0.931  86.49   0
       258    905.6703    415.4703 300.3664537 +22.7717165     600.0529     72.66928      1.169     2.72     4.181087     20.47615     95.61333        11     0.904     0.778   4.08   0
       259    808.0026    415.4284 300.3360210 +22.7424490       1325.8     72.52143      1.183     2.21     4.502085     20.47615     217.0018        16     1.026     0.822 -79.20   0
       260    400.5925    409.8851 300.2109571 +22.6187590     415.3662     72.50293      1.168     2.31     4.639976     20.47615     69.69318         8     0.761     0.662  -2.66   0
       261    483.4214    408.1054 300.2373089 +22.6430792     473.1824     72.50293      1.278     2.35      4.69665     20.47615     80.91803         7     0.869     0.491 -86.11   0
       262    780.8510    403.1491 300.3315465 +22.7307866     541.1248     72.61387      1.316     1.86     4.493771     20.47615     101.4783         8     0.741     0.605  60.23   0
       263    303.5911    400.4633 300.1838441 +22.5869695     2450.498     72.53992      1.155     2.22     4.446969     20.47615     358.5574        19     0.934     0.880  88.04   0
       264     22.0764    398.1115 300.0971154 +22.5018551     1000.369      72.7062      1.490     2.84     4.646939     20.47615     118.5504        16     1.078     0.887 -39.85   0
       265    651.3739    394.8061 300.2939177 +22.6895962     256.2703     72.55842      1.023     1.91     4.442923     20.47615     53.33191         5     0.658     0.469 -74.87   0
       266    272.9276    389.9650 300.1777174 +22.5747610     29319.86     72.57691      1.296     2.13      4.46118     20.47615     4710.541        65     1.189     1.141  68.18   0
       267    807.6586    387.2281 300.3450706 +22.7342423     1380.858     72.57691      1.170     2.19     4.510142     20.47615     191.7236        14     0.849     0.820  38.96   0
       268    763.1616    385.0934 300.3318967 +22.7202991     272.4625     72.59539      1.227     2.99     4.488132     20.47615     61.33108         8     0.936     0.611 -24.31   0
       269    268.7670    384.3557 300.1782448 +22.5719033     384.7621     72.61387      2.099     5.16     4.463518     20.47615     58.56095         5     1.166     0.645 -78.26   1
       270    722.9156    376.1548 300.3222589 +22.7056736      564.531     72.55842      1.140     1.66     4.475012     20.47615     119.4947         8     0.701     0.620  49.61   0
       271    146.8961    376.2264 300.1429999 +22.5330201     530.2975     72.53992      1.413     2.07     4.592781     20.47615     72.05227         7     0.697     0.627 -17.46   0
       272    371.4945    374.8052 300.2132943 +22.5999637      524.421      72.4659      1.203     3.30     4.495039     20.47615     78.14292         8     0.999     0.592 -82.78   0
       273    683.2518    369.4202 300.3120890 +22.6918551     1941.375     72.55842      1.189     2.14     4.476891     20.47615     293.3118        19     0.975     0.887  75.34   0
       274    898.3486    362.3469 300.3814196 +22.7542546     651.4806     72.61387      1.129     2.19     4.478154     20.47615     87.35454         8     0.795     0.600  -3.58   0
       275    345.1206    354.2462 300.2117645 +22.5861541     2214.609     72.57691      1.398     2.50     4.412568     20.47615     289.5251        23     1.263     0.883  58.90   0
       276    557.4743    353.0783 300.2782252 +22.6494713     389.9367     72.68774      1.393     2.94     4.340716     20.47615     51.37159         6     0.779     0.499  88.30   0
       277    784.4834    347.0403 300.3508952 +22.7157514     541.4324     72.53992      1.123     2.36     4.507128     20.47615     98.97852         9     0.785     0.731  -2.51   0
       278    683.5132    344.5977 300.3202288 +22.6848017     316.0367     72.50293      1.204     3.10     4.481184     20.47615     52.94011         5     0.885     0.497 -85.84   0
       279    666.6076    344.7659 300.3149082 +22.6797850     353.6333     72.57691      1.021     2.39     4.468015     20.47615     60.42906         5     0.692     0.465  73.27   0
       280    634.8287    343.8509 300.3053075 +22.6700004      278.978     72.59539      1.097     2.90     4.397781     20.47615     36.73564         6     0.733     0.571  43.66   0
       281    136.2605    335.1559 300.1530264 +22.5180442     253.1983     72.59539      1.298     4.16     4.641476     20.47615      33.5472         6     0.918     0.643  13.99   0
       282    420.9912    333.5599 300.2420822 +22.6029592     1046.039     72.57691      1.197     2.06      4.56854     20.47615     211.9648        13     0.907     0.742 -81.75   0
       283    228.2358    333.6213 300.1821124 +22.5451867     236.7465     72.59539      1.180     3.82     4.518249     20.47615     48.54753         6     0.935     0.747  67.17   0
       284    804.0961    326.6588 300.3636237 +22.7157685     178.5758     72.65082      1.121     3.33     4.502171     20.47615     53.04558         7     0.889     0.626  -8.61   0
       285    665.7838    325.3957 300.3209394 +22.6739728     2196.925     72.48442      1.143     1.98      4.46582     20.47615     362.1519        19     0.955     0.837  56.89   0
       286    927.0685    319.6515 300.4042349 +22.7505817     3200.463     72.55842      1.208     1.91     4.442211     20.47615     588.6517        25     1.043     0.904  51.99   0
       287    988.2732    314.4013 300.4250273 +22.7673979     562.0795      72.4659      1.479     3.26     3.754491     20.47615     64.34035         8     0.942     0.737  83.32   0
       288    374.1244    309.1649 300.2354193 +22.5819053     647.8128     72.53992      1.230     2.74     4.422118     20.47615     106.2047         8     0.821     0.647  71.44   0
       289    996.4784    307.4700 300.4298365 +22.7678615     1697.712     72.68774      1.227     2.21     3.663862     20.47615     216.4021        17     0.980     0.848  71.87   0
       290     49.0868    303.6853 300.1361553 +22.4828667     1410.768      72.7062      1.613     3.22     4.709993     20.47615     150.6156        23     1.324     1.028 -49.47   0
       291     79.5028    303.5132 300.1456603 +22.4919404     595.8564     72.76154      1.298     2.87     4.709579     20.47615     95.66902        13     1.080     0.867  27.75   0
       292    942.9582    299.9435 300.4155869 +22.7496735     546.2997     72.53992      1.351     3.04      4.24341     20.47615     75.30727        10     0.971     0.708  47.01   0
       293    786.4952    296.8653 300.3678087 +22.7019339     317.6296      72.7062      1.133     3.17     4.484915     20.47615     52.79757         8     0.869     0.655  35.39   0
       294    133.1119    295.3999 300.1649508 +22.5056903     514.9166     72.48442      1.434     3.23     4.671143     20.47615     70.51785        13     1.053     0.827 -64.91   0
       295    927.8027    292.7156 300.4132067 +22.7430576     376.7339     72.50293      1.311     3.36      4.38023     20.47615     56.96444         7     0.899     0.560  54.51   0
       296     27.9556    290.1412 300.1339867 +22.4726419     241.2044     72.59539      1.372     4.39     4.732054     20.47615      31.1045         6     0.824     0.665   1.41   0
       297    808.8963    288.8011 300.3774075 +22.7063252     339.8885      72.4659      1.035     2.06     4.467417     20.47615     66.70757         6     0.708     0.531  61.68   0
       298    737.5540    286.5419 300.3559085 +22.6843080     526.0122     72.63235      1.034     2.14     4.477897     20.47615     95.40755         6     0.735     0.496 -85.83   0
       299    327.6669    286.5821 300.2282975 +22.5614943     459.8319     72.55842      1.160     2.36      4.33274     20.47615     76.02004         7     0.869     0.490  57.04   0
       300     12.5111    279.1997 300.1327401 +22.4648697     128.2671     72.48442      1.000     3.43     4.725201     20.47615     34.13432         5     0.773     0.441 -68.19   0
       301    835.6808    275.7909 300.3899784 +22.7106068     2021.156     72.52143      1.224     2.31     4.407969     20.47615     295.2624        17     0.957     0.853  33.95   0
       302    254.1933    273.4497 300.2097108 +22.5356966     2227.583     72.57691      1.348     2.29     4.513616     20.47615     291.8046        20     1.135     0.834  67.97   0
       303    332.0435    268.2223 300.2356167 +22.5575344     1015.832     72.63235      1.405     2.78     4.396344     20.47615     122.8837        16     1.058     0.928 -66.20   0
       304     83.5772    268.4921 300.1582908 +22.4831122     442.3364     72.50293      1.707     5.23     4.799451     20.47615     49.45229         9     1.309     0.591  25.88   0
       305    840.5940    264.1643 300.3952830 +22.7087359     392.0785     72.59539      1.278     2.81     4.389958     20.47615     55.95209         6     0.790     0.482  81.48   0
       306    148.9799    260.3990 300.1812398 +22.5004030     750.4844     72.50293      1.267     3.05     4.799654     20.47615     101.8844        11     1.054     0.722  65.73   0
       307    733.9030    267.6570 300.3608997 +22.6777870     491.6308     72.66928      1.105     2.63     4.448316     20.47615     101.4797         9     0.880     0.655 -78.42   0
       308    686.6272    257.3085 300.3495295 +22.6606523     1663.014     72.52143      1.138     1.99     4.469689     20.47615     252.6263        17     0.936     0.828  89.10   0
       309    751.6451    256.8034 300.3699500 +22.6799817     493.8856     72.57691      1.072     2.15     4.428046     20.47615     101.5002         9     0.765     0.697  34.42   0
       310    170.4203    253.7176 300.1900714 +22.5049142     661.8002     72.53992      1.456     2.45     4.815307     20.47615     81.90845        10     0.845     0.763 -60.10   0
       311    958.1871    249.6688 300.4366524 +22.7397775     964.0931     72.59539      1.384     2.57     4.408234     20.47615     117.8934        14     0.964     0.864  41.57   0
       312    460.3173    249.7076 300.2815327 +22.5906635     299.8031     72.72465      1.207     2.91     4.392328     20.47615     57.06115         7     0.892     0.534 -27.42   0
       313    690.7042    248.6964 300.3535942 +22.6593986     819.1288     72.76154      1.161     1.96      4.46271     20.47615     116.5851         8     0.759     0.610 -85.78   0
       314    611.2764    248.0638 300.3290606 +22.6354233     1307.115     72.65082      1.201     1.99     4.664894     20.47615     227.2829        14     0.897     0.796 -85.22   0
       315    432.6513    244.1874 300.2747146 +22.5807869     443.0449     72.61387      1.372     3.93     4.392328     20.47615     50.88108         6     0.798     0.555 -52.55   0
       316    806.6414    239.4420 300.3927225 +22.6914617     1329.135     72.66928      1.109     1.98     4.391004     20.47615     226.7552        16     0.951     0.788  55.33   0
       317    537.5485    239.7914 300.3087890 +22.6109573     948.6637     72.57691      1.134     2.16     4.712873     20.47615     146.0261        11     0.808     0.754   1.66   0
       318    818.8002    238.4176 300.3968447 +22.6948083     841.8217     72.50293      1.309     2.58     4.381383     20.47615     120.8477        14     1.023     0.879 -83.57   0
       319    865.3577    237.2894 300.4117237 +22.7084251     247.0538     72.57691      1.388     3.92     4.350223     20.47615     32.94664         6     0.889     0.496 -45.67   0
       320    979.5477    229.2595 300.4499372 +22.7403030     1569.806     72.63235      1.188     2.15     4.760721     20.47615     198.0676        17     0.988     0.865 -59.04   0
       321    935.4685    228.7360 300.4363597 +22.7269569     1186.643     72.63235      1.200     2.05     4.416892     20.47615     184.9039        17     0.963     0.902  67.41   0
       322    169.4572    222.0973 300.2000311 +22.4955485     787.4091     72.66928      1.334     2.98     4.980862     20.47615     95.97151        12     1.093     0.661  47.26   0
       323    838.9061    222.1244 300.4083984 +22.6961449     253.5877     72.72465      1.218     4.14     4.356779     20.47615     44.92331         6     1.266     0.386  21.94   0
       324     51.5072    221.4375 300.1635945 +22.4599899      196.556     72.57691      1.344     3.56     4.825995     20.47615     35.57062         5     0.916     0.533 -45.45   0
       325     31.4570    216.9598 300.1588187 +22.4526917      2175.68     72.55842      1.420     2.62     4.763141     20.47615     285.2785        22     1.155     0.971  65.06   0
       326    854.3632    213.5215 300.4160081 +22.6982997     715.0938     72.53992      1.152     2.30     4.354337     20.47615     113.0301        12     0.932     0.709  58.82   0
       327    188.7863    210.2547 300.2098810 +22.4979440     5671.709     72.57691      1.291     2.32     4.980862     20.47615     761.4502        33     1.157     1.026  70.09   0
       328    170.4088    211.1650 300.2038735 +22.4926954     211.2455     72.55842      1.103     2.69     4.980862     20.47615     49.01913         5     0.703     0.476  76.18   0
       329    172.0415    201.0779 300.2076533 +22.4902890     614.6295     72.55842      1.337     2.06     4.980862     20.47615      94.4384         9     0.731     0.705 -69.41   0
       330    987.6161    197.3858 300.4627954 +22.7335516     18159.72     72.52143      1.241     2.16     4.936044     20.47615     2623.237        48     1.188     1.072 -88.69   0
       331    832.7981    191.5258 300.4164219 +22.6855188     3492.056     72.48442      1.234     2.09      4.36744     20.47615     583.4826        27     1.063     0.955  75.95   0
       332    936.5055    190.2072 300.4491837 +22.7161878     2716.223      72.4659      1.203     2.23     4.742171     20.47615      340.321        23     1.024     0.932  68.13   0
       333    382.2168    186.7745 300.2776491 +22.5491818     458.1722     72.59539      1.101     2.14     4.708554     20.47615     90.40504         9     0.801     0.644  75.26   0
       334    496.3489    184.6165 300.3138647 +22.5827615     280.3993     72.57691      1.474     3.66     4.859217     20.47615     46.66744         6     1.068     0.532  47.07   0
       335    306.4649    178.7810 300.2566794 +22.5241829     584.6582     72.53992      1.237     2.18     4.877158     20.47615     94.12169         9     0.777     0.715   8.41   0
       336    310.3104    176.9830 300.2584586 +22.5248191     379.4713     72.50293      1.169     3.74     4.880395     20.47615     46.98846         7     0.873     0.563  58.69   0
       337     72.4530    175.7773 300.1849132 +22.4531657     691.3955     72.59539      1.607     3.16     4.934952     20.47615     79.34869        13     1.096     0.747  46.46   0
       338    433.6407    174.1163 300.2977551 +22.5609557     1692.225     72.53992      1.229     2.12     4.829638     20.47615     270.2508        16     0.929     0.806  85.28   0
       339    361.7864    174.7968 300.2751788 +22.5396188     473.0605     72.41034      1.321     2.23     4.829265     20.47615     72.89072         8     0.751     0.661 -41.30   0
       340    494.9680    173.0003 300.3172030 +22.5790104     365.2779     72.53992      1.254     3.89     4.966078     20.47615     56.23532         8     0.929     0.792  35.28   0
       341    177.4102    169.4098 300.2195944 +22.4828067     503.4809      72.4659      1.686     2.94     4.980862     20.47615     49.88794         9     0.928     0.672 -54.67   0
       342    650.1576    167.7213 300.3672353 +22.6239819     355.7388     72.55842      1.178     2.99      4.89059     20.47615     45.90255         6     0.745     0.591  73.54   0
       343    722.1354    163.4903 300.3910299 +22.6443223     296.3775     72.68774      1.081     2.37     4.846385     20.47615     72.63927         5     0.718     0.449  23.03   0
       344    306.6801    159.5731 300.2629766 +22.5187311     384.2976     72.57691      1.669     3.07     4.955858     20.47615     48.27202         6     0.874     0.491 -47.84   0
       345    867.6506    157.8424 300.4382134 +22.6862684     283.4968     72.59539      1.223     1.88     4.434566     20.47615     56.30007         5     0.683     0.444  70.46   0
       346    207.6761    154.2142 300.2339310 +22.4875168     6007.664     72.59539      1.310     2.22     4.989326     20.47615     856.2465        35     1.178     1.079 -89.77   0
       347    998.1078    154.6737 300.4799241 +22.7244070     3455.947     72.72465      1.310     2.21     4.990658     20.47615     564.3024        26     1.058     0.997  83.28   0
       348    993.4917    156.0879 300.4780254 +22.7234322     275.9189      72.7431      1.563     4.15     4.990999     20.47615     50.72676         5     1.183     0.415  75.40   0
       349     58.6044    153.3379 300.1878888 +22.4425721     787.9921     72.55842      1.670     3.96     4.941148     20.47615     72.68037        12     1.164     0.759  57.99   0
       350    836.7716    151.0990 300.4307745 +22.6750848     311.2337     72.50293      1.142     2.03     4.466061     20.47615     60.36543         7     0.713     0.599  83.21   0
       351    179.3020    148.1747 300.2270698 +22.4772769     287.3067     72.53992      1.190     3.48     5.010915     20.47615     51.69275         6     0.735     0.628  82.91   0
       352    223.6190    145.6818 300.2416546 +22.4898458     199.8246     72.55842      1.036     3.89     4.989874     20.47615     47.30123         7     0.967     0.566 -65.52   0
       353    683.5248    145.2541 300.3849163 +22.6275175     135.5981     72.61387      1.023     3.40     4.910323     20.47615     33.72355         5     0.743     0.450 -68.45   0
       354    453.8000    139.3882 300.3152925 +22.5570191      6093.61     72.37328      1.216     2.18     4.952863     20.47615      867.175        30     1.094     0.958  77.91   0
       355    339.2942    139.0247 300.2797849 +22.5226035      666.887     72.50293      1.277     2.60     4.958134     20.47615     108.6751        13     0.901     0.887  -5.17   0
       356    510.6100    133.9995 300.3347218 +22.5724906     317.1086     72.39181      1.152     3.80     4.941609     20.47615     49.11003         7     0.841     0.708 -32.57   0
       357    647.6512    129.8958 300.3787234 +22.6123594     238.2082     72.65082      1.259     3.47     4.925884     20.47615     41.29482         6     0.966     0.438 -77.38   0
       358    706.2295    128.8518 300.3973094 +22.6296018     829.0612     72.59539      1.268     1.96     4.885767     20.47615     131.9985         9     0.777     0.687  74.73   0
       359    798.9044    127.5936 300.4265955 +22.6569891     394.3611      72.4659      1.199     1.74     4.623514     20.47615     79.32484         6     0.691     0.491  -1.61   0
       360     18.4666    126.0601 300.1842669 +22.4227067     311.8934     72.61387      1.169     3.40     4.853477     20.47615     36.68561         6     0.789     0.499 -88.32   0
       361    146.7163    123.4450 300.2249620 +22.4604079      525.374     72.53992      1.334     3.29     5.094715     20.47615     67.70735         9     1.050     0.572  83.44   0
       362    505.1284    121.8402 300.3369590 +22.5673546     326.6748     72.55842      1.151     2.07     4.910505     20.47615     69.77551         8     0.751     0.631  61.35   0
       363    582.1588    119.3891 300.3617352 +22.5897243     6119.065     72.57691      1.218     2.10     4.898906     20.47615     947.0715        30     1.070     0.945  78.03   0
       364    357.0265    118.4687 300.2919672 +22.5220127     1403.764     72.55842      1.332     2.17     4.956972     20.47615     220.9279        19     1.050     1.002 -21.41   0
       365    623.1547    116.6523 300.3753891 +22.6012163     764.4725     72.59539      1.193     2.31     4.927058     20.47615     138.9671        10     0.924     0.626  64.26   0
       366    693.2878    113.8444 300.3981447 +22.6214122     393.8432     72.55842      1.524     3.39     4.903028     20.47615     63.10536         5     1.069     0.423 -80.58   0
       367    639.5162    112.6570 300.3817804 +22.6049680     644.6623     72.66928      1.451     2.92     4.926806     20.47615     92.02436         9     0.913     0.734 -11.66   0
       368    105.8849    111.0381 300.2162966 +22.4446048     614.9685     72.55842      1.380     3.59     5.130669     20.47615     72.18591        11     0.995     0.844  61.56   0
       369    909.1904    110.1028 300.4666490 +22.6849741     542.7806     72.48442      1.259     2.78     4.989047     20.47615      80.6764         9     0.851     0.734  76.17   0
       370    677.6666    108.3670 300.3950548 +22.6151597      558.462     72.57691      1.179     2.89     4.920861     20.47615     77.46101        10     0.941     0.655  86.24   0
       371    641.3875    103.1234 300.3854550 +22.6027881     911.9515     72.59539      1.790     4.77     4.927161     20.47615     102.3008        16     1.562     0.875  74.21   0
       372    626.4487    104.1902 300.3804564 +22.5986208      2557.41     72.59539      1.216     2.25     4.927246     20.47615     379.8452        21     1.060     0.866 -85.72   0
       373    266.9542    105.2898 300.2682275 +22.4912346     340.3914     72.55842      1.102     2.11     4.948769     20.47615     66.44215         7     0.709     0.607 -16.68   0
       374    712.6853     95.7353 300.4100605 +22.6220145     1575.704     72.68774      1.210     2.24     4.892938     20.47615     258.6765        17     1.024     0.854  67.03   0
       375    650.8444     89.1122 300.3929440 +22.6015926     708.6546     72.55842      1.250     2.41     5.003155     20.47615     114.7432        10     0.843     0.748 -70.47   0
       376    456.3538     88.3151 300.3326500 +22.5431098     1099.047     72.55842      1.250     2.37     4.825793     20.47615     138.7439        14     0.942     0.805 -59.66   0
       377     29.5448     88.1621 300.1999968 +22.4151497     542.7274     72.57691      1.457     3.93     4.937117     20.47615     73.48934         7     1.029     0.586 -66.51   0
       378    359.9364     86.4986 300.3032395 +22.5137006     749.0954     72.68774      1.307     3.06      4.91789     20.47615     98.13392        11     0.970     0.741  83.22   0
       379    742.2784     84.9322 300.4227841 +22.6277691      542.072     72.68774      1.350     2.49     4.973072     20.47615     70.94437         8     0.786     0.646  57.96   0
       380   1003.2593     83.0567 300.5047582 +22.7053472     2405.847     72.65082      1.360     2.40     5.229915     20.47615     325.3801        21     1.132     0.895 -82.05   0
       381    699.5737     77.1296 300.4120089 +22.6127394     646.8785     72.57691      1.401     2.49     5.096107     20.47615     75.90812         9     0.838     0.675  69.41   0
       382    131.5737     76.5593 300.2354591 +22.4424062     3803.478     72.63235      1.449     2.62      5.27691     20.47615     473.2724        31     1.248     1.078  60.63   0
       383    457.2225     73.8346 300.3376157 +22.5392091     333.1394     72.59539      1.137     2.13     4.813964     20.47615     64.63239         8     0.768     0.627  48.11   0
       384    247.4464     68.8462 300.2739785 +22.4749211     1232.342     72.61387      1.303     2.27     4.926628     20.47615     174.3748        17     0.962     0.922  65.73   0
       385    692.9383     68.7461 300.4126601 +22.6083424     915.3004     72.63235      1.247     2.27     5.180033     20.47615     134.9314        12     0.924     0.726  88.22   0
       386    658.5956     67.7567 300.4022829 +22.5977746      298.333     72.59539      1.127     3.65     5.202053     20.47615     48.52019         5     0.870     0.530 -34.18   0
       387    474.2118     65.5645 300.3455845 +22.5419220     179.0772     72.57691      1.300     3.59     4.807254     20.47615     35.43494         5     0.944     0.394  82.74   0
       388    730.7661     63.9435 300.4260027 +22.6182876     732.6859     72.59539      1.495     3.06     5.208603     20.47615     88.68217        13     1.171     0.662  63.49   0
       389    654.0929     63.7033 300.4021947 +22.5952610     490.9907     72.76154      1.205     2.08     5.239938     20.47615     79.31606         7     0.677     0.646   1.96   0
       390    750.7426     60.2002 300.4334409 +22.6231920     2166.316     72.50293      1.202     2.01     5.168105     20.47615          341        19     0.953     0.855  59.43   0
       391    456.3686     58.4607 300.3423346 +22.5345356     308.0264     72.61387      1.129     3.44     4.800649     20.47615     60.10674         7     0.870     0.599 -70.92   0
       392    134.0665     55.6930 300.2429989 +22.4371617     1039.457     72.72465      1.338     2.55      5.38642     20.47615     132.9167        13     1.019     0.750  45.95   0
       393    925.6190     53.4812 300.4901327 +22.6736048     783.6313     72.55842      1.255     2.24     5.100803     20.47615     98.77545        12     0.842     0.787 -62.94   0
       394    699.2171     52.5466 300.4198685 +22.6055649     895.1915     72.55842      1.193     2.22      5.33506     20.47615     143.4512        13     1.041     0.721  72.27   0
       395    406.5051     50.9138 300.3292651 +22.5174294       388.67     72.76154      1.332     3.28     4.792749     20.47615     50.56075         6     0.979     0.452  31.79   0
       396    456.8225     45.3999 300.3467103 +22.5309184     342.5975     72.50293      1.203     2.72     4.789983     20.47615     38.90188         5     0.724     0.448 -20.39   0
       397    283.8774     42.3732 300.2938894 +22.4782343     465.6922     72.57691      1.202     2.94       4.7909     20.47615     76.39341         9     0.897     0.732  59.02   0
       398    784.1746     36.5044 300.4515420 +22.6263864     244.9786     72.50293      1.030     1.82     5.064311     20.47615     58.14223         5     0.664     0.474  19.87   0
       399    686.9589     35.2410 300.4216604 +22.5969190     423.3558     72.65082      1.432     3.25     5.514118     20.47615     52.40768         8     0.889     0.851  46.91   0
       400    160.8483     34.9440 300.2580489 +22.4392305     472.0473     72.61387      1.262     3.14      5.49593     20.47615     67.36027         9     0.871     0.729 -74.65   0
       401    551.6568     37.6072 300.3787561 +22.5570835     761.1654     72.55842      1.192     2.26     4.896892     20.47615     108.8051        13     0.893     0.831  10.60   0
       402    714.7897     32.3887 300.4312555 +22.6044314     642.5151      72.4659      1.234     2.33     5.543752     20.47615     97.63535        10     0.868     0.677  82.95   0
       403    345.7392     33.3163 300.3160657 +22.4941681     197.0269     72.68774      1.120     3.13     4.758181     20.47615     44.61589         6     0.961     0.527 -35.66   0
       404    523.3366     30.6699 300.3721885 +22.5466078     1923.272     72.61387      1.254     2.12     4.811856     20.47615     290.6654        19     1.037     0.860  74.68   0
       405    246.1845     28.2749 300.2867392 +22.4628896     634.7248     72.57691      1.264     2.54     4.850691     20.47615     84.40258        11     0.913     0.728  80.53   0
       406    480.7485     24.6034 300.3608986 +22.5321086     1173.977     72.57691      1.192     2.23     4.784326     20.47615     201.9613        13     0.970     0.731  84.17   0
       407     56.7786     25.5627 300.2287514 +22.4053422     194.2502     72.59539      1.198     3.18     5.396875     20.47615     36.34112         5     0.741     0.432  23.84   0
       408    586.0605     21.2587 300.3947681 +22.5626871      1318.08     72.65082      1.175     2.02     5.351553     20.47615     234.8494        13     0.834     0.800  58.06   0
       409    197.4776     22.3352 300.2735219 +22.4465872     1893.959     72.66928      0.772     1.53     5.185678     20.47615      657.241         6     0.580     0.447 -40.31   0
       410    681.4161     20.8078 300.4246128 +22.5911097      215.287     72.50293      1.157     2.68     5.648878     20.47615     40.25314         5     0.701     0.478 -76.33   0
       411    181.3319     20.2530 300.2691780 +22.4411505     643.4056     72.59539      1.472     2.91     5.359824     20.47615     60.95342        10     0.929     0.726  64.58   0
       412    230.0834     18.0364 300.2850520 +22.4551237     426.5206     72.55842      1.294     4.56      4.87228     20.47615     56.75643         9     1.055     0.691  68.51   0
       413    926.8234     17.3486 300.5022227 +22.6635710     150.6596     72.59539      1.041     2.25     5.152571     20.47615     46.26606         5     0.715     0.439 -19.10   0
       414    203.5958   1020.7914 299.9510922 +22.7348760     889.2744     69.69115      2.208     5.25     9.339116     20.47615     55.64203        15     1.266     1.004  86.24  16
       415    764.1261   1020.5656 300.1255962 +22.9030520      404.304     70.47604      1.700     5.57     2.849441     20.47615     42.16496         8     1.225     0.755  14.08  16
       416    492.2269   1020.6637 300.0408985 +22.8214945     387.5369     70.15166      1.481     3.71     2.653516     20.47615     48.58827        10     0.974     0.818  23.01  16
       417    521.1207   1017.2167 300.0510129 +22.8291779     1513.465     72.57691      1.654     3.72     2.696023     20.47615     132.3126        25     1.338     1.111 -33.64  16
       418    415.0689   1013.9639 300.0190719 +22.7964135     1087.399     72.57691      1.732     3.89     2.691209     20.47615     92.18196        18     1.174     1.088 -34.39   0
