#   1 NUMBER                 Running object number                                     
#   2 X_IMAGE                Object position along x                                    [pixel]
#   3 Y_IMAGE                Object position along y                                    [pixel]
#   4 ALPHA_J2000            Right ascension of barycenter (J2000)                      [deg]
#   5 DELTA_J2000            Declination of barycenter (J2000)                          [deg]
#   6 FLUX_APER              Flux vector within fixed circular aperture(s)              [count]
#   7 FLUXERR_APER           RMS error vector for aperture flux(es)                     [count]
#   8 FLUX_RADIUS            Fraction-of-light radii                                    [pixel]
#   9 FWHM_IMAGE             FWHM assuming a gaussian core                              [pixel]
#  10 BACKGROUND             Background at centroid position                            [count]
#  11 THRESHOLD              Detection threshold above background                       [count]
#  12 FLUX_MAX               Peak flux above background                                 [count]
#  13 ISOAREA_IMAGE          Isophotal area above Analysis threshold                    [pixel**2]
#  14 A_IMAGE                Profile RMS along major axis                               [pixel]
#  15 B_IMAGE                Profile RMS along minor axis                               [pixel]
#  16 THETA_IMAGE            Position angle (CCW/x)                                     [deg]
#  17 FLAGS                  Extraction flags                                          
         1    469.1657     19.3732 300.3326917 +22.5431476     1169.817     71.96008      1.798     3.23     6.177505     20.29696     124.0566        20     1.277     1.008 -68.97   0
         2     42.0007     18.9348 300.1998908 +22.4151357      734.137     71.94176      2.217     5.62     7.033951     20.29696     61.65836        15     1.292     1.041  49.92   0
         3    372.8884     17.5796 300.3032875 +22.5138173     861.8747     71.86842      1.732     4.14     6.291819     20.29696     96.26935        16     1.375     0.927  55.42   0
         4   1016.1136     14.8337 300.5047442 +22.7054272     2282.256      71.9051      1.803     3.77     6.296941     20.29696     190.2422        32     1.392     1.304 -53.13  16
         5    712.4434      8.4215 300.4120625 +22.6127800     634.0663     71.99671      1.564     3.70     6.654321     20.29696     68.41393        13     1.141     0.779  63.03   0
         6    144.2456      7.3031 300.2354562 +22.4424120     3909.369     71.96008      1.922     3.52     7.283643     20.29696     360.0637        41     1.487     1.448  44.42  16
         7    470.3320      5.4013 300.3375803 +22.5394772     293.4521      71.9051      1.392     3.38     6.148506     20.29696     36.63363         5     0.734     0.451  19.45  16
         8    705.7795      1.2139 300.4123189 +22.6087122     433.1722     55.27931      0.890     2.67     6.689099     20.29696     103.2047         6     0.957     0.376  10.72  24
         9    260.2899      1.1328 300.2735617 +22.4753822     250.0646      54.8724      1.131     3.16     7.484381     20.29696     69.31046         5     1.067     0.294  -9.49  24
        10    147.5378    989.6039 299.9176969 +22.7254732     1203.478     71.94176      5.301    14.16     70.59952     20.29696     42.82973        33     3.009     1.853  -6.08   3
        11    213.0061   1022.3049 299.9274264 +22.7544970     454.8177     63.03438      2.148     8.14     50.41849     20.29696     39.53671         8     1.799     1.030  15.88  27
        12    221.6560   1020.4563 299.9307186 +22.7565620      1699.02     70.19813      3.627    15.18     41.59359     20.29696     46.06573        43     3.033     2.113  40.81  19
        13    222.6149   1016.0375 299.9324541 +22.7555822     1439.369     71.94176      3.842    11.57     39.34302     20.29696     50.21951        32     2.496     1.494  54.40  19
        14     62.1101   1012.3883 299.8837232 +22.7063718     4096.282     71.88676     12.769    66.75     88.66365     20.29696     138.4539      1326    14.262     8.669  36.87  27
        15     53.1051    956.1013 299.8992269 +22.6875272     5035.835     72.12476     18.899    68.96      47.3308     20.29696     1319.826      2193    15.199    13.670  21.44  19
        16    706.3762    992.4863 300.0907802 +22.8938917     492.2466      71.9051      1.887     4.47     5.111519     20.29696     38.60975         5     1.169     0.485   6.01   3
        17    705.3105    990.3137 300.0911545 +22.8929484     621.5376     72.10648      1.577     4.48     5.123375     20.29696     41.16936         7     1.710     0.334 -11.06   2
        18     48.5915    921.0052 299.9092340 +22.6761069     3142.902     71.79501     12.076    52.09     25.01794     20.29696     83.53245       764    11.102     6.781 -33.81  19
        19     81.1318    989.6049 299.8970464 +22.7055466      865.205      71.9051      6.049     8.48     72.42575     20.29696     34.13793        12     2.410     0.833   0.23   1
        20    145.4252    994.9067 299.9153154 +22.7263603      1476.59     71.88676      3.554     9.92     74.82139     20.29696     64.38377        35     2.162     1.269 -16.98   3
        21    137.3182    971.5662 299.9203840 +22.7172329     1195.025      71.9051     28.928    18.25     56.43581     20.29696     54.96953        41     4.821     1.919  68.75   3
        22    471.1808    980.1445 300.0215024 +22.8198386       391.11     71.92343      1.385     3.60     5.141863     20.29696     37.84959         5     1.126     0.332 -79.54   0
        23    898.9808    974.9263 300.1565672 +22.9465633     618.2887     71.94176      1.948     7.96     5.160717     20.29696     39.74894        15     1.436     1.232  13.26   0
        24    103.2083    962.4679 299.9127350 +22.7043882     1323.076     71.94176     10.978    13.11     51.24766     20.29696     41.38152        30     2.370     2.019 -57.41   2
        25    459.5427   1005.4440 300.0096499 +22.8236105     476.0027     71.96008      2.047     5.39     4.903081     20.29696     41.57576         7     1.013     0.810  35.99   0
        26     99.5219    958.0455 299.9130266 +22.7020136     1388.677     71.92343      7.577    10.00     48.52994     20.29696     45.63316        23     2.782     1.002 -85.56   3
        27     96.6512    954.0685 299.9134271 +22.7000114     1505.813     71.92343      5.977     5.74     45.85463     20.29696      44.1989         8     1.336     0.694  40.26   3
        28    119.4854    959.9445 299.9186170 +22.7085485     1738.184     72.01501      7.108    16.55     48.32933     20.29696     52.14201        47     2.956     2.593  75.29   2
        29    624.2887    957.8156 300.0764666 +22.8593306     6712.203     71.88676      2.136     4.90     5.532991     20.29696     333.5361        54     1.679     1.568  24.94   0
        30    211.6572    978.5449 299.9412379 +22.7415390     8912.013      71.9967     11.006    37.06     32.76561     20.29696     167.7831      1031    12.415     6.069  64.65  19
        31    140.4012    983.2257 299.9175514 +22.7215023     1595.777     71.88676      3.388     8.86     65.18759     20.29696     48.01453        26     2.266     1.315 -26.86   2
        32    533.2114    948.9925 300.0509552 +22.8294944     1532.021     71.83173      2.234     5.22     5.563731     20.29696     90.77488        20     1.439     1.079 -15.90   2
        33    328.8167   1002.4091 299.9699352 +22.7835321     443.3575     71.86842      1.496     3.22     5.923911     20.29696     36.01903         5     0.737     0.448 -20.34   0
        34    711.0390    946.4493 300.1072053 +22.8820674     363.7639     71.96008      1.785     4.77     5.369322     20.29696     33.41712         5     1.072     0.601 -73.93   0
        35    426.6464    945.0773 300.0190361 +22.7964188      1155.72     71.94176      2.142     6.03     5.473412     20.29696     77.11852        24     1.470     1.347 -66.27   0
        36    357.2603    942.8201 299.9981665 +22.7749631     6544.138     71.88676      2.114     4.65     5.870613     20.29696     400.1975        50     1.640     1.549   8.44   0
        37    120.6455   1011.8181 299.9021093 +22.7237750     765.3216     71.97839      2.648    10.43     88.73708     20.29696     57.70696        14     2.246     1.350  76.92  16
        38    519.4728    995.4806 300.0315574 +22.8387212     2327.671     72.06992      2.154     5.01     5.345746     20.29696     127.8163        37     1.621     1.400  38.87   0
        39    606.9120    990.9015 300.0602914 +22.8636219     10198.93     72.10648      2.540     6.67     5.583779     20.29696     416.9038        50     1.970     1.567  10.01   3
        40    903.5417    922.0317 300.1751909 +22.9327312     2125.874     71.96008      2.216     5.44     5.228671     20.29696     106.6222        37     1.584     1.540 -45.75   0
        41    611.6475    988.5908 300.0625187 +22.8643781     9371.776     71.96008      2.220     5.32     5.562756     20.29696     430.7035        60     1.770     1.670  43.27   3
        42    148.8850   1006.2487 299.9127029 +22.7306517     1957.929     71.92343      4.890    16.01     83.84301     20.29696     55.21643        56     3.714     1.919 -47.96  19
        43    692.8538    911.5048 300.1128977 +22.8665807     758.3893     72.01501      2.202     7.45     5.542445     20.29696     45.12281        12     1.957     0.793  26.66   0
        44    727.1749    905.1162 300.1256757 +22.8750306     1036.603      71.9051      1.965     5.86     5.495693     20.29696     60.35474        20     1.325     1.110  23.25   0
        45    749.4621    898.5477 300.1347611 +22.8798220     11366.14     71.99671      2.038     4.69     5.491545     20.29696     600.4481        61     1.642     1.580 -78.64   0
        46    940.3775    899.4418 300.1940314 +22.9372733     514.6132     71.97839      2.291     5.83      5.39434     20.29696     33.45268         7     1.420     0.673  -8.78   0
        47    795.5496    898.4137 300.1491783 +22.8935925     669.1765     71.97839      2.230     7.55     5.450861     20.29696     44.70312        11     1.580     1.010 -18.14   0
        48    144.3696   1001.7423 299.9127641 +22.7280042     3073.352     71.96008      5.694    20.76     80.59622     20.29696      77.2376       111     4.293     2.788  19.22  19
        49    455.0173    886.7810 300.0468243 +22.7881904     339.5463     71.92343      1.613     4.20     5.627903     20.29696     31.14005         7     1.172     0.429  56.90   0
        50    758.0866    880.7539 300.1432353 +22.8772944     1304.016     71.92343      1.939     5.70     5.565743     20.29696     75.92684        21     1.334     1.137 -16.67   0
        51    609.5591    878.3167 300.0977232 +22.8320855     541.3605      71.9051      2.085     7.44     5.464575     20.29696     34.23354        11     1.424     1.090  22.08   0
        52    796.4340    873.8748 300.1574316 +22.8868071     900.1825     71.94176      2.337     6.39     5.588123     20.29696      58.2668        20     1.470     1.260  34.28   0
        53    136.1895    872.8163 299.9521365 +22.6885656     257.7547     71.88676      1.451     4.43     11.34504     20.29696     23.51204         5     0.771     0.724  55.55   0
        54    904.3000    871.3136 300.1919168 +22.9183835     358.4234     72.10648      1.612     3.41     5.560859     20.29696     40.64766         5     1.608     0.209  25.91   0
        55    844.3008    865.5925 300.1750557 +22.8987672     582.8546     71.83173      1.947     6.94     5.632879     20.29696     36.59447        13     1.370     0.986   5.73   0
        56    695.8029    864.7206 300.1290262 +22.8540259     705.7678     71.85007      2.127     6.66     5.604076     20.29696     43.84759        17     1.479     1.109   7.64   0
        57    707.2171    861.6287 300.1335900 +22.8565580     600.2951     71.94176      2.136     7.26     5.601193     20.29696     39.92952        15     1.462     1.010  50.67   0
        58    408.3776    860.5064 300.0408408 +22.7666639     4245.069     71.85007      1.986     4.41      5.71937     20.29696     297.9453        42     1.573     1.398  43.33   0
        59    187.0173    849.7499 299.9754431 +22.6971940     331.5545     71.94176      1.747     4.47     7.805719     20.29696      40.5639         7     1.146     0.792 -42.52   0
        60    451.9132    848.7370 300.0582237 +22.7763371      388.157     72.05162      1.788     4.47     5.703559     20.29696     30.85925         7     0.928     0.612 -28.45   0
        61    133.4956    846.3056 299.9599150 +22.6801512     796.8359     72.10648      2.119     5.94     8.794025     20.29696     61.51374        16     1.407     1.098 -41.48   0
        62    110.9843    842.9647 299.9540000 +22.6724396     1451.447     71.94176      1.987     4.35     8.883753     20.29696     129.2316        27     1.534     1.282  31.72   0
        63    982.5938    832.6310 300.2289273 +22.9307133     2042.383     71.94176      2.077     5.54     5.515109     20.29696     122.0411        34     1.542     1.414  50.80   0
        64    936.8967    831.1722 300.2151377 +22.9166093     2118.594     71.88676      2.074     4.98     5.802835     20.29696     111.9334        32     1.476     1.402   6.67   0
        65    721.1271    824.9072 300.1498628 +22.8501761      705.766     72.06991      1.860     6.55      5.46269     20.29696       54.616        15     1.236     0.973 -12.14   0
        66    143.9196    825.2885 299.9699872 +22.6772476     210.7833     72.06992      1.115     4.12     7.487523     20.29696     41.28803         5     1.124     0.431 -56.79   0
        67    588.5472    818.7432 300.1105382 +22.8086781     4812.823      71.9967      1.845     3.94     5.431813     20.29696     344.3882        40     1.415     1.381  22.09   0
        68    390.9340    815.8664 300.0499176 +22.7486182     557.1253      71.9967      1.639     5.32      5.96233     20.29696     47.38034         9     0.967     0.825  39.07   0
        69    138.8262    812.0653 299.9727001 +22.6719254     1332.037     71.92343      2.029     5.03     6.784112     20.29696     79.60726        29     1.511     1.353  61.94   0
        70    609.2049    811.4151 300.1193576 +22.8127638      622.782     71.81337      1.825     5.41     5.431813     20.29696     51.54459        14     1.328     1.077 -21.31   0
        71    764.6028    798.6014 300.1719695 +22.8556426      4262.57     71.72153      1.900     4.15     5.474287     20.29696     256.5178        40     1.442     1.432  13.57   0
        72    981.6307    799.1242 300.2395166 +22.9207927     1157.503     71.94176      2.050     5.72     5.566184     20.29696     78.46565        20     1.362     1.160  15.69   0
        73    482.0279    790.6548 300.0864790 +22.7686861     602.4141     71.94176      1.759     6.14     5.940966     20.29696     47.07959        11     1.469     0.744  65.75   2
        74    128.1314    788.7726 299.9769426 +22.6620337     961.8859     71.92343      1.975     5.25     6.137746     20.29696     63.55434        20     1.497     1.077 -17.99   0
        75    277.5560    780.8582 300.0260007 +22.7045742     53143.38     71.96008      1.933     3.94     6.032114     20.29696     3740.682       110     1.703     1.600  41.88   0
        76    542.9260    784.5421 300.1074368 +22.7851825     569.6447     71.97839      1.636     4.49      5.54794     20.29696     63.19949        12     1.426     0.811 -49.85   0
        77    535.3936    780.0189 300.1065597 +22.7816259     1636.185      71.9051      1.801     4.07     5.626597     20.29696     117.4954        26     1.330     1.223  31.21   0
        78    948.3826    779.4644 300.2355272 +22.9051852     814.7928     71.92343      1.949     7.66     5.914943     20.29696     54.71835        15     1.450     1.131  66.26   0
        79    206.1488    779.3306 300.0042781 +22.6827228     468.7915     71.92343      1.741     4.48     6.099769     20.29696     53.14517         7     1.123     0.509 -28.28   0
        80    564.4608    776.2189 300.1168512 +22.7892455     785.8203      71.9051      1.723     3.96     5.572066     20.29696     72.59145        17     1.142     1.076 -39.00   0
        81    575.2070    774.6724 300.1207023 +22.7920216     585.3286      71.9051      1.748     4.43     5.564991     20.29696     59.31632        12     1.185     0.976  -7.44   0
        82    680.4875    769.9379 300.1550553 +22.8222071     460.4013     72.03332      1.628     6.12     5.393703     20.29696     44.90681        11     1.371     0.768  67.14   0
        83    718.4868    761.4963 300.1696457 +22.8311656     737.8115     72.12477      1.717     4.22     5.500877     20.29696     60.65911        12     1.076     0.888  42.55   0
        84    327.3139    758.1469 300.0488664 +22.7129731     31639.62     71.97839      1.872     3.76     6.022048     20.29696     2600.771        81     1.578     1.510  22.57   0
        85    341.5917    758.6165 300.0531583 +22.7173884     1813.716     71.86842      1.981     4.05     6.039393     20.29696     154.4246        26     1.372     1.146  22.89   0
        86    608.4720    750.2360 300.1390087 +22.7949697      976.502     71.92343      1.772     3.95     5.618404     20.29696     89.95599        17     1.230     0.970  34.86   0
        87    209.9595    749.9713 300.0150022 +22.6754387     820.0015     71.96008      1.735     4.44     6.031711     20.29696      71.4529        19     1.386     0.997  -8.66   0
        88    444.9936    750.2150 300.0880838 +22.7459722     412.3418     71.85007      1.715     5.27     5.895201     20.29696     38.09661         8     1.037     0.757 -18.11   0
        89    920.3220    746.0032 300.2376421 +22.8871633     1367.954     71.85007      0.548     0.88      6.14978     20.29696      831.516         6     0.467     0.332   1.05   0
        90    455.3177    745.0057 300.0929917 +22.7475706     958.5196     71.86842      1.785     4.72     5.906068     20.29696     64.88652        18     1.353     0.948  35.06   0
        91     15.3536    746.4642 299.9556225 +22.6160647     331.9708     71.97839      1.498     3.12     6.541113     20.29696     48.09803         5     0.744     0.440 -22.96   0
        92    856.0869    742.3252 300.2187929 +22.8668704     461.1622     72.06992      1.608     5.44     6.235157     20.29696     42.71518         9     1.068     0.782  50.79   0
        93    850.4240    754.4917 300.2130731 +22.8686716     2769.165     71.86842      1.873     4.10     6.141661     20.29696     185.2693        31     1.338     1.331  83.41   0
        94    313.2692    740.8947 300.0500996 +22.7038092     254.5551      72.0882      1.381     3.92      5.98163     20.29696     37.85598         5     0.874     0.504 -33.89   0
        95    401.1964    739.9850 300.0777686 +22.7299066     417.6795     71.79501      1.598     5.65     5.890925     20.29696     50.64978         9     1.238     0.727   7.21   0
        96     43.1940    739.8282 299.9664329 +22.6225120     421.8086     71.94176      1.559     4.86       6.3894     20.29696     44.93449         7     1.165     0.575 -19.11   0
        97    834.6094    737.0052 300.2138207 +22.8589092     355.2227     71.79501      1.484     5.47     6.074141     20.29696     41.37682         8     0.941     0.896 -74.56   0
        98    208.1043    734.6001 300.0194186 +22.6704703     588.9747     71.81337      1.893     4.68     5.998436     20.29696     53.36929         8     1.139     0.598  15.53   0
        99    530.7796    724.7824 300.1230683 +22.7643774     245.8795     71.92343      1.447     4.63     5.884166     20.29696     40.81403         7     1.000     0.799   6.30   0
       100    500.5005    723.0704 300.1141914 +22.7548118     580.5331     72.06992      1.523     4.26      5.93277     20.29696      53.4375        14     1.253     0.785   6.71   0
       101    917.0573    719.7336 300.2451580 +22.8786336     4543.125     71.97839      1.935     4.32     6.181821     20.29696      279.646        47     1.580     1.456  -7.79   0
       102    522.3187    720.4449 300.1218414 +22.7605960     1400.854     71.92343      1.718     3.76     5.905446     20.29696      134.155        21     1.245     1.048  33.16   0
       103    442.1727    720.6489 300.0968104 +22.7366356     359.6805     71.96008      1.518     2.62     5.902132     20.29696     46.06181         6     0.839     0.692  10.03   0
       104    905.4995    711.3600 300.2442714 +22.8727655     1652.544     71.92343      1.965     4.20      6.23248     20.29696     117.2612        27     1.435     1.223 -26.18   0
       105    268.3457    704.6134 300.0479038 +22.6799245     797.5735     71.94176      1.647     3.79     5.972598     20.29696     88.97893        17     1.173     1.048  65.77   0
       106    731.9891    702.3051 300.1930861 +22.8182005     2701.715     71.88676      1.947     4.17      5.71227     20.29696     203.6415        39     1.811     1.296   1.46   0
       107    936.6011    701.3384 300.2572334 +22.8791964     1648.772      71.9051      1.915     4.64     6.112627     20.29696     98.29745        26     1.426     1.190  30.71   0
       108    814.0963    688.5178 300.2231730 +22.8388286     609.9589      72.0882      1.976     5.05     6.142762     20.29696     44.57293        10     1.271     0.841  52.82   0
       109    117.0879    688.6565 300.0060309 +22.6299896     496.6192      71.9967      1.695     5.83     6.093007     20.29696     43.81343         9     1.371     0.699 -47.01   0
       110    850.2278    679.3246 300.2374311 +22.8470056     148142.1     71.94176      1.814     3.71     6.363331     20.29696     10581.18       145     1.612     1.565 -69.81   0
       111    613.5361    682.5826 300.1625643 +22.7770496     462.6151     71.92343      2.218     5.89     5.869375     20.29696      43.5836         9     1.446     0.675 -23.15   0
       112    997.2070    681.2494 300.2826775 +22.8915637     1226.961     71.94176      1.880     4.91     6.038529     20.29696     83.93757        20     1.236     1.140  61.19   0
       113    702.8080    679.7823 300.1913029 +22.8029871     792.3864     71.88676      2.008     4.04     5.757867     20.29696     64.28355        13     1.088     0.868 -28.18   0
       114    883.0399    672.1977 300.2499839 +22.8547814     648.1191     71.96008      1.837     5.86     6.371232     20.29696      52.9751        14     1.560     0.798  54.17   0
       115    536.4848    667.8187 300.1433488 +22.7497228     1734.035     71.86842      1.707     3.85     5.971979     20.29696     153.0397        24     1.319     1.121  78.06   0
       116    717.6877    665.3672 300.2006245 +22.8033010     9492.449      71.9051      1.715     3.42     5.840545     20.29696     860.1963        46     1.379     1.328  70.85   0
       117    219.0592    660.1271 300.0470159 +22.6523760     4950.954     71.97839      1.824     3.61     6.122511     20.29696     424.7983        42     1.445     1.381   8.38   0
       118    301.2629    658.2375 300.0732106 +22.6764768     1071.284     71.96008      1.659     3.68     5.975766     20.29696     100.2526        21     1.203     1.105 -32.38   0
       119    176.8032    656.1038 300.0351764 +22.6385517     475.5916     71.85007      1.880     4.61     6.114432     20.29696     38.84409         7     1.089     0.554 -24.21   0
       120    509.6115    653.9070 300.1394945 +22.7376741     722.6642     71.88676      1.521     3.58     6.104268     20.29696     73.30212        14     1.035     0.904  57.30   0
       121    501.0565    646.0405 300.1393842 +22.7328509     3246.381     71.92343      1.628     3.18      6.18637     20.29696     261.5142        34     1.300     1.266  28.20   0
       122    491.3197    639.8767 300.1383526 +22.7281626      1516.98     72.05162      1.720     3.55      6.27161     20.29696     137.9298        22     1.170     1.150 -82.22   0
       123    884.8599    638.0639 300.2616380 +22.8455122      544.881     71.97839      1.653     4.96     6.503757     20.29696     45.28067        13     1.013     1.008  32.80   0
       124    420.1415    639.6591 300.1162542 +22.7067712      369.361     72.01501      1.374     3.36     5.896947     20.29696     39.50788         5     0.781     0.418 -19.81   0
       125    402.7472    637.1841 300.1116413 +22.7008476     458.5251     71.94176      1.735     4.02     5.904303     20.29696     41.18442         8     0.990     0.692 -56.93   0
       126    154.8452    636.2239 300.0348016 +22.6262610     677.7223     71.96008      1.702     3.40     6.279442     20.29696     62.28652        12     0.993     0.829 -16.91   0
       127    168.7864    633.9490 300.0398768 +22.6297879     565.0869     71.97839      1.701     5.52     6.295959     20.29696     50.45996        13     1.330     0.870  21.84   0
       128    938.7097    631.6998 300.2805103 +22.8598035     309.3858     72.10648      1.425     2.76      6.38126     20.29696     45.62555         6     0.837     0.489 -43.73   0
       129    226.1278    631.2128 300.0586046 +22.6461935     433.8463     71.96008      1.843     5.99     6.375216     20.29696     35.34998        11     1.244     0.816 -48.07   0
       130    194.6633    631.5344 300.0487108 +22.6368529     425.4456     71.97839      1.757     5.55     6.340763     20.29696     46.12485         9     1.390     0.624  12.54   0
       131    515.0922    629.6993 300.1490633 +22.7323615     544.7302     72.10648      1.750     5.86      6.21385     20.29696     40.61715        10     1.262     0.765  37.72   0
       132    416.1375    629.3939 300.1183407 +22.7026227     1734.009      71.9051      1.709     3.76     5.867442     20.29696     158.7849        25     1.323     1.167  26.01   0
       133    991.6561    627.6251 300.2983610 +22.8744804     799.0574     71.94176      1.874     5.08     6.392909     20.29696     64.74353        17     1.475     0.921  63.73   0
       134     70.0699    624.0944 300.0123758 +22.5973590     19759.39     72.05162      2.019     3.94     6.565777     20.29696     1617.943        74     1.686     1.576  26.02   0
       135    536.6250    623.8270 300.1576789 +22.7371257     394.6679      71.9051      1.521     5.25     6.111761     20.29696     40.75251         8     1.216     0.641 -37.26   0
       136    919.1905    611.4970 300.2809789 +22.8481506     1025.225     71.86842      1.744     4.68     6.520985     20.29696     68.22987        22     1.360     1.169  67.80   0
       137    584.5035    612.1837 300.1763788 +22.7481234      398.652     71.85007      1.763     4.64     6.092389     20.29696     31.79277         5     1.161     0.525 -29.97   0
       138     16.0566    608.3461 300.0006964 +22.5766412     1594.897      71.9967      2.367     5.61     6.814544     20.29696     90.75876        34     1.671     1.487 -58.06   0
       139    785.7961    609.3414 300.2400595 +22.8075932     485.5716      71.9051      1.509     5.21     6.410273     20.29696       52.902        10     1.238     0.669 -73.66   0
       140    501.1053    624.7054 300.1463276 +22.7267361     1003.889     72.10648      1.642     4.32     6.323854     20.29696     96.65549        18     1.289     1.020 -26.23   0
       141    464.7163    605.1498 300.1413423 +22.7102149     518.2604     71.94176      1.607     4.96     6.397271     20.29696     56.93329        12     1.097     0.845  36.63   0
       142    859.1182    604.2792 300.2645770 +22.8280912     810.0574     72.06992      1.950     4.96     6.639959     20.29696     52.52067        15     1.302     0.924  30.13   2
       143    855.3055    604.3563 300.2633624 +22.8269719     294.7425     71.96008      1.371     3.68     6.626223     20.29696     32.45339         5     0.862     0.453 -15.64   3
       144    257.3166    604.6969 300.0769192 +22.6479292     397.5644     72.10648      1.278     4.04      6.30956     20.29696      35.2791         5     1.256     0.372 -38.27   0
       145    421.2024    597.7974 300.1301774 +22.6950642     759.8751     71.72153      1.595     4.26     5.971455     20.29696     64.26094        17     1.187     1.022  36.88   0
       146    569.1834    596.5000 300.1766971 +22.7390273     667.2956     71.85007      1.886     3.52     6.153986     20.29696     56.92103         9     0.896     0.715  -9.72   0
       147    617.1114    594.8723 300.1921623 +22.7529161     505.5716     72.10648      1.854     5.93     6.115995     20.29696      43.3674         9     1.344     0.980 -72.30   0
       148    587.2287    594.6310 300.1829273 +22.7438957     557.1389     71.94176      1.439     4.28     6.141292     20.29696     56.98301        11     1.095     0.740  -2.46   0
       149    465.4124    593.4406 300.1453609 +22.7070594     950.3633     71.94176      1.706     3.46     6.405501     20.29696     95.75751        16     1.146     0.914  20.34   0
       150    899.3036    589.4090 300.2819448 +22.8358455      3140.81     71.85007      1.699     3.58     6.533673     20.29696     266.7638        32     1.308     1.234  34.08   0
       151    430.9509    589.0619 300.1360495 +22.6954758     1718.226      71.9967      1.631     3.30     6.121843     20.29696     161.2518        21     1.156     1.058  15.78   0
       152    997.0674    587.4387 300.3130999 +22.8645417     677.9693      71.9051      1.802     5.21     6.505839     20.29696     49.25962        17     1.251     1.122 -86.98   0
       153    294.3452    575.5856 300.0978944 +22.6506676     9303.987     71.94176      1.744     3.31     6.253878     20.29696     965.4708        48     1.420     1.334  18.00   0
       154    416.8477    572.7307 300.1369595 +22.6865583     8887.234     71.92343      1.628     3.23      6.13121     20.29696     846.3627        45     1.338     1.292  75.99   0
       155    663.6593    569.7803 300.2148186 +22.7596457      283.917     71.88676      1.564     2.48       6.1008     20.29696     37.66665         5     0.716     0.448  73.90   0
       156   1021.2450    568.4001 300.3268301 +22.8663011     956.6639     67.55685      1.737     5.24     6.533473     20.29696     72.72128        19     1.403     1.073  81.06  16
       157    828.6171    567.0163 300.2671596 +22.8082451     1905.307      71.9051      1.669     3.43     6.462132     20.29696     172.4298        26     1.206     1.180  68.95   0
       158    913.2991    564.4933 300.2944020 +22.8328696     12391.27     72.12476      1.746     3.57     6.449871     20.29696     1015.677        53     1.446     1.392  68.16   0
       159    477.4586    562.4031 300.1591896 +22.7017511     11547.33      71.9051      1.629     3.01     6.478773     20.29696     1229.386        47     1.322     1.308  36.32   0
       160    646.9268    558.5986 300.2132326 +22.7514205     551.3428     71.83173      1.524     2.83     6.126964     20.29696      65.5978         8     0.804     0.746  -8.03   0
       161    205.0844    557.6547 300.0759388 +22.6187639     1421.028     72.01501      1.773     3.91     6.584546     20.29696     125.1192        26     1.328     1.197  71.04   0
       162    363.0003    557.1077 300.1252645 +22.6659351     285.1732     71.81337      1.244     3.92     6.285487     20.29696     43.36876         7     0.896     0.535 -50.69   0
       163    451.4673    555.5784 300.1533095 +22.6920033     418.4244     71.92343      1.664     4.88     6.382924     20.29696     41.59247         7     1.239     0.545  32.20   0
       164    409.1223    550.5355 300.1417590 +22.6778672     4525.234     72.03332      1.623     3.10     6.308242     20.29696     427.5551        36     1.340     1.259 -60.57   0
       165    752.1959    551.0083 300.2485193 +22.7807618     830.3367     71.77664      1.645     3.83     6.322526     20.29696     80.10361        14     1.151     1.012 -47.94   0
       166    387.5088    548.9087 300.1355569 +22.6709238     1139.609     72.10648      1.548     3.27     6.326985     20.29696     133.1422        16     1.094     0.991  44.52   0
       167    142.0063    548.2260 300.0593771 +22.5971477     663.4649     71.94176      1.584     4.54     6.568747     20.29696     69.60761        15     1.233     0.998 -75.62   0
       168    828.9896    546.4070 300.2739666 +22.8024304     1628.761     71.81337      1.701     3.61     6.419675     20.29696     131.3008        23     1.267     1.127  32.75   0
       169     75.7529    546.1348 300.0394516 +22.5766843     361.5175     71.97839      2.230     5.97      6.51741     20.29696     28.15111         6     1.271     0.789  41.66   0
       170    525.7769    538.1247 300.1821233 +22.7092496       205529     71.97839      1.603     3.05     6.484064     20.29696     19861.83       198     1.566     1.518 -26.29   0
       171    709.7337    543.1665 300.2378235 +22.7657929     998.1842     71.94176      1.614     3.73     6.221386     20.29696     88.45432        17     1.236     0.965 -47.90   0
       172    211.6707    537.8669 300.0844111 +22.6150557     3484.325     71.97839      1.774     3.63     6.577116     20.29696     305.0757        34     1.393     1.266   9.09   0
       173    391.1302    537.0947 300.1405194 +22.6686149     442.3441     72.05162      2.624     5.58     6.377419     20.29696     32.54812         5     1.129     0.776  79.59   0
       174    777.8649    534.6946 300.2618209 +22.7837568     468.9861     72.06992      1.541     3.07     6.372169     20.29696     49.82124         7     0.870     0.728  38.39   0
       175    416.3517    518.8581 300.1542926 +22.6709323     2775.694      71.9967      1.817     3.31     6.444329     20.29696     255.3335        39     1.810     1.216  89.50   0
       176    261.0847    520.5346 300.1054127 +22.6248881     353.1996     72.05162      1.413     3.10     6.494374     20.29696     56.12737         7     0.885     0.736 -57.86   0
       177    827.3156    515.5359 300.2834654 +22.7930518     376.3034     72.03332      1.783     3.61     6.407373     20.29696     44.50763         6     0.912     0.648  22.72   0
       178    733.7556    507.7675 300.2568047 +22.7628082     370.5153      71.9967      1.666     5.54     6.400795     20.29696     43.09884         8     1.013     0.854 -35.84   0
       179    813.5269    504.8288 300.2826392 +22.7858450     1727.061     71.96008      1.595     3.60     6.400403     20.29696     151.2639        23     1.186     1.159  46.33   0
       180    684.6143    502.4849 300.2431964 +22.7465757     2594.467     71.88676      1.615     3.05     6.287136     20.29696     262.0611        28     1.222     1.152 -60.25   0
       181    927.8997    496.4835 300.3210358 +22.8176783     1047.911     72.10648      2.391     5.69     6.388533     20.29696     71.09292        17     1.543     0.945  43.96   2
       182    589.6379    499.0261 300.2147134 +22.7171400     510.8955     71.96008      1.709     4.01     6.446903     20.29696     55.86145         9     1.014     0.809  10.26   0
       183    471.8031    498.2459 300.1782528 +22.6816217     704.6731     71.94176      1.442     3.53     6.544029     20.29696     68.36932        14     0.990     0.943  66.32   0
       184    942.0711    496.6302 300.3254114 +22.8219616     1290.979     71.94176      1.805     4.22     6.413819     20.29696     118.6215        24     1.318     1.199 -66.44   0
       185    813.7492    495.0894 300.2858696 +22.7831108     2287.232     71.96008      1.754     3.73     6.398887     20.29696     204.6206        29     1.505     1.122  70.64   0
       186    566.6962    493.0525 300.2095027 +22.7085521     631.6357     72.01501      1.527     3.43     6.542913     20.29696     61.18439         9     0.983     0.627  32.38   0
       187    352.8031    492.6847 300.1430000 +22.6443725     322.1247     71.86842      1.476     4.91     6.463257     20.29696     32.56192         7     1.022     0.669  -6.22   0
       188    851.8593    490.0448 300.2993965 +22.7930676     4280.684     71.96008      1.632     3.17     6.402116     20.29696     392.1881        38     1.360     1.282 -66.23   0
       189    405.0414    491.7654 300.1595635 +22.6597595     331.2168      71.9967      1.392     3.68     6.525443     20.29696     47.88382         5     1.345     0.290  39.50   0
       190     83.9822    480.3296 300.0633672 +22.5602583     1095.488     71.96008      1.851     4.04     6.521571     20.29696     95.52905        17     1.220     1.037  76.81   0
       191    943.8578    480.9738 300.3310505 +22.8179925     662.6901     71.94176      1.585     3.69     6.416375     20.29696     73.56212        12     1.162     0.800 -19.54   0
       192     75.8758    470.6566 300.0639853 +22.5550508     441.4503     71.97839      1.848     4.23     6.558406     20.29696     40.03912         6     1.120     0.456  -7.40   0
       193    683.9626    464.9534 300.2551736 +22.7355900     399.6451     71.97839      1.478     4.34     6.347103     20.29696     43.76563        10     0.960     0.891 -28.71   0
       194    573.1423    462.0711 300.2215657 +22.7015774     401.7346     71.96008      1.637     4.91     6.528718     20.29696     48.16126         7     0.857     0.796   6.04   0
       195    625.2197    460.3861 300.2383432 +22.7166879     764.0814      71.9051      1.453     3.44     6.415518     20.29696     80.92687        11     0.971     0.781  40.81   0
       196    939.9871    453.2961 300.3388246 +22.8088719      483.223     71.86842      1.422     5.16     6.243274     20.29696     51.64689        12     1.182     0.792 -60.23   0
       197    686.1510    452.5526 300.2598800 +22.7326797     775.3801     71.97839      1.606     3.71     6.340886     20.29696     81.65611        16     1.099     1.016  41.35   0
       198    843.2740    448.7879 300.3101069 +22.7786317     927.9872     71.96008      1.642     4.22     6.358824     20.29696     80.53373        17     1.188     0.996 -16.08   0
       199    827.4303    445.4858 300.3062354 +22.7729398     707.5422     71.94176      1.750     4.63     6.338915     20.29696     66.35056        12     1.197     0.909  50.47   0
       200    807.9588    445.6799 300.3000980 +22.7671676     291.4969     71.92343      1.285     3.80     6.323013     20.29696     38.75288         5     0.890     0.464  -3.39   0
       201    571.9458    442.9628 300.2273933 +22.6957262     3246.736     71.96008      1.545     3.18     6.494594     20.29696     296.9851        32     1.354     1.184 -57.14   0
       202     47.6204    434.8217 300.0668268 +22.5362912     420.5211     71.94176      1.552     4.68     6.877386     20.29696     38.37897         7     1.436     0.433 -18.08   0
       203    932.5396    442.5039 300.3400021 +22.8035385     508.0482     72.01501      1.718     2.97      6.17855     20.29696     52.78091         9     0.894     0.753  17.18   0
       204    411.8521    429.8542 300.1817741 +22.6440097      454.307     71.97839      1.616     4.51     6.480732     20.29696     42.37134         8     0.839     0.688 -55.90   0
       205    983.2707    422.4174 300.3623557 +22.8129391     1388.072     71.96008      1.807     3.53       6.0676     20.29696     115.8931        20     1.185     1.080  17.63   0
       206    855.2206    422.6268 300.3223231 +22.7746821     485.4269     71.94176      1.408     4.55     6.346323     20.29696     47.11523        10     1.177     0.593   0.60   0
       207    941.5905    421.0881 300.3497761 +22.8000855     1014.188     71.86842      1.635     3.64     6.055077     20.29696     95.78378        17     1.133     1.013  26.12   0
       208    591.3175    419.4632 300.2410551 +22.6947715     351.2266     72.05162      1.649     3.92     6.431931     20.29696     32.95164         6     0.945     0.465  89.56   0
       209    682.6165    416.9164 300.2703410 +22.7213747     1054.026      71.9051      1.486     3.74     6.316559     20.29696      127.975        17     1.153     1.002 -89.85   0
       210    478.4516    417.4355 300.2065462 +22.6603888     528.3932     71.96008      1.620     2.99     6.458765     20.29696     56.92127         8     0.951     0.594 -19.71   0
       211    186.3226    415.1589 300.1163437 +22.5722162     656.1578     71.92343      1.843     3.58     6.460636     20.29696     74.32246        12     1.043     0.861 -30.58   0
       212    248.7552    410.7023 300.1372153 +22.5896442     3881.659     71.96008      1.713     3.17     6.445293     20.29696     383.2931        38     1.382     1.306  60.62   0
       213    982.0399    409.7088 300.3660949 +22.8089141     4431.616     71.94176      1.738     3.43     6.031264     20.29696     371.3457        39     1.387     1.343 -51.36   0
       214    195.9874    405.4302 300.1225066 +22.5723179      7636.12     71.94176      1.719     3.25       6.4546     20.29696     714.3676        46     1.398     1.360  44.11   0
       215    574.7521    405.3841 300.2404603 +22.6857636     430.4861     71.97839      1.746     3.47     6.429354     20.29696     31.62962         5     0.780     0.446 -17.59   0
       216    961.9629    400.8698 300.3626952 +22.8003638      1811.52     71.92343      1.681     3.56     6.031264     20.29696     153.7381        24     1.243     1.136 -47.43   0
       217    336.8218    399.7769 300.1681705 +22.6128905     4930.449     71.94176      1.621     3.21     6.355724     20.29696     488.5334        38     1.345     1.230  64.48   0
       218    581.0522    396.6261 300.2452649 +22.6851322     18428.66     71.96008      1.569     2.98     6.414937     20.29696     1923.844        64     1.404     1.343  42.48   0
       219    598.5048    396.9326 300.2506047 +22.6904460     966.5562      72.0882      2.510     6.94     6.397588     20.29696     55.48927        16     1.767     0.764 -55.59   0
       220    824.2571    393.1842 300.3222151 +22.7569462      502.763     71.92343      2.264     4.10     6.302976     20.29696     36.68876         6     0.768     0.624   0.01   0
       221    777.8290    387.3819 300.3096145 +22.7413818     308.3639     71.92343      1.391     4.37     6.270368     20.29696     43.52966         7     0.946     0.683  -2.75   0
       222    201.4601    383.5207 300.1313166 +22.5676642     336.4517     71.99671      1.396     3.21     6.444676     20.29696     49.19213         6     0.892     0.459  75.25   0
       223    914.7260    379.3123 300.3549449 +22.7800277     900.6501      72.0882      1.874     5.56     6.106319     20.29696     68.21655        17     1.316     1.096 -60.65   0
       224    625.1231    377.5883 300.2651766 +22.6928536     300.1657     71.94176      1.478     5.34     6.348629     20.29696     26.52794         6     1.235     0.652 -40.94   0
       225    135.6677    376.4234 300.1131518 +22.5459100     2109.967     71.92343      1.851     3.69     6.453835     20.29696     183.7537        26     1.336     1.137  26.67   0
       226    935.3460    366.7885 300.3654433 +22.7825938     1343.035     71.94176      1.700     3.96     6.031264     20.29696      111.433        21     1.326     1.031  63.97   0
       227    521.7285    365.9922 300.2367168 +22.6585616     6671.284     71.92343      1.565     3.00     6.422782     20.29696     659.2754        36     1.293     1.174  73.03   0
       228    236.6417    365.6981 300.1480444 +22.5730854     736.9592     71.92343      1.769     3.19     6.438216     20.29696     71.09352        11     1.041     0.735  24.26   0
       229     93.9759    358.8963 300.1058701 +22.5283813     526.1251     71.85007      1.439     5.00     6.530538     20.29696     61.54661        11     1.290     0.725 -17.99   0
       230    725.9443    355.3484 300.3038242 +22.7166388     1155.877     71.97839      1.596     3.02     6.292402     20.29696     124.0699        19     1.219     0.973 -74.57   0
       231    635.7092    356.5300 300.2753073 +22.6899676     494.5159     72.10648      1.657     4.09     6.317915     20.29696     42.64891        10     1.033     0.742 -13.15   0
       232    428.3424    352.2442 300.2120861 +22.6266436     6121.499     71.97839      1.557     2.86     6.326942     20.29696     638.7867        39     1.278     1.238  61.61   0
       233    820.4166    347.0209 300.3359918 +22.7425172     1430.935     71.92343      1.598     3.01     6.314105     20.29696      128.692        20     1.108     1.027  68.29   0
       234    917.5167    347.2333 300.3662218 +22.7716326     516.6226      71.9051      1.585     3.75     6.093931     20.29696     59.90691         9     0.968     0.779  43.73   0
       235    412.6490    341.1635 300.2107927 +22.6187586     399.5665     71.94176      1.340     5.32      6.30982     20.29696     61.10944        10     1.345     0.595  16.21   0
       236    495.5263    338.9328 300.2373303 +22.6429365     459.4992     72.01501      1.457     3.80     6.400553     20.29696     53.54138         8     0.946     0.731 -18.00   0
       237    793.0018    334.8419 300.3313900 +22.7308096     602.0213     71.94176      1.476     3.34     6.281173     20.29696     66.81424        11     0.902     0.840  74.34   0
       238    298.0204    334.1831 300.1773681 +22.5824184     299.6377     71.92343      1.628     5.97      6.34981     20.29696     29.68555         7     1.402     0.716  19.47   0
       239    315.9070    331.4861 300.1838104 +22.5870012     2494.567     72.12476      1.575     2.93     6.344528     20.29696     259.4922        28     1.241     1.114  57.17   0
       240     34.4983    328.8858 300.0971087 +22.5019366     953.3272     72.10648      1.912     3.58     7.091391     20.29696     94.41869        16     1.082     0.997  88.55   0
       241    285.2474    320.7578 300.1777463 +22.5747342     29556.48     71.97839      1.672     3.19      6.39251     20.29696     2881.268        77     1.503     1.383  68.44   0
       242    819.9667    318.9477 300.3449568 +22.7343062     1402.899     71.96008      1.461     2.89     6.283209     20.29696     150.0412        21     1.110     1.025 -53.76   0
       243    775.0980    316.3280 300.3318100 +22.7201258     279.3262     72.06992      1.297     4.54     6.268342     20.29696     39.42289         6     0.849     0.689 -30.05   0
       244    735.0941    307.5740 300.3221723 +22.7056357     441.4228     71.88676      1.373     3.72     6.263421     20.29696      55.6408        10     0.955     0.799   0.49   0
       245    383.7933    306.1754 300.2131538 +22.6000600     524.2605     71.92343      1.552     3.98     6.321697     20.29696     59.03111        11     1.028     0.861  74.32   0
       246    159.5012    307.2048 300.1430141 +22.5331679     432.4344     71.83173      1.390     5.10     6.437802     20.29696     44.59114         9     1.194     0.617  19.24   0
       247    695.8643    300.9005 300.3121034 +22.6919752     2029.866     72.03332      1.501     2.62     6.269635     20.29696     244.2552        24     1.152     1.066  68.80   0
       248    504.0330    295.7176 300.2539952 +22.6330593     488.7842      71.9051      1.908     3.57     6.372112     20.29696     36.69407         7     0.766     0.632  -6.48   0
       249    910.8485    294.1910 300.3813437 +22.7543743     624.1229     71.96008      1.547     3.70     6.129481     20.29696     58.84808         9     1.033     0.644 -11.57   0
       250    357.5576    285.2260 300.2117782 +22.5861811     2121.073     71.97839      1.801     3.68     6.340773     20.29696     203.1525        27     1.447     1.090  65.15   0
       251    569.8215    284.0993 300.2782617 +22.6494148      351.994     71.86842      1.402     3.28     6.382299     20.29696     47.80519         6     0.825     0.610  80.96   0
       252    796.6177    278.3181 300.3508487 +22.7156302     646.4342      71.9051      1.521     3.64     6.254108     20.29696     77.60268        13     1.084     0.871  18.37   0
       253    679.1931    276.0945 300.3149494 +22.6798505     413.6721     71.83173      1.366     3.96      6.27219     20.29696     56.10548         9     1.153     0.567 -53.72   0
       254    433.4182    264.7592 300.2420372 +22.6030151     1108.504     71.96008      1.528     2.56     6.336154     20.29696     132.4839        19     1.159     0.997 -71.01   0
       255    241.4003    265.4868 300.1820223 +22.5457168     227.8604     71.83173      1.402     3.65     6.490971     20.29696      39.6048         5     0.936     0.499  -1.60   0
       256    944.4175    261.1997 300.4025192 +22.7549215     322.6563     71.85007      1.273     3.40     6.227798     20.29696     36.50647         5     0.741     0.451  70.26   0
       257    817.1397    258.1650 300.3637853 +22.7159720      315.949     71.96008      1.357     3.73     6.284667     20.29696      43.9981         5     0.798     0.537 -40.70   0
       258    678.2953    256.6269 300.3209816 +22.6739820     2260.583     71.85007      1.610     2.93     6.275459     20.29696     238.5504        27     1.260     1.139 -66.99   0
       259    939.5936    251.1310 300.4042782 +22.7505806     3077.968      71.9051      1.738     3.41     6.285377     20.29696     290.8807        31     1.357     1.242  68.84   0
       260   1000.7380    246.1340 300.4249863 +22.7674303       473.72     71.97839      1.680     4.22     6.297371     20.29696     39.29925        11     1.019     0.769 -10.55   0
       261    873.0066    245.0457 300.3854699 +22.7289108     318.1878     71.96008      1.963     3.73      6.39112     20.29696     34.12494         5     0.992     0.403 -62.75   0
       262   1009.1167    239.1487 300.4298671 +22.7679253     1643.929     71.96008      1.817     3.89     6.340335     20.29696     143.9972        27     1.355     1.297  44.33   0
       263    386.4259    240.5134 300.2352636 +22.5819735     589.3704     71.88676      1.396     3.30     6.353649     20.29696     69.97586        13     1.028     0.845  15.41   0
       264     62.1781    234.3565 300.1363641 +22.4830791     1784.027      71.9967      2.444     9.18     6.794881     20.29696     393.9572        27     2.074     1.135  -6.44   0
       265     92.5038    234.4756 300.1457558 +22.4921996     564.2868      72.0882      1.621     4.55     6.552001     20.29696     69.65565         9     1.163     0.594 -13.30   0
       266    955.5422    231.7917 300.4155266 +22.7497845     518.4814     71.92343      1.669     4.54      6.38999     20.29696     58.18266        11     1.213     0.847  12.48   0
       267    799.0886    229.0102 300.3676065 +22.7021822     436.9584     71.88676      1.663     3.51     6.271306     20.29696     36.82295         5     0.644     0.589  -0.75   0
       268    145.7513    226.5665 300.1648810 +22.5058800     480.0597     71.97839      1.664     4.42     6.427003     20.29696      47.5445         8     0.935     0.781  13.05   0
       269    821.5870    220.7545 300.3773016 +22.7065377     325.1104     71.96008      1.430     4.13     6.333246     20.29696     41.68838         7     0.879     0.652 -21.62   0
       270    749.4643    218.5542 300.3555177 +22.6843261     626.8341     71.96008      1.636     3.28     6.292231     20.29696     64.88226        11     1.025     0.739  17.22   0
       271    340.3828    217.4882 300.2283919 +22.5615667     487.8463     71.86842      1.767     6.12      6.37491     20.29696     44.25956        11     1.178     0.950  -9.88   0
       272    848.1351    207.1923 300.3899811 +22.7105769     2154.052     71.92343      1.683     3.17     6.390931     20.29696     206.9946        30     1.320     1.243 -89.08   0
       273    266.6513    204.2424 300.2097346 +22.5356785     2271.322     71.96008      1.694     3.38     6.474329     20.29696     205.7771        25     1.219     1.143  40.95   0
       274    344.6171    199.4079 300.2355709 +22.5576371     958.4551     71.88676      1.672     4.00      6.37735     20.29696     84.03545        16     1.283     0.880 -55.92   0
       275    746.5206    199.3330 300.3608305 +22.6779149     488.7607     72.05162      1.466     3.59     6.303483     20.29696     54.21901         8     1.061     0.515  22.19   0
       276    853.1650    196.3155 300.3950764 +22.7089512     262.9288      71.9051      1.440     4.22     6.387288     20.29696     41.01337         5     1.117     0.455  56.79   0
       277    161.6511    191.7506 300.1811121 +22.5006387     651.7978     71.97839      1.589     3.38     6.461109     20.29696      78.4902        10     1.004     0.743 -50.01   0
       278    699.1895    188.5632 300.3495614 +22.6606541     1734.392     71.94176      1.598     3.26     6.314999     20.29696     161.2439        21     1.166     1.037  42.71   0
       279    764.2183    187.9229 300.3700487 +22.6799268     543.9147     71.94176      1.531     3.87        6.292     20.29696     70.42089        10     1.049     0.729  63.32   0
       280    183.0596    184.7041 300.1900561 +22.5050264     564.2682     72.01501      1.625     2.58     6.485959     20.29696     64.26176         9     0.829     0.768  87.83   0
       281    970.7089    181.5652 300.4365432 +22.7398622     845.3303     71.92343      1.567     3.85     6.674027     20.29696     72.06348        16     1.254     0.801  27.74   0
       282    703.1789    179.9552 300.3535955 +22.6593712     760.4127      71.9967      1.710     4.24     6.322726     20.29696     79.75172        14     1.274     0.796  78.12   0
       283    623.7930    179.2044 300.3290890 +22.6353998     1293.293     71.79501      1.571     3.13     6.473019     20.29696     162.7602        22     1.237     1.013  26.98   0
       284    444.6830    175.6604 300.2744286 +22.5807698     355.1964     72.05162      1.289     2.64     6.370215     20.29696      66.8497         5     0.913     0.363 -21.25   0
       285    819.1464    170.8520 300.3927162 +22.6914467     1396.858     71.97839      1.561     3.45     6.281758     20.29696     132.5865        22     1.241     1.081 -85.55   0
       286    550.1247    171.0314 300.3087783 +22.6110011     1027.103     71.94176      1.481     3.18     6.543804     20.29696     100.6406        16     1.059     0.968  35.10   0
       287    831.2529    170.1598 300.3967176 +22.6948690     630.4916     71.92343      1.415     4.04     6.304111     20.29696     73.43478        11     1.101     0.855 -10.52   0
       288    878.0002    168.6649 300.4117884 +22.7084216     269.0625     71.92343      1.456     4.53     6.380712     20.29696     29.99592         5     1.015     0.576  72.96   0
       289    992.3348    160.9811 300.4499666 +22.7404031     1598.967      71.9051      1.774     3.69     6.974269     20.29696     151.2476        27     1.470     1.159 -84.68   0
       290    948.1443    160.4462 300.4363445 +22.7270344     1161.745     71.97839      1.707     3.84     6.596519     20.29696     109.9815        20     1.257     1.055 -41.47   0
       291    181.7749    152.9009 300.1999633 +22.4955015     665.5001     71.88676      1.752     6.33     6.594981     20.29696      76.3539        15     1.705     0.859  40.85   0
       292     64.6801    152.3288 300.1637281 +22.4602619     324.3862     72.05162      1.863     4.93     7.161668     20.29696     29.01038         6     0.916     0.751  -7.19   0
       293     43.7352    147.4060 300.1588107 +22.4525727     2193.146      71.9051      1.924     4.11     7.192153     20.29696     180.0355        31     1.485     1.352  34.11   0
       294    867.2723    145.3058 300.4160115 +22.6984893     734.5895     72.05162      1.757     4.64     6.379874     20.29696     63.70794        12     1.051     0.880  -7.59   0
       295    201.3008    140.9341 300.2099162 +22.4979101     5811.935     72.03332      1.764     3.42      6.70646     20.29696      527.579        46     1.508     1.351  72.71   0
       296    184.5865    132.5280 300.2074398 +22.4904882      569.434     71.94176      1.640     3.75     6.780779     20.29696     55.99468         9     1.093     0.748 -13.98   0
       297   1000.3286    128.9978 300.4628278 +22.7335846      18483.4     71.88676      1.810     3.50     7.033019     20.29696     1741.666        66     1.586     1.456 -80.98   0
       298    845.5783    122.9398 300.4164904 +22.6855629     3563.469      71.9051      1.678     3.25     6.376107     20.29696     316.8608        33     1.375     1.247 -89.21   0
       299    949.0843    121.8326 300.4491518 +22.7161988     2802.938      71.9051      1.674     3.19     6.682047     20.29696     256.3541        32     1.333     1.239 -46.46   0
       300    148.0857    118.2681 300.2007051 +22.4754576     295.0934     72.03332      1.459     4.65     6.959754     20.29696     39.76468         5     1.202     0.511  68.06   0
       301    394.9408    117.7426 300.2777061 +22.5492239     703.9835     72.01501      1.585     4.38     6.338835     20.29696     68.84118        14     1.196     0.869 -62.81   0
       302    319.0526    109.5971 300.2567173 +22.5241622     875.7681     71.94176      2.611     4.79     6.478254     20.29696     71.29301        15     1.327     1.041 -54.02   2
       303     85.7468    106.7864 300.1850360 +22.4534860     521.5165     71.96008      1.380     2.75     7.131184     20.29696     66.94138         9     0.862     0.698 -84.61   0
       304    446.2949    105.3026 300.2977306 +22.5610189     1806.699     72.12476      1.603     2.89     6.334683     20.29696     168.9288        22     1.163     1.012  30.50   0
       305    374.5044    106.1366 300.2751029 +22.5397686     412.4147     72.03332      1.508     2.55     6.338468     20.29696     63.71846         7     0.810     0.609  -6.07   0
       306    507.9900    105.0639 300.3170271 +22.5794160      306.575     71.88676      1.318     3.29     6.370742     20.29696     35.25033         5     0.634     0.593   0.73   0
       307    189.8615    100.5891 300.2194296 +22.4828878     508.7142     71.88676      1.858     4.90     7.078056     20.29696     52.43554         8     1.392     0.490  -2.17   0
       308    734.3771     95.2620 300.3907707 +22.6443344      397.558     71.92343      1.740     3.95     6.360177     20.29696     33.51764         6     0.733     0.656 -33.77   0
       309   1010.5975     86.5405 300.4797918 +22.7244292     3680.816     71.92343      1.840     3.18     6.990108     20.29696     334.3234        43     1.623     1.390 -36.75   0
       310    220.2901     84.8584 300.2339938 +22.4874780     6160.793     72.01501      1.789     3.31     7.144006     20.29696     538.2907        47     1.513     1.369  71.43   0
       311    726.4438     85.9248 300.3913219 +22.6392741     352.1224     71.92343      1.787     4.18     6.388382     20.29696     37.56964         5     0.958     0.521  43.52   0
       312    335.8151     85.4117 300.2697716 +22.5222266     151.7215     71.86842      1.300     3.46     6.442949     20.29696     25.49819         5     0.762     0.453 -18.27   0
       313     71.2571     84.3953 300.1877843 +22.4427112     798.6496      71.9051      2.095     4.39     7.134659     20.29696     96.72025        14     1.261     1.049 -73.17   0
       314    849.5617     83.1716 300.4306192 +22.6753068     352.9062     71.96008      1.449     3.96     6.424759     20.29696     38.75445         5     0.877     0.544  39.76   0
       315    235.9866     76.9247 300.2414486 +22.4898974     416.4685     71.96008      1.842     4.95     7.100885     20.29696      30.5908         7     1.152     0.603  14.88   0
       316    466.4403     70.3559 300.3153280 +22.5569973     6143.828     72.01501      1.643     2.97     6.281903     20.29696     664.0477        44     1.414     1.253  78.58   0
       317    351.6310     70.1136 300.2796518 +22.5225623     706.6282     71.92343      1.872     4.75     6.351008     20.29696     79.55031        16     1.348     1.074  40.60   0
       318    523.5544     65.4335 300.3347162 +22.5726740     338.5484     71.97839      1.445     3.70     6.286803     20.29696     43.87843         6     0.935     0.421  18.24   0
       319    718.7441     60.5175 300.3971522 +22.6296587     842.3884      71.9967      1.770     3.54     6.470759     20.29696      83.8895        13     1.011     0.921  53.70   0
       320    811.3286     59.3567 300.4264061 +22.6570169      384.497      71.9051      1.490     4.74     6.489651     20.29696     37.65736         8     0.965     0.661  18.88   0
       321    594.8195     50.5849 300.3617348 +22.5897264     6264.083     71.92343      1.610     3.02     6.476862     20.29696     672.8093        43     1.362     1.281 -68.83   0
       322    517.9396     52.9522 300.3370101 +22.5674032     559.8965      71.9967      1.882     5.57     6.255557     20.29696     37.07061        10     0.945     0.925  79.99   0
       323    369.8133     49.6678 300.2919364 +22.5221254     1463.832     71.96008      1.562     2.75     6.314371     20.29696     176.3898        18     1.104     0.900  -0.22   0
       324    636.1341     47.9723 300.3754592 +22.6013354     774.6935     71.92343      1.443     3.70     6.546403     20.29696     89.92017        14     1.184     0.844  69.76   0
       325    706.0264     45.7113 300.3979828 +22.6215932     379.3595      71.9051      1.546     3.64     6.532156     20.29696     37.44776         6     0.875     0.577  88.99   0
       326    652.1152     44.4788 300.3815729 +22.6051112     754.1088     72.06992      1.836     3.64     6.561892     20.29696     65.13763        11     1.020     0.862   2.05   0
       327    118.7408     42.1140 300.2162482 +22.4447809     712.2325     72.05162      1.598     3.35     7.139466     20.29696     76.38694        12     1.055     0.818 -12.73   0
       328    960.7385     41.9803 300.4786619 +22.6966910     210.5989      71.9051      1.348     3.68     6.521889     20.29696     32.97868         5     1.235     0.315  25.78   0
       329    921.8906     41.9373 300.4665496 +22.6850637     447.8542     72.03332      1.424     4.23     6.484879     20.29696     55.89748        10     1.099     0.889  41.26   0
       330    690.5065     39.3900 300.3951911 +22.6151314      515.676     71.88676      1.595     6.15     6.573455     20.29696     52.31484        10     1.545     0.689 -62.55   0
       331    639.0213     35.4268 300.3804231 +22.5985891     2919.867     71.94176      1.682     3.05     6.572383     20.29696     308.7143        32     1.379     1.206 -89.75   0
       332    280.4502     36.5192 300.2683754 +22.4915929     481.5368     71.96008      1.766     5.60     7.228926     20.29696     44.09322         7     1.211     0.730  20.03   0
       333    654.1789     34.6041 300.3854150 +22.6028869     838.4254      71.9051      1.783     4.56      6.58908     20.29696     67.43533        14     1.366     0.834  53.76   0
       334    725.6035     27.0996 300.4101166 +22.6220923     1585.963     71.83173      1.612     3.11     6.571249     20.29696     168.3339        23     1.184     1.149 -85.17   0
       335    663.5347     20.5060 300.3928984 +22.6016284     706.0657     72.06992      1.625     2.98     6.649879     20.29696      84.0405        12     0.969     0.836 -43.16   0
       336    268.1894   1016.2980 299.9465497 +22.7693300     828.1123     71.83173      1.974     5.88     16.33185     20.29696     68.08741        20     1.530     1.165 -21.57  16
       337    102.7021   1016.5112 299.8950033 +22.7197363     594.1388     72.12476      2.766     9.87     92.42545     20.29696     46.92602        14     2.345     1.160   9.00  19
       338    106.7220   1006.5576 299.8994904 +22.7180880     143.3189     71.92343      1.093     8.94     84.91548     20.29696     44.88305        13     2.765     0.808  68.37  18
       339    755.2618     16.5951 300.4227689 +22.6279394     450.9214     71.92343      1.547     4.26      6.61424     20.29696       46.452         8     0.951     0.836   2.42   0
       340    104.6178   1011.2079 299.8973237 +22.7187902     1325.103     71.88676      2.396     6.52     87.93591     20.29696     53.99445        20     1.577     1.090  71.89   3
       341    100.7286   1011.7577 299.8959356 +22.7177808     1147.419      71.9051      3.105     9.95     88.67589     20.29696     52.58249        21     2.020     1.366 -31.86  19
       342    203.8535   1004.0650 299.9305112 +22.7465187     3391.659     71.97839      7.816    29.54     49.59251     20.29696     95.52626       236     5.797     4.393  -6.50  19
       343    172.9958    989.7624 299.9255635 +22.7331574      4456.38     71.97839     10.676    47.88     62.45834     20.29696     85.91582       617    11.071     5.746  76.79  19
       344    191.2506    988.2774 299.9317248 +22.7382085     5923.488     71.94176      8.400    31.55     49.73621     20.29696     108.7494       368     7.715     3.819 -83.13  19
