#   1 NUMBER                 Running object number                                     
#   2 X_IMAGE                Object position along x                                    [pixel]
#   3 Y_IMAGE                Object position along y                                    [pixel]
#   4 ALPHA_J2000            Right ascension of barycenter (J2000)                      [deg]
#   5 DELTA_J2000            Declination of barycenter (J2000)                          [deg]
#   6 FLUX_APER              Flux vector within fixed circular aperture(s)              [count]
#   7 FLUXERR_APER           RMS error vector for aperture flux(es)                     [count]
#   8 FLUX_RADIUS            Fraction-of-light radii                                    [pixel]
#   9 FWHM_IMAGE             FWHM assuming a gaussian core                              [pixel]
#  10 BACKGROUND             Background at centroid position                            [count]
#  11 THRESHOLD              Detection threshold above background                       [count]
#  12 FLUX_MAX               Peak flux above background                                 [count]
#  13 ISOAREA_IMAGE          Isophotal area above Analysis threshold                    [pixel**2]
#  14 A_IMAGE                Profile RMS along major axis                               [pixel]
#  15 B_IMAGE                Profile RMS along minor axis                               [pixel]
#  16 THETA_IMAGE            Position angle (CCW/x)                                     [deg]
#  17 FLAGS                  Extraction flags                                          
         1    699.1116     16.6707 300.3929233 +22.6016976     783.9326     72.47153      1.484     2.50       5.8385     20.39971     117.5724        14     1.088     0.837 -80.28   0
         2    504.4211     15.6726 300.3325859 +22.5431544     1061.029     72.32438      1.569     2.49     5.602032     20.39971     141.4584        19     1.191     1.003  51.01   0
         3     77.4268     15.5468 300.1997652 +22.4152724     557.8805     72.32438      1.660     3.91     5.668208     20.39971     69.37403         8     1.127     0.640 -86.39   0
         4    408.2979     13.8242 300.3032539 +22.5138523     716.0741     72.21382      1.429     2.67     5.610184     20.39971     95.02052        13     0.981     0.822   7.92   0
         5    747.9578      4.8801 300.4119699 +22.6129176     714.5767     71.34184      1.513     2.77     5.518647     20.39971     90.27565        10     1.041     0.565 -24.82  16
         6    179.6536      3.6576 300.2354019 +22.4424733     3732.347     67.64342      1.666     3.25      6.13826     20.39971     410.1649        35     1.349     1.294  13.04  24
         7    602.4797      1.4772 300.3677302 +22.5684158     154.1738     57.18909      1.035     4.61     6.112664     20.39971     36.39082         7     0.923     0.653  21.38  24
         8    506.1785      1.6353 300.3376800 +22.5396437     271.6139     58.02131      1.044     2.22     5.631036     20.39971     45.58559         5     0.691     0.460 -16.13  24
         9    240.3524   1000.1073 299.9308677 +22.7467118     2396.038     72.32438      4.765    19.65     60.49269     20.39971      86.6664       102     4.666     2.298   0.47  19
        10     94.6511   1011.5303 299.8818503 +22.7062611     4750.649     72.30596     18.235   115.19     85.57646     20.39971     148.5404      2227    20.240    18.188 -53.76  27
        11     84.5926    944.9163 299.9003868 +22.6841457     5926.383     72.23226     31.053   117.98     21.94931     20.39971     1341.278      4932    22.213    17.387 -60.26  19
        12    647.1750    984.6337 300.0625463 +22.8642917     9633.563     72.32438      2.038     4.80     3.497427     20.39971     600.2599        56     1.567     1.546  42.04   3
        13    743.2038    987.8154 300.0914388 +22.8939921     485.2915     72.15848      2.146     4.48     3.637655     20.39971     37.01774         6     0.919     0.622  64.88   0
        14    641.6166    986.6618 300.0601548 +22.8632074     8888.469     72.28754      2.041     4.70     3.481136     20.39971     495.8757        50     1.572     1.492  35.88   3
        15    175.4720    976.8479 299.9182556 +22.7205737     2136.568     72.28754      5.213    15.87     62.59245     20.39971     52.59579        59     3.673     1.906  62.14   3
        16    228.7063    984.5092 299.9323185 +22.7387445     5221.139     72.47153      8.673    26.42     59.54717     20.39971     102.8874       419     5.949     5.598 -66.82   3
        17    322.5102    975.8460 299.9643159 +22.7644035     1272.481     72.28754      0.719     0.98     5.399354     20.39971     463.8254         6     0.500     0.463  -2.38   0
        18    934.3639    971.1882 300.1564597 +22.9465051     757.8082     72.28754      2.097     7.12     4.286979     20.39971     53.77069        15     1.225     1.160   9.38   0
        19     19.8687    967.8855 299.8728037 +22.6713038     663.1835     72.39799      3.024     3.49    -3.986334     20.39971     30.37646         5     1.649     0.213 -27.57   1
        20    659.9194    953.9051 300.0765111 +22.8592923     7023.567     72.43477      1.994     4.37     3.748746     20.39971     411.8001        50     1.530     1.503  16.05   0
        21    156.3755   1007.0295 299.9025022 +22.7234963     827.3239     72.30596      2.433     9.74     89.56328     20.39971     36.51888        14     1.885     1.404 -45.33   0
        22    811.7394    947.4044 300.1259488 +22.9029307     416.5276     72.28754      2.090     5.40     3.910727     20.39971     34.58497         6     1.450     0.569  71.38   0
        23    540.6069    948.2592 300.0411787 +22.8219005     372.4793     72.28754      1.716     4.72     3.851022     20.39971     29.04611         7     1.146     0.551  27.85   0
        24    250.7277    947.5248 299.9511949 +22.7347455     596.9127      72.3612      1.850     6.63     19.39425     20.39971     46.96215        13     1.471     1.226  28.00   0
        25    568.5630    944.5275 300.0510994 +22.8292119     1494.903     72.25069      1.864     5.29     3.882943     20.39971     94.48848        22     1.347     1.162   8.77   0
        26    462.2078    941.0755 300.0191022 +22.7963298     1068.667     72.28754      1.942     4.51     4.062109     20.39971      87.7645        23     1.370     1.194  -9.47   0
        27    392.8624    939.0023 299.9981901 +22.7749377      6634.56     72.30596      1.904     3.96     4.494184     20.39971      523.735        42     1.513     1.368   0.37   0
        28    296.5664   1006.9078 299.9461419 +22.7655287     583.7593     72.25069      5.223     6.07     6.320096     20.39971     37.21207        12     1.404     1.101  20.52   1
        29    178.4091    995.9954 299.9129417 +22.7269451     2556.071     72.15848      4.853    15.01     78.74583     20.39971     60.69241        63     3.079     2.131 -69.02   3
        30    425.8199    926.1509 300.0126273 +22.7811350     419.6813     72.28754      1.641     3.99     4.314811     20.39971     41.08504         6     0.798     0.569 -31.05   0
        31    142.6556    923.9719 299.9252459 +22.6955649     907.7642     72.30596      3.552     3.62      19.1164     20.39971     35.68116         5     1.150     0.328  70.68   3
        32      8.9311   1002.9352 299.8580069 +22.6780665     2772.735     72.36119     16.677    56.44    -23.50827     20.39971     69.12685       890    15.429     5.728  83.96  24
        33    939.4126    918.0481 300.1753165 +22.9327546     2089.925     72.32438      2.085     4.85     4.248541     20.39971     109.4783        33     1.476     1.446   3.01   0
        34    437.4703    914.2216 300.0201327 +22.7812061     285.3019     72.32438      1.598     4.81     4.279454     20.39971      35.1263         6     0.965     0.678  14.89   0
        35    728.2935    907.0807 300.1130464 +22.8663443     838.9933     72.45316      2.025     6.32     4.010886     20.39971     50.94002        16     1.512     0.921  57.88   0
        36    762.9625    901.0093 300.1258276 +22.8749911     1056.341     72.32438      1.702     4.27     4.039693     20.39971     88.82213        18     1.218     1.034  13.73   0
        37    540.7346    901.7737 300.0563337 +22.8085979     418.0984     72.28754      1.710     4.93     4.054931     20.39971     39.86763         6     0.905     0.761 -65.96   0
        38    495.3686   1001.2228 300.0098659 +22.8235323     416.9407     72.30596      1.785     3.09      3.39184     20.39971     33.86226         5     0.731     0.452  72.84   0
        39    181.4325    990.7637 299.9155833 +22.7263524     1911.344     72.32438      7.147    16.70      74.0211     20.39971     48.15947        55     3.540     2.189 -62.90   3
        40    785.1480    894.6683 300.1348059 +22.8798186     11636.89     72.30596      1.869     4.09     4.063174     20.39971      779.427        56     1.501     1.463  44.16   0
        41    831.7211    895.2834 300.1491280 +22.8939508     322.2172     72.43477      1.617     4.79     4.131248     20.39971     35.10911         7     1.325     0.492 -23.89   0
        42    169.8071    998.4202 299.9094784 +22.7250589     755.1178     72.26912      2.139     6.99     81.39396     20.39971     40.15029        11     1.614     0.848 -77.24   0
        43    364.1991    998.5291 299.9699110 +22.7834158     332.5097     72.21382      1.494     4.15     4.698143     20.39971     40.37733         6     1.048     0.469  53.54   0
        44     97.2314    886.0972 299.9234383 +22.6710742     1342.643     72.26912      7.874     8.63     7.645933     20.39971      60.3676        21     1.911     1.158  31.97   2
        45    836.8766    882.3094 300.1549539 +22.8917695     487.6861     72.45316      1.836     5.25     4.158846     20.39971     33.88482         7     1.191     0.652 -84.76   0
        46    490.3951    882.9913 300.0467638 +22.7881143     492.6649     72.15848      1.726     5.87      4.07829     20.39971     40.78695         9     1.319     0.735 -20.34   0
        47    793.8008    876.8482 300.1432975 +22.8772940     1269.861     72.30596      1.705     4.34     4.133616     20.39971     93.89476        23     1.303     1.171 -28.79   0
        48    208.4875    985.8974 299.9255790 +22.7330757     4293.338     72.48991      7.745    22.03      66.1982     20.39971     79.58372       292     5.215     4.950  70.88   3
        49    645.9088    874.4179 300.0979909 +22.8322742     419.2714     72.23226      1.777     5.11     4.065315     20.39971     38.51525         6     0.927     0.796 -67.57   0
        50    831.8190    870.4475 300.1572332 +22.8868473     914.9866     72.34279      2.113     6.91     4.172356     20.39971     49.54971        17     1.375     0.974  33.21   0
        51    555.0781    991.6223 300.0315831 +22.8386835     2462.256     72.28754      1.942     4.52     3.438237     20.39971     172.3513        34     1.447     1.377 -47.24   0
        52    938.9641    867.9459 300.1914668 +22.9182278     240.5356     72.32438      1.406     3.79     4.093624     20.39971     27.62903         5     1.044     0.396  57.84   0
        53    880.1328    861.6943 300.1751468 +22.8988080     637.4866     72.45316      1.996     6.13     4.152928     20.39971     46.95697        13     1.340     0.789  16.57   0
        54    731.5058    860.6159 300.1291541 +22.8539652     766.9864     72.23226      1.637     4.94      4.17767     20.39971     60.48983        19     1.274     1.103  36.83   0
        55    444.0321    856.7886 300.0408469 +22.7666930     4324.079     72.30596      1.754     3.68     4.320358     20.39971     389.1264        35     1.387     1.277  17.24   0
        56    743.0388    857.3134 300.1338227 +22.8564730     651.5006     72.28754      1.580     4.78     4.187366     20.39971     55.45274        13     1.100     0.894  84.20   0
        57    185.6171    998.1473 299.9144831 +22.7297252     1943.466     72.28754      4.725    15.93      79.5859     20.39971     60.74477        54     3.459     2.040  75.46   3
        58    181.0000    999.4849 299.9126124 +22.7287231     1165.289     72.17693      5.089     8.42      81.0266     20.39971     64.07789        21     2.680     0.739  86.26   3
        59    169.3313    842.0389 299.9601744 +22.6800719       866.71     72.26912      2.064     7.08     6.389105     20.39971     63.48597        15     1.444     0.982   4.88   0
        60    146.3584    839.2012 299.9539539 +22.6723660     1621.818     72.30596      1.955     4.53     6.169055     20.39971     121.4896        26     1.395     1.208   9.21   0
        61   1018.3360    828.7908 300.2289632 +22.9307509     2182.236     72.28754      1.944     4.42     4.554747     20.39971     140.5913        34     1.466     1.359 -14.22  16
        62    972.6831    827.1039 300.2152646 +22.9165935     2052.433     72.47153      1.917     4.70     4.455799     20.39971     135.4239        30     1.440     1.334  80.19   0
        63    755.9020    820.9921 300.1496390 +22.8498967     673.2343     72.17693      1.744     5.67     4.217152     20.39971     66.52532        14     1.123     1.094 -14.53   0
        64    624.1736    814.8732 300.1105742 +22.8086641     4885.743     72.30596      1.647     3.44     4.467781     20.39971     428.5156        36     1.328     1.239  28.31   0
        65    114.6799    815.3393 299.9518605 +22.6560183     411.6933      72.3612      1.850     4.12     4.905091     20.39971     35.47669         6     1.055     0.460  85.39   0
        66    426.2092    812.1323 300.0498132 +22.7485333     635.6064     72.30596      1.555     3.75     4.438477     20.39971     71.37283        14     1.117     0.921 -29.28   0
        67    174.3589    808.6385 299.9725928 +22.6719999     1383.196     72.39799      1.804     4.14     4.813142     20.39971     121.0607        22     1.329     1.127 -34.96   0
        68    644.6165    807.4609 300.1193528 +22.8126626     679.9487     72.25069      1.567     3.98     4.534551     20.39971     72.29696        12     0.987     0.930 -39.09   0
        69    193.4893    805.7294 299.9794870 +22.6769041     565.1971     72.47153      1.795     6.36      4.61817     20.39971     40.68256         9     1.381     0.823  17.17   0
        70   1017.3030    795.3542 300.2395088 +22.9208331     1191.018     72.32438      1.946     5.21     4.569123     20.39971     92.80869        26     1.487     1.297 -24.37  16
        71    800.2071    794.7142 300.1719929 +22.8556236     4235.075     72.23226      1.729     3.70     4.265514     20.39971     371.7509        35     1.334     1.277  74.42   0
        72    209.1515    789.1442 299.9897473 +22.6768443     414.8882     72.34279      1.608     3.84     4.432377     20.39971     31.19235         6     0.749     0.578  49.88   0
        73    517.3156    787.4031 300.0862164 +22.7687484      568.942     72.23226      1.403     3.56     4.409479     20.39971     67.68797        12     1.028     0.850 -33.99   0
        74    163.3313    784.8574 299.9768918 +22.6618705     1157.109     72.32438      2.033     5.96     4.452682     20.39971     87.34872        21     1.371     1.217 -81.57   0
        75    578.9890    780.6408 300.1076229 +22.7852930      414.692     72.30596      1.401     4.57     4.552986     20.39971     43.59052         9     0.977     0.681 -49.12   0
        76    313.1976    777.0432 300.0260451 +22.7045769     54145.04     72.30596      1.721     3.41     4.562502     20.39971      5079.54        94     1.498     1.469  35.05   0
        77    571.0971    776.2733 300.1065839 +22.7816736     1699.537     72.43477      1.650     3.51     4.548402     20.39971     146.9524        26     1.243     1.201  30.32   0
        78    983.7200    775.5473 300.2354654 +22.9050843     772.7819     72.32438      1.820     4.30     4.601119     20.39971     60.56872        15     1.123     0.927  42.24   0
        79    241.3255    774.9651 300.0043615 +22.6824264     532.1147     72.26912      1.767     4.75     4.453706     20.39971      64.0586        11     1.246     0.823   2.77   0
        80    599.8888    772.2687 300.1168542 +22.7891530     917.8912     72.47153      1.633     4.94      4.59793     20.39971     75.33829        16     1.350     0.919  -5.73   0
        81    611.2681    770.6840 300.1209143 +22.7921083      622.758     72.41638      1.507     2.65     4.613244     20.39971     80.81805        12     0.922     0.812 -65.10   0
        82    716.6526    767.0634 300.1549308 +22.8226480      438.951      72.3612      1.593     6.21      4.48827     20.39971     39.20887        13     1.146     0.946 -69.17   0
        83    753.7823    757.2896 300.1696808 +22.8309652     836.4072     72.23226      1.750     4.08      4.48274     20.39971     75.79771        16     1.156     1.009 -10.02   0
        84    362.9406    754.3140 300.0489093 +22.7129698     31719.89     72.41638      1.652     3.32     4.521228     20.39971     3060.489        72     1.400     1.395 -45.82   0
        85    377.1712    754.8614 300.0531603 +22.7173937     1933.393     72.30596      1.622     3.53      4.49779     20.39971     202.1436        23     1.184     1.101 -15.06   0
        86    886.0933    750.4615 300.2131588 +22.8686379     2683.455     72.39799      1.712     3.79     4.641087     20.39971      196.094        29     1.326     1.219 -56.07   0
        87    374.1680    748.4931 300.0542947 +22.7146655     679.0887     72.23226      1.927     4.91     4.496024     20.39971     70.92383        12     1.306     0.862 -85.04   0
        88    644.0459    746.1974 300.1390835 +22.7948995     990.2782     72.30596      1.632     3.47     4.650798     20.39971     95.81602        19     1.145     1.057 -59.31   0
        89    245.5816    746.5146 300.0149294 +22.6755400       788.39     72.25069      1.696     3.71     4.447071     20.39971     74.75526        14     1.144     0.783 -41.35   0
        90    537.4774    744.2798 300.1065081 +22.7624115     298.8418     72.41638      1.520     4.99     4.538274     20.39971     29.94412         5     1.155     0.609  25.29   0
        91     50.6986    741.9201 299.9558297 +22.6157663     569.2711     72.43477      1.640     3.08     4.364092     20.39971     63.63319         8     1.061     0.459 -89.88   0
        92    491.1646    741.3511 300.0930371 +22.7476892     960.8674     72.34279      1.678     4.16     4.427633     20.39971     80.36229        17     1.212     0.996 -14.29   0
        93    892.0735    738.5618 300.2188908 +22.8670099      480.301     72.25069      1.485     3.86     4.735686     20.39971     46.87271         8     0.970     0.607  39.90   0
        94    638.2447    738.6348 300.1397332 +22.7909893     451.0005      72.3612      2.131     6.07     4.659585     20.39971     31.93979         9     1.751     0.591  -8.91   0
        95    392.9630    737.4929 300.0637185 +22.7171433     294.7499     72.28754      1.433     5.12     4.452388     20.39971     39.74358         7     0.981     0.756 -48.41   0
        96    436.6246    736.0132 300.0777903 +22.7298079      515.306     72.30596      1.534     4.00     4.413987     20.39971     50.71049        10     0.982     0.939 -24.82   0
        97     78.7822    735.4062 299.9666743 +22.6223231     622.5226     72.26912      1.825     5.28      4.39614     20.39971     52.50584         8     1.074     0.891   2.14   0
        98    870.0535    733.5446 300.2136525 +22.8589732     468.3337     72.34279      1.796     5.20     4.653015     20.39971     42.04711         9     1.099     0.886  -6.23   0
        99    243.5416    730.2549 300.0195774 +22.6702628       484.07      72.3612      1.531     4.19     4.439149     20.39971     50.71272         9     1.009     0.810 -74.37   0
       100    566.4207    720.7766 300.1231593 +22.7643375     359.1618     72.30596      1.385     3.03     4.696552     20.39971     55.25822         9     0.850     0.759  53.93   0
       101    536.3936    719.3008 300.1142862 +22.7549147     613.6619     72.19537      1.616     4.75     4.670767     20.39971     57.26331        12     1.158     0.862  60.65   0
       102    557.9988    716.7396 300.1218475 +22.7606544     1298.432     72.26912      1.484     3.55     4.712757     20.39971     142.3217        19     1.219     0.955  30.29   0
       103    445.4654    718.0874 300.0863665 +22.7273122     366.0945     72.39799      1.538     3.80     4.485928     20.39971      36.7415         6     0.838     0.494  83.86   0
       104    952.5261    715.7964 300.2451473 +22.8785719      4676.53     72.21382      1.749     3.69     4.862252     20.39971     337.0129        38     1.377     1.323  15.90   0
       105    477.4540    716.3345 300.0968955 +22.7363976     391.4564     72.34279      1.430     3.70     4.588218     20.39971     58.69066        10     1.185     0.838  39.36   0
       106    940.9432    707.2200 300.2443197 +22.8726387     1667.977     72.32438      1.691     3.64     4.948317     20.39971     143.0004        25     1.282     1.215 -13.73   0
       107    304.0754    700.9242 300.0479373 +22.6799976     989.9721     72.39799      1.557     3.01     4.521073     20.39971     110.2206        17     1.121     0.936 -11.94   0
       108    767.2039    698.3334 300.1930202 +22.8180502     2373.103     72.28754      1.593     3.19     4.687004     20.39971     224.6454        28     1.272     1.136 -15.92   0
       109    972.1354    697.4038 300.2572415 +22.8791576     1791.289     72.30596      1.718     3.55     4.821871     20.39971     149.5815        24     1.242     1.131  12.16   0
       110    849.7119    684.1637 300.2233513 +22.8386920     691.4485     72.28754      1.755     4.01     4.931627     20.39971     61.82672        13     1.120     0.869  31.68   0
       111    152.6828    684.9079 300.0060521 +22.6300032     500.3999     72.45316      1.340     3.27     4.456731     20.39971     64.37682         6     0.927     0.537 -16.31   0
       112    885.7805    675.3933 300.2374502 +22.8469735     149508.2     72.26912      1.655     3.24      5.03585     20.39971     14160.16       156     1.509     1.486 -36.63   0
       113    648.0869    679.4139 300.1620392 +22.7769302     360.7594     72.25069      1.354     2.08     4.812244     20.39971     61.82647         6     0.762     0.491   3.52   0
       114    737.9340    675.6652 300.1912592 +22.8027701     790.8773      72.3612      1.472     3.45     4.595945     20.39971     95.74271        12     1.037     0.835  35.32   0
       115    918.3676    668.4640 300.2498667 +22.8547403       474.08     72.30596      1.442     5.12     5.086113     20.39971     43.82507        11     1.101     0.749  27.48   0
       116    572.0714    664.1961 300.1432994 +22.7497829     1589.832     72.25069      1.423     3.06     5.007773     20.39971     157.2682        22     1.116     1.005  25.06   0
       117    753.2456    661.4466 300.2006510 +22.8032718      9492.58     72.34279      1.541     2.92     4.715032     20.39971     963.7997        44     1.284     1.235  39.40   0
       118    254.7198    656.3706 300.0470542 +22.6524126     4928.647     72.30596      1.594     3.11     4.586357     20.39971     519.9317        38     1.288     1.235  71.49   0
       119    336.7747    654.4302 300.0732137 +22.6764566     1144.132     72.30596      1.522     3.33      4.61536     20.39971       107.87        19     1.116     1.024  80.69   0
       120    212.4969    652.2385 300.0352631 +22.6385665       571.34     72.28754      1.585     3.69     4.592523     20.39971     54.34932        12     0.978     0.893  51.73   0
       121    544.8853    650.0105 300.1394388 +22.7375627     770.1523     72.25069      1.515     3.99     5.034448     20.39971     68.99017        15     1.116     0.921  -5.39   0
       122    536.7776    642.2432 300.1394363 +22.7329026     3328.101      72.3612      1.450     2.87     5.044909     20.39971     348.9284        30     1.197     1.134  62.20   0
       123    526.9045    635.8184 300.1384479 +22.7280990     1552.656     72.21382      1.558     3.26     5.047008     20.39971      165.744        22     1.256     0.990  41.11   0
       124    920.6990    634.2239 300.2617156 +22.8455974     415.5465     72.25069      1.454     3.32     5.135935     20.39971     44.22852         9     0.944     0.699  -0.74   0
       125    190.2116    632.0523 300.0348880 +22.6260913      693.771     72.30596      1.658     3.06     4.755869     20.39971     89.58606        10     0.925     0.796  52.70   0
       126    204.5012    630.0802 300.0399724 +22.6298101     612.3186     72.43477      1.802     5.62     4.760401     20.39971     60.34476        16     1.290     1.038 -66.30   0
       127    973.5436    627.1593 300.2804983 +22.8593884      557.521     72.28754      1.620     4.64     5.108163     20.39971      60.4257        11     1.184     0.830 -74.39   0
       128    261.4675    627.6005 300.0584965 +22.6461787     415.1293     72.26912      1.469     5.28     4.776547     20.39971     39.66496         9     1.197     0.657   7.32   0
       129    550.8942    626.2677 300.1490214 +22.7325446     466.9259     72.45316      1.427     2.50     5.087039     20.39971     65.74683         9     0.855     0.685  67.24   0
       130    451.6597    625.6217 300.1183288 +22.7026217     1760.381     72.28754      1.519     2.85     4.873818     20.39971     214.1637        21     1.157     1.032  28.46   0
       131    230.8254    627.0084 300.0491573 +22.6368216     563.1413     72.30596      1.401     3.68     4.771044     20.39971      67.5717        10     0.977     0.720  73.24   0
       132    105.6429    620.4212 300.0123705 +22.5973935     19845.82     72.34279      1.759     3.64     4.890811     20.39971      1794.86        61     1.513     1.386  36.89   0
       133     26.8957    621.6232 299.9875045 +22.5741202     726.9979     72.19537      1.935     5.60     4.850519     20.39971     62.34347        17     1.399     1.181  60.72   0
       134    536.6072    621.2390 300.1462046 +22.7268195      1125.23     72.34279      1.467     2.94      5.08434     20.39971     120.9809        16     1.068     0.901 -29.94   0
       135    572.0610    620.3073 300.1575503 +22.7371750     252.0907     72.39799      1.416     4.09     5.110784     20.39971     39.58536         9     0.924     0.705 -70.31   0
       136    954.6458    607.4570 300.2810000 +22.8480671      1141.14     72.34279      1.652     3.47     5.187586     20.39971     110.7004        20     1.143     1.095 -28.20   0
       137    620.1941    608.7017 300.1763144 +22.7482623     141.8689     72.19537      1.129     3.45     5.132379     20.39971      42.7868         5     0.789     0.437 -11.83   0
       138     51.9886    604.4666 300.0008736 +22.5767245     1605.288     72.28754      2.076     5.20     4.982994     20.39971     99.28509        31     1.742     1.183 -74.62   0
       139    821.4044    605.0361 300.2402235 +22.8074762     507.5645     72.32438      1.869     6.36     4.898431     20.39971     60.48506        13     1.514     0.883  48.90   0
       140    118.4276    605.3591 300.0212358 +22.5969057     261.5467     72.34279      1.141     4.02     4.970168     20.39971     38.91257         6     0.872     0.529 -45.42   0
       141    500.3501    601.4699 300.1413326 +22.7102776     491.6035     72.30596      1.555     2.48     5.056391     20.39971     75.12614         8     0.881     0.632 -84.47   0
       142    894.8106    600.2261 300.2646806 +22.8280742     866.0513     72.30596      1.966     3.15     5.060294     20.39971     68.44827        12     0.952     0.856  -9.59   2
       143    890.8907    600.1093 300.2634957 +22.8268670     438.5829     72.47153      1.606     3.24     5.049638     20.39971     52.65709         5     0.964     0.383 -42.08   2
       144    639.9374    598.0057 300.1859394 +22.7511044     286.9368     72.26912      1.591     5.15     5.083649     20.39971     30.96055         5     1.126     0.665   0.43   0
       145    456.7585    593.8541 300.1302321 +22.6950278     744.8552     72.30596      1.526     3.76     4.941512     20.39971     78.58719        13     1.001     0.931  45.02   0
       146    604.8575    592.7349 300.1767209 +22.7390812     485.0522      72.3612      1.535     3.62     5.159513     20.39971     61.87502         7     0.926     0.620  15.92   0
       147    622.1741    590.7592 300.1827576 +22.7437013      627.004      72.3612      1.548     4.81     5.129282     20.39971     61.96608        11     1.225     0.803 -47.31   0
       148    652.0084    590.8110 300.1920370 +22.7526535     514.6705     72.19537      1.426     4.49     5.054427     20.39971     58.52842        11     1.048     0.856  19.42   0
       149    687.7772    589.5830 300.2035827 +22.7630151      260.221     72.26912      1.088     3.93      4.98771     20.39971     36.80201         6     0.876     0.505 -42.18   0
       150    500.9189    589.6725 300.1453405 +22.7070601     777.2411     72.43477      1.396     2.79     5.069079     20.39971     104.2357        14     0.966     0.886 -52.54   0
       151    934.8079    585.3538 300.2819881 +22.8357742     3510.705     72.32438      1.617     3.15     5.085105     20.39971     348.5724        29     1.264     1.177  85.35   0
       152    466.6204    585.0757 300.1361530 +22.6954622       1772.6     72.30596      1.476     2.98     4.984817     20.39971     191.6893        22     1.203     1.111 -68.81   0
       153    831.7524    582.7874 300.2506754 +22.8041809     429.4665     72.32438      1.763     5.81      4.90414     20.39971      35.4181         8     1.253     0.781 -58.13   0
       154     28.4472    578.6109 300.0019521 +22.5622460     5102.432     72.32438      1.843     3.57     4.985034     20.39971     510.9789        43     1.532     1.340  39.37   0
       155    974.7028    575.4090 300.2976656 +22.8448583      386.627     72.19537      1.699     5.88     5.108185     20.39971      48.3261         8     1.435     0.766 -26.01   0
       156    329.9435    571.8862 300.0978920 +22.6507130     9251.669     72.39799      1.510     3.10     4.777278     20.39971     949.4727        38     1.261     1.176  47.22   0
       157    452.3969    568.9222 300.1369692 +22.6865612     9112.714     72.21382      1.471     2.69     4.912717     20.39971     1149.343        40     1.211     1.184  42.06   0
       158    856.8068    566.2175 300.2638695 +22.8069204     287.8264     72.26912      1.657     3.38     4.913129     20.39971     28.11308         5     0.820     0.643 -44.01   0
       159    698.9837    565.3070 300.2149578 +22.7593967     196.3809     72.23226      1.280     4.40     4.992066     20.39971      41.5255         6     0.828     0.664  88.82   0
       160     95.5950    565.5110 300.0270753 +22.5786246     268.8161     72.21382      1.650     4.85     4.961223     20.39971     34.06476         5     1.181     0.564 -30.42   0
       161    948.7504    560.5154 300.2944034 +22.8328077     12546.51     72.28754      1.610     2.99     5.009481     20.39971     1308.313        49     1.326     1.298  82.76   0
       162    864.1168    563.1544 300.2671440 +22.8082286     1922.326     72.26912      1.513     3.06     4.914104     20.39971     184.3873        24     1.174     1.082  82.83   0
       163    512.9854    558.5670 300.1591976 +22.7017419     11668.64     72.28754      1.445     2.67     5.114319     20.39971     1434.686        47     1.246     1.208  77.40   0
       164    682.6553    554.5735 300.2133536 +22.7514221     650.2441     72.30596      1.484     2.62     5.002687     20.39971     76.50753         8     0.790     0.707 -71.51   0
       165    240.3057    553.8396 300.0758631 +22.6186627     1411.249     72.32438      1.605     3.32     4.884501     20.39971     165.3388        19     1.229     0.975  47.84   0
       166    162.7573    553.5701 300.0518328 +22.5953363     241.8289     72.34279      1.693     4.89     4.907913     20.39971     34.40039         5     1.293     0.523 -42.37   0
       167    487.4809    551.8100 300.1534489 +22.6921595        287.3     72.25069      1.229     1.73     5.092488     20.39971      66.3173         5     0.636     0.495 -80.26   0
       168    444.6719    546.6927 300.1417811 +22.6778625     4387.534     72.45316      1.468     2.65      4.85949     20.39971     564.2988        32     1.186     1.123  47.66   0
       169    787.4778    546.8957 300.2485226 +22.7806079     721.5679     72.43477      1.328     3.06     4.895349     20.39971     99.82687        13     1.000     0.870  39.62   0
       170    422.8958    545.1415 300.1355053 +22.6708917     1262.728     72.37959      1.399     3.16     4.713597     20.39971      140.793        18     1.097     0.960  50.09   0
       171    864.4885    542.3939 300.2740003 +22.8023725     1543.461     72.21382      1.513     2.99     4.882794     20.39971     165.1569        20     1.113     1.014 -62.08   0
       172    561.3165    534.3262 300.1821205 +22.7092589     206651.2     72.39799      1.417     2.58     5.161213     20.39971     24968.61       195     1.494     1.396 -13.56   0
       173    111.4426    541.6558 300.0397459 +22.5765310     325.8366     72.30596      1.375     3.80     4.931921     20.39971     35.91376         6     0.969     0.427 -73.04   0
       174    744.8575    539.3250 300.2376926 +22.7656693     814.4385      72.3612      1.376     2.96     4.972671     20.39971     107.8917        13     0.979     0.851 -81.94   0
       175    385.1139    540.5447 300.1252368 +22.6582494      366.825      72.3612      1.241     3.20     4.677722     20.39971     38.82469         6     0.785     0.497  -2.70   0
       176    949.9106    536.2712 300.3026367 +22.8261848     250.6099     72.47153      1.217     3.97     4.961895     20.39971     31.81535         6     1.400     0.322  28.17   0
       177    247.4324    534.2515 300.0844387 +22.6151762     3563.075     72.32438      1.553     2.96     4.832269     20.39971     379.4521        31     1.240     1.166   0.27   0
       178    522.4188    534.7595 300.1698644 +22.6977301     251.7013     72.32438      0.993     3.43     5.115833     20.39971     28.24475         5     0.750     0.454 -71.12   0
       179    177.0362    544.3734 300.0592585 +22.5969778     723.2855     72.32438      1.521     4.28     4.896303     20.39971     87.34327        14     1.124     0.956  15.01   0
       180    813.5623    530.3749 300.2620198 +22.7836702     482.9693     72.32438      1.484     4.73     4.870298     20.39971     57.63263        11     1.183     0.834 -85.78   0
       181    451.9253    514.8848 300.1543648 +22.6709008     2732.083     72.41638      1.506     2.73     4.822593     20.39971     309.7212        32     1.527     1.046  87.77   0
       182    296.5608    517.2066 300.1052554 +22.6250087     446.1779     72.34279      1.276     2.32     4.776515     20.39971     50.95466         5     0.700     0.450 -67.14   0
       183    863.4119    510.9880 300.2838600 +22.7930223     454.6635     72.19537      1.676     4.19     4.882544     20.39971     44.37159         8     1.198     0.839  32.99   0
       184    682.8222    510.6593 300.2276617 +22.7388537     406.3949     72.28754      1.586     2.03     5.050056     20.39971     46.27399         5     0.721     0.419  22.27   0
       185    768.9845    503.4963 300.2568453 +22.7625971     362.8565     72.21382      1.480     2.48     4.889943     20.39971      53.1199         6     0.755     0.498  -5.00   0
       186    848.9857    501.0559 300.2825845 +22.7858483     1752.826     72.28754      1.428     3.16     4.879045     20.39971     179.8576        22     1.067     1.020   5.91   0
       187    735.0798    500.7666 300.2471614 +22.7516602     467.7602     72.26912      1.538     4.20     4.914394     20.39971      41.4408         7     1.128     0.446  53.42   0
       188    720.1794    498.4937 300.2432544 +22.7465451     2559.699     72.23226      1.402     2.42     4.954257     20.39971     345.2742        24     1.118     1.012  46.33   0
       189     79.8312    498.8990 300.0437973 +22.5547823     231.0977     72.28754      1.325     3.15     4.902828     20.39971     35.16785         5     0.775     0.510 -37.03   0
       190    964.6282    496.2581 300.3202184 +22.8190854     382.5468     72.30596      1.488     4.31     5.066147     20.39971     59.38497        10     1.024     0.804 -21.40   2
       191    963.2755    491.9012 300.3212106 +22.8174278     713.2975     72.43477      1.589     2.73     5.064078     20.39971     88.60903        10     0.955     0.697  40.80   3
       192    624.9880    495.1308 300.2146797 +22.7170705     431.9987     72.34279      1.297     2.85     5.146807     20.39971     64.61325         9     0.826     0.696 -41.27   0
       193    507.3993    494.3932 300.1782898 +22.6816353     664.3348     72.12156      1.410     2.55     4.948726     20.39971     95.00934        13     0.934     0.815  34.83   0
       194    977.4417    492.5347 300.3254255 +22.8218498     1291.808     72.28754      1.668     3.44     5.115165     20.39971     126.8992        20     1.124     1.121 -89.71   0
       195    849.2834    491.0132 300.2859372 +22.7830505     2280.459     72.28754      1.687     4.00     4.879045     20.39971     226.3776        28     1.459     1.081  77.05   0
       196    602.7560    489.3419 300.2096319 +22.7087483     641.9688     72.32438      1.505     3.23     5.160574     20.39971     70.05692        10     0.905     0.828 -39.41   2
       197    602.6555    485.3388 300.2108998 +22.7075681     346.7613     72.37959      1.649     3.23     5.160188     20.39971     33.93861         5     0.719     0.477 -78.10   3
       198    388.0435    488.9486 300.1428965 +22.6443106     345.7592     72.34279      1.582     4.29     4.723358     20.39971     41.24559         6     0.972     0.589 -49.97   0
       199    887.3814    486.0799 300.2994218 +22.7930371     4189.166     72.30596      1.491     2.86      4.90347     20.39971     422.1979        31     1.192     1.162  70.11   0
       200    440.9257    487.6778 300.1597710 +22.6597909     380.5636     72.41638      1.281     3.53     4.741467     20.39971     59.47823         9     1.029     0.679  28.55   0
       201    528.5191    485.8173 300.1876508 +22.6854986     339.8397     72.30596      1.496     3.24     5.059555     20.39971      45.8042         5     0.798     0.679  43.26   0
       202    548.2392    482.1568 300.1949810 +22.6903543     290.6939     72.39799      1.284     2.48     5.159807     20.39971     48.37109         6     0.731     0.544  28.20   0
       203    979.4847    476.9604 300.3311183 +22.8179827     590.2221     72.28754      1.472     4.26     5.146036     20.39971     79.68247        13     1.190     0.894  24.98   0
       204    119.4683    476.3597 300.0634340 +22.5601974     920.1252     72.26912      1.620     3.25     4.740519     20.39971     100.9715        16     1.121     0.896 -28.26   0
       205    780.1624    470.6062 300.2710058 +22.7564904     272.8005     72.34279      1.289     3.34     4.867049     20.39971     36.94875         6     0.732     0.632  55.95   0
       206    111.8205    466.4125 300.0642845 +22.5550495     372.3943     72.26912      1.577     4.68     4.738138     20.39971     42.14953         8     1.017     0.611 -15.96   0
       207    719.6581    460.7368 300.2553464 +22.7355377     289.0145      72.3612      1.391     3.90     4.915149     20.39971     44.21419         9     0.947     0.813 -48.48   0
       208    608.6473    458.3376 300.2215298 +22.7016043     304.8376     72.32438      1.239     3.27     5.149251     20.39971     49.27047         9     0.980     0.629   0.43   0
       209    328.2934    458.4876 300.1341866 +22.6176583     236.6856     72.47153      1.273     4.66     4.741628     20.39971     40.84628         7     1.195     0.633 -15.41   0
       210    660.7803    456.6183 300.2383323 +22.7167232     700.4036     72.30596      1.271     2.65      5.05363     20.39971     114.5763        12     1.006     0.702  55.60   0
       211    975.3739    449.3739 300.3387887 +22.8088194     508.2809     72.26912      1.255     2.67     5.165012     20.39971     78.85542         7     0.759     0.635 -62.65   0
       212    721.6759    448.5431 300.2599326 +22.7326372      940.123     72.34279      1.508     3.95     4.897916     20.39971     115.3662        15     1.137     1.042 -88.07   0
       213    878.6974    445.2722 300.3099572 +22.7787051     997.8159     72.43477      1.310     3.24     4.897144     20.39971     125.1553        13     1.046     0.757  53.67   0
       214    862.9062    441.5391 300.3062431 +22.7729050     564.7426     72.39799      1.402     3.69     4.882544     20.39971     63.79132        12     1.086     0.834 -16.37   0
       215    607.3437    439.2879 300.2273056 +22.6957400     3277.037      72.3612      1.383     2.51     5.140535     20.39971     356.5219        28     1.125     1.080 -69.16   0
       216    534.8486    432.3339 300.2069789 +22.6720291     219.9479     72.30596      1.324     4.16     5.095093     20.39971     38.08525         5     0.969     0.694 -75.06   0
       217     71.4603    430.3183 300.0634502 +22.5325896     312.4379     72.39799      1.459     3.44     4.794434     20.39971     28.18825         5     1.079     0.317 -68.12   0
       218    967.7173    438.5047 300.3399268 +22.8034023     446.9355     72.48991      1.333     2.78     5.142467     20.39971     69.36386         8     0.883     0.723  29.83   0
       219    447.1920    426.3645 300.1816193 +22.6440566     337.2404     72.30596      1.336     2.93     4.810711     20.39971     46.43335         6     0.722     0.615 -45.14   0
       220   1018.8744    418.4334 300.3624055 +22.8129381     1420.461     72.30596      1.662     3.07     5.448574     20.39971     151.4185        23     1.188     1.136 -82.35  16
       221    976.8687    417.4420 300.3496175 +22.8000834     951.7894     72.28754      1.410     3.25      5.21604     20.39971     101.9846        14     1.040     0.911 -10.67   0
       222    890.7592    418.1733 300.3225135 +22.7745234     587.6694      72.3612      1.616     3.88      4.90923     20.39971     46.44523         9     0.894     0.703  16.50   0
       223    626.6657    415.5546 300.2410270 +22.6947063     306.1202     72.30596      1.325     3.51     5.061096     20.39971     42.17338         5     1.052     0.338 -21.45   0
       224    718.1859    413.3055 300.2702792 +22.7214638     1161.914     72.23226      1.252     2.61     4.894029     20.39971     140.7569        14     0.948     0.822  64.03   0
       225    513.8426    413.8445 300.2064360 +22.6604250     499.3809     72.39799      1.485     2.45     5.030087     20.39971     70.36035         9     0.929     0.634  -5.52   0
       226    221.8688    411.1951 300.1164222 +22.5721847     756.2319     72.26912      1.482     3.30     4.658714     20.39971     81.38118        14     1.052     0.904 -38.27   0
       227    284.3459    406.9843 300.1372239 +22.5896986     3928.837     72.26912      1.502     2.76     4.821781     20.39971     482.5826        29     1.212     1.087  57.49   0
       228   1017.4898    405.7756 300.3660807 +22.8088830     4399.928     72.25069      1.610     3.20     5.437614     20.39971     407.8174        33     1.249     1.224 -84.76  16
       229    231.5343    401.6417 300.1225281 +22.5723382     7734.836     72.28754      1.584     2.93     4.788003     20.39971     959.5785        39     1.325     1.203  64.85   0
       230    997.4552    396.8209 300.3627333 +22.8003127     1891.485     72.32438      1.669     3.28     5.327261     20.39971     182.1202        22     1.250     1.032 -42.92   0
       231    616.5991    392.8005 300.2452732 +22.6851525     18669.99     72.08462      1.404     2.55     5.195682     20.39971     2488.861        53     1.298     1.138  79.47   0
       232    372.3482    396.0184 300.1681666 +22.6129174     4957.382     72.28754      1.431     2.75     4.912437     20.39971      581.287        33     1.200     1.107  62.13   0
       233    634.0217    392.8990 300.2506699 +22.6903979     893.1324     72.23225      1.795     6.05     5.151954     20.39971     81.74013        15     1.510     0.747 -44.24   0
       234    813.7475    383.3471 300.3097936 +22.7414591     364.5467     72.34279      1.535     4.38     5.001052     20.39971     39.75654         7     0.869     0.628  34.86   0
       235    236.4132    380.1446 300.1310197 +22.5676274     312.0263     72.30596      1.409     3.47      5.06535     20.39971     42.66189         5     1.163     0.299  -9.44   0
       236    950.1384    375.4751 300.3548931 +22.7800147     906.6409      72.3612      1.686     3.50     5.080081     20.39971     105.8539        18     1.171     1.134  84.68   0
       237    487.0728    373.8340 300.2110802 +22.6409111     531.3133     72.30596      1.691     6.40     5.092243     20.39971     48.96157        10     1.759     0.654  78.91   0
       238    659.8984    374.3778 300.2647424 +22.6928229     185.2892     72.23226      1.166     3.43     5.215327     20.39971      30.5953         5     0.780     0.435 -19.26   0
       239    171.3092    372.7034 300.1131852 +22.5459798     2011.426     72.48991      1.560     2.85      5.13054     20.39971      256.476        25     1.246     1.115  82.92   0
       240    827.6384    364.7324 300.3201646 +22.7402646     311.1955     72.26912      1.681     4.99      5.04089     20.39971     34.58779         6     0.961     0.732  20.00   0
       241    557.2181    362.2191 300.2366949 +22.6585817     6644.255     72.30596      1.368     2.57     5.196086     20.39971     769.5889        34     1.205     1.065  73.48   0
       242    970.8467    362.8203 300.3654606 +22.7825714     1299.405      72.3612      1.552     2.79     5.192401     20.39971     151.7801        17     1.030     0.994  19.57   0
       243    271.7227    361.4558 300.1480665 +22.5728411      780.595     72.34279      1.501     4.53     5.238516     20.39971     75.49178        14     1.275     0.832  49.46   0
       244    817.0505    354.6603 300.3201302 +22.7341995     346.6931      72.3612      1.305     4.25      5.10108     20.39971       43.181         9     0.990     0.820  46.47   0
       245    129.8048    355.2228 300.1059498 +22.5285215     494.3007     72.26912      1.529     2.79     5.372402     20.39971     70.98955         6     0.968     0.497 -34.40   0
       246    671.0446    352.9644 300.2751626 +22.6900050     458.5575     72.36119      1.338     2.64     5.359287     20.39971     60.57335         9     0.791     0.726   7.86   0
       247    761.3805    351.4578 300.3038104 +22.7166154     1154.885     72.30596      1.478     2.67      5.22869     20.39971     137.9357        18     1.122     0.924  64.40   0
       248    463.8929    348.5085 300.2120776 +22.6266917     6161.625     72.47153      1.400     2.54     5.180553     20.39971     822.0212        31     1.173     1.077  75.12   0
       249    953.3781    343.4316 300.3662992 +22.7717676     675.4468     72.30596      1.426     3.45     5.073361     20.39971     76.86804        13     1.085     0.861 -57.71   0
       250    855.9636    342.9809 300.3360550 +22.7424873     1481.551     72.30596      1.542     3.02     5.057853     20.39971     162.8014        21     1.174     1.013  86.23   0
       251   1015.0327    338.3142 300.3872003 +22.7887423     871.7406     72.26912      0.569     0.98     5.256666     20.39971     477.0002         5     0.468     0.343  79.46   0
       252    448.7245    337.5243 300.2109176 +22.6189926     488.4017     72.39799      1.643     2.49     5.199736     20.39971     50.98404         5     0.696     0.458  22.35   0
       253    531.2569    335.1273 300.2373964 +22.6430217     442.3797     72.34279      1.343     2.96     5.178092     20.39971     61.34605         9     0.851     0.781  66.25   0
       254    829.0878    330.9281 300.3315824 +22.7309779     477.2326     72.45316      1.373     3.19     5.156096     20.39971      65.1043        11     0.933     0.798 -31.69   0
       255    351.3773    327.6601 300.1838142 +22.5869988     2667.608     72.28754      1.509     2.64     5.285907     20.39971     341.3503        25     1.219     1.065  71.94   0
       256     69.8081    324.9702 300.0971103 +22.5018534     990.3462     72.30596      1.618     3.82     5.562604     20.39971     91.51482        17     1.202     1.022  46.11   0
       257    699.3341    322.6912 300.2937994 +22.6897716     428.0784     72.43477      1.515     2.64     5.300323     20.39971      39.7012         5     0.718     0.452 -75.92   0
       258    320.7692    317.0303 300.1777365 +22.5747759     30230.76     72.30596      1.476     2.84     5.309744     20.39971     3338.153        66     1.357     1.252  68.01   0
       259    855.4984    314.9260 300.3450099 +22.7342799     1399.995     72.45316      1.491     2.69      5.20478     20.39971     160.8257        18     1.039     0.954 -83.43   0
       260    810.9220    312.1180 300.3320184 +22.7201320     311.0081     72.41638      1.458     3.75     5.227527     20.39971     43.34928         5     0.663     0.610  82.16   0
       261    894.4327    304.0297 300.3606889 +22.7427969     377.6944     72.32438      1.913     4.74     5.136586     20.39971     32.04438         5     1.038     0.615 -20.74   0
       262     17.0779    304.7831 300.0872683 +22.4802525       5062.5     72.30596      1.723     3.22     5.690548     20.39971     537.9877        41     1.486     1.283  45.06   0
       263    770.6915    303.9529 300.3221220 +22.7057434     549.1394     72.30596      1.333     3.01     5.257915     20.39971     71.94283         8     0.821     0.662   3.38   0
       264    194.8500    303.5493 300.1429357 +22.5331766     537.6671     72.34279      1.854     4.49     5.495126     20.39971       44.469        10     0.942     0.905  35.22   0
       265    419.2029    302.5241 300.2130782 +22.6000940     542.3127     72.21382      1.276     2.58     5.254761     20.39971     77.99209        10     0.908     0.681 -56.48   0
       266    598.2669    299.7729 300.2697374 +22.6529258     162.8671     72.28754      1.145     3.72     5.387778     20.39971     28.83648         5     0.923     0.431 -44.13   0
       267    731.2787    297.0500 300.3120733 +22.6919619     1797.781     72.30596      1.360     2.83     5.274165     20.39971     224.7385        19     1.064     0.956 -87.23   0
       268    539.7293    292.0947 300.2539920 +22.6331916     352.3878     72.41638      1.435     2.36     5.179447     20.39971      56.1039         7     0.818     0.572  60.65   0
       269    946.5341    289.9352 300.3815153 +22.7543317     626.4436      72.3612      1.497     3.09     4.931983     20.39971     82.99854        13     1.022     0.928  22.28   0
       270    392.9390    281.4150 300.2117479 +22.5861624     2317.708     72.26912      1.640     3.42     5.294059     20.39971     235.6754        29     1.414     1.078  62.75   0
       271    605.4418    280.4258 300.2782471 +22.6495126     253.9363      72.3612      1.225     4.18     5.437822     20.39971     41.02588         5     1.009     0.493   2.10   0
       272    832.2120    274.7665 300.3507715 +22.7157617     635.6246     72.28754      1.301     3.56     5.322197     20.39971     80.97484        12     1.081     0.742  48.00   0
       273    824.7272    275.4501 300.3482156 +22.7137185     321.4069     72.30596      1.403     3.24     5.315497     20.39971     36.35481         5     0.719     0.476 -15.47   0
       274    714.3176    272.1645 300.3148563 +22.6797298     374.3501     72.26912      1.331     3.43     5.304243     20.39971     59.20053        10     1.067     0.682  73.69   0
       275    731.7271    272.1611 300.3202845 +22.6849397      460.401     72.28754      1.737     3.43     5.296215     20.39971     44.65108         7     0.971     0.542 -13.96   0
       276    682.6035    270.7346 300.3054349 +22.6698258     287.6815     72.32438      1.478     4.02      5.32071     20.39971      38.0535         5     0.961     0.482  84.14   0
       277    468.8896    261.0204 300.2420069 +22.6030482     1224.755     72.25069      1.412     2.39     5.321986     20.39971     165.5794        18     0.999     0.939 -45.06   0
       278    276.7866    261.7905 300.1819645 +22.5457316     316.8502     72.21382      1.859     3.85     5.446148     20.39971     24.39425         5     0.951     0.446  44.91   0
       279    713.7729    252.7810 300.3209720 +22.6739933     2167.167     72.32438      1.430     2.48     5.338987     20.39971     311.3043        25     1.225     1.026  54.95   0
       280    851.7758    254.3034 300.3635090 +22.7157304     153.1705     72.21382      1.242     3.52      5.34989     20.39971      35.1995         5     0.848     0.612 -51.16   0
       281    975.0378    247.2703 300.4042456 +22.7505848     3058.095     72.26912      1.503     2.79     4.919008     20.39971     398.7308        29     1.294     1.122  55.01   0
       282    521.8796    246.1473 300.2633316 +22.6146408     286.4815     72.32438      1.327     2.39     5.372586     20.39971     42.94883         6     0.735     0.546 -51.31   0
       283    422.1243    236.4988 300.2353972 +22.5819967     522.7307     72.43477      1.315     3.08     5.302222     20.39971     79.15904        13     1.062     0.807  52.58   0
       284     96.8960    230.9826 300.1360067 +22.4829850     1415.316     72.21382      1.603     3.24      5.57782     20.39971     150.4671        22     1.526     0.857 -26.30   0
       285    127.8034    230.9051 300.1456410 +22.4922241     577.8047     72.21382      1.539     3.42      5.56017     20.39971     75.98027        10     0.978     0.861 -30.26   0
       286    991.2171    227.9867 300.4155474 +22.7498762     443.2921     72.25069      1.331     4.02     4.813985     20.39971     60.04818         9     1.105     0.551 -29.22   0
       287    180.8163    222.9485 300.1647053 +22.5058228      474.568     72.30596      1.415     5.41     5.536144     20.39971     67.13531        10     1.217     0.700  16.26   0
       288    834.4289    224.6399 300.3677167 +22.7020076     367.8541     72.32438      1.395     2.99     5.361694     20.39971     48.82018         6     0.857     0.479   2.36   0
       289    856.5536    216.9591 300.3771076 +22.7064181     286.2486      72.3612      1.496     4.32     5.362315     20.39971     46.39464         5     0.985     0.546 -10.24   0
       290    785.3215    214.3201 300.3557485 +22.6843453     735.1324     72.43477      1.441     3.17     5.368385     20.39971     83.88949        12     0.975     0.866  47.98   0
       291    376.0978    213.7076 300.2284585 +22.5616635     474.4253     72.48991      1.373     4.35     5.412463     20.39971     58.41413        10     1.155     0.658 -69.53   0
       292    883.5710    203.4088 300.3899281 +22.7106033     2088.187     72.30596      1.433     2.51     5.361694     20.39971     263.7633        24     1.139     1.074 -81.53   0
       293    302.1223    200.5404 300.2097050 +22.5357243     2098.704      72.3612      1.433     2.62     5.503038     20.39971     246.6368        23     1.114     1.056  61.77   0
       294    380.0872    195.6738 300.2355463 +22.5576761     1021.416     72.45316      1.508     2.73     5.423174     20.39971     137.7871        16     1.056     0.924 -20.90   0
       295    781.9707    195.2227 300.3608949 +22.6778498     382.8908     72.30596      1.176     3.03     5.385058     20.39971     67.59473         9     0.895     0.686  15.81   0
       296    888.9927    192.4490 300.3951725 +22.7090723     492.0854     72.30596      1.370     2.50     5.361694     20.39971     58.01456         6     0.763     0.495   4.74   0
       297    196.6944    187.9119 300.1810010 +22.5005157      794.171     72.48991      1.529     3.18     5.539761     20.39971     99.36578        13     1.046     0.904  10.58   0
       298    315.1901    187.3393 300.2180505 +22.5358453     188.4267     72.26912      1.194     3.49     5.493788     20.39971     35.85631         5     0.779     0.451  13.10   0
       299    799.7415    184.2454 300.3699948 +22.6800098      639.847     72.34279      1.377     4.08     5.387574     20.39971     82.32617        10     1.180     0.684  56.54   0
       300    734.6028    184.6640 300.3495494 +22.6606387     1730.284     72.30596      1.362     2.96     5.412971     20.39971     245.8823        19     1.092     0.969  75.43   0
       301    218.0987    181.1423 300.1898527 +22.5049831     650.1789     72.39799      1.433     3.04     5.526962     20.39971      86.1898        11     0.927     0.772 -11.09   0
       302   1006.3749    177.6298 300.4366038 +22.7399195     754.4701     72.30596      1.486     3.67     5.366862     20.39971     97.80097        16     1.174     0.911 -52.51   0
       303    738.6091    176.2114 300.3535383 +22.6594066      836.204     72.19537      1.741     3.41     5.423504     20.39971     102.4618        15     1.109     0.929 -40.69   0
       304    508.3877    177.2296 300.2814719 +22.5907914     408.7511     72.30596      1.495     3.85     5.432775     20.39971     47.96449         8     1.043     0.579 -35.70   0
       305    659.2335    175.3813 300.3290660 +22.6354135     1266.329     72.28754      1.394     2.70     5.474343     20.39971      183.765        19     1.129     0.947  79.42   0
       306    480.4624    172.1078 300.2744355 +22.5809586     430.6657     72.41638      1.600     4.67     5.399988     20.39971     52.64993         8     1.149     0.539 -52.64   0
       307    854.7183    167.0571 300.3927122 +22.6915137     1543.637     72.34279      1.511     2.74     5.367327     20.39971     164.9141        24     1.245     1.094 -60.99   0
       308    585.2882    167.1119 300.3087054 +22.6109032     907.9468     72.47153      1.365     3.00     5.477672     20.39971     107.8893        16     1.111     0.848  82.97   0
       309    866.6737    166.2328 300.3967085 +22.6948531      769.955     72.30596      1.484     3.36     5.361694     20.39971     100.8641        15     1.099     0.934 -79.17   0
       310    983.3870    156.4239 300.4363032 +22.7269418     1115.887     72.30596      1.589     3.05     5.576674     20.39971     138.9057        18     1.216     0.973  78.74   0
       311      7.1694    152.9978 300.1333954 +22.4337030     518.0111     72.26912      1.565     3.48     6.066125     20.39971     61.38998         8     1.008     0.707  56.79   0
       312    217.4077    149.4075 300.1999233 +22.4956591     739.4652     72.15848      1.424     3.11     5.633556     20.39971     97.86638        12     1.043     0.769  43.91   0
       313     79.2828    144.0159 300.1587200 +22.4527315       2195.9     72.26912      1.666     3.24     5.747918     20.39971     246.1941        31     1.351     1.198  63.55   0
       314    902.4910    141.3665 300.4159416 +22.6984131     728.3465     72.28754      1.506     3.27     5.434143     20.39971     71.20387        11     0.972     0.801   8.10   0
       315     28.7979    141.2698 300.1439178 +22.4368161     265.7718     72.25069      1.260     3.84     5.953547     20.39971     40.61386         7     1.009     0.622 -16.84   0
       316    236.7506    137.2887 300.2098676 +22.4979710     5446.502     72.28754      1.527     2.84     5.733682     20.39971     659.3368        35     1.300     1.136  65.34   0
       317     20.8403    131.7318 300.1445356 +22.4316925     1448.503     72.26912      1.819     3.38     5.975008     20.39971       147.54        23     1.340     1.125  30.34   0
       318    220.2818    128.2888 300.2076613 +22.4904525       467.85     72.41638      1.421     3.56     5.815127     20.39971     57.49092         8     1.049     0.630 -65.82   0
       319    880.9544    119.1300 300.4164297 +22.6855729     3540.391     72.28754      1.462     2.94     5.427485     20.39971     441.6008        29     1.240     1.116 -89.97   0
       320    984.5832    117.9905 300.4491330 +22.7162389     2804.323     72.25069      1.602     3.28     5.871586     20.39971     295.3176        29     1.324     1.155  68.82   0
       321    183.9482    114.9513 300.2006825 +22.4757376      416.744     72.34279      1.524     2.10     5.937654     20.39971      49.4038         5     0.599     0.575  -5.16   0
       322    430.4671    114.2480 300.2776202 +22.5493586     738.7976     72.30596      1.480     3.25     5.477644     20.39971     74.52553        12     1.127     0.661  -3.83   0
       323    354.5821    106.2255 300.2565978 +22.5243320     563.2126     72.32438      1.539     2.78     5.513101     20.39971     67.22882         8     0.917     0.591 -17.61   0
       324    481.6522    101.4751 300.2976969 +22.5610099     1654.569     72.32438      1.389     2.75     5.400686     20.39971     222.4305        21     1.114     1.043 -81.23   0
       325    120.5749    102.9449 300.1848662 +22.4533050     633.2151     72.32438      1.607     4.52     5.954668     20.39971     60.31918        12     1.274     0.738  23.58   0
       326    409.7120    102.1509 300.2750786 +22.5396674     508.5523     72.30596      1.271     2.20     5.508243     20.39971     72.94353         7     0.772     0.617 -23.30   0
       327    543.5689    100.7615 300.3172122 +22.5793384     426.2557     72.30596      1.394     3.74     5.476011     20.39971     52.21901         8     0.941     0.580  -7.42   0
       328    225.0720     96.7784 300.2193619 +22.4828336     332.9537     72.30596      1.408     4.05     6.086292     20.39971      47.0661         7     0.760     0.658  -0.01   0
       329    770.2756     91.3003 300.3909302 +22.6444572     371.1376     72.43477      1.308     3.31     5.457164     20.39971     48.83411         8     0.878     0.650  -6.55   0
       330    618.1505     87.3924 300.3447796 +22.5978152     218.7216     72.30596      1.414     4.16      5.63345     20.39971     31.36457         5     0.930     0.532 -49.27   0
       331    255.7088     81.1300 300.2339627 +22.4875123     5786.976     72.43477      1.551     3.03     6.098558     20.39971     655.2872        38     1.394     1.157  67.11   0
       332    106.7395     80.9155 300.1877022 +22.4428321     686.7859     72.41638      1.495     3.59     5.981746     20.39971     84.98483        14     1.192     0.802  21.97   0
       333    884.7607     79.3723 300.4305006 +22.6752712     291.3913     72.34279      1.132     2.36     5.608562     20.39971     52.86327         5     0.713     0.444 -20.12   0
       334    227.9621     75.3132 300.2272157 +22.4775313     174.7102     72.28754      1.119     3.73     6.103158     20.39971     43.95165         5     0.839     0.475 -45.35   0
       335    271.1413     72.6719 300.2415043 +22.4897031     446.5234     72.34279      1.568     3.34     6.104691     20.39971     46.34028         7     0.803     0.651 -74.00   0
       336     17.4946     71.4719 300.1630207 +22.4133834     414.4342     72.41638      1.966     5.10     5.479834     20.39971     23.62503         6     0.962     0.763  17.01   0
       337    501.8436     66.6208 300.3152783 +22.5570329     6282.762      72.3612      1.459     2.75     5.490797     20.39971      820.718        32     1.236     1.078  74.50   0
       338    387.2789     66.7138 300.2795772 +22.5227647     614.3267     72.45316      1.421     3.39     5.633767     20.39971     63.26002         8     0.908     0.608  15.29   0
       339    558.9859     61.4809 300.3347420 +22.5726575     290.5561     72.28754      1.200     2.69     5.585215     20.39971     59.63797         8     0.784     0.700 -66.12   0
       340    762.0624     82.2342 300.3913071 +22.6393919     356.3957     72.30596      1.281     2.76     5.464956     20.39971     41.03315         7     0.748     0.630  -4.56   0
       341    695.8028     58.2860 300.3784103 +22.6126791     363.3483     72.23226      1.397     4.10     5.704364     20.39971     38.89268         6     0.767     0.625 -88.13   0
       342    754.5851     56.5681 300.3972917 +22.6297712     820.8933     72.30596      1.618     3.30     5.483266     20.39971     73.63894        13     1.142     0.747  56.60   0
       343    846.9136     55.6129 300.4263931 +22.6571144     485.5447     72.25069      1.448     4.56     5.651727     20.39971     64.62897        11     1.303     0.624  47.74   0
       344    914.6065     53.0170 300.4483510 +22.6766128     152.4071     72.25069      1.109     4.15     5.843255     20.39971     24.82623         5     0.799     0.616  -2.29   0
       345    194.4330     50.5466 300.2248103 +22.4603732     416.2433     72.32438      1.361     2.97     6.114971     20.39971     60.21848         8     0.866     0.698 -47.16   0
       346    630.2250     46.7805 300.3617001 +22.5897482      6243.02     72.32438      1.444     2.75     5.885406     20.39971     743.4173        35     1.295     1.104  80.29   0
       347    553.1689     49.4434 300.3368298 +22.5674550     558.4861      72.3612      1.227     2.97     5.584167     20.39971     65.14616         6     0.757     0.496   2.04   0
       348    405.0956     45.7683 300.2919092 +22.5220773     1428.421     72.26912      1.354     2.76     5.593076     20.39971     178.5784        17     1.052     0.929 -31.15   0
       349    671.3632     44.3178 300.3753183 +22.6013489     700.6643     72.26912      1.306     2.84     5.908128     20.39971     102.6402        12     0.908     0.878  66.68   0
       350    741.1782     42.1018 300.3977986 +22.6215985     495.6922     72.23226      2.025     3.77     5.494015     20.39971     41.16434         6     0.858     0.771   0.00   0
       351    687.3391     40.2096 300.3816286 +22.6049470     737.3004     72.25069      1.654     3.50     5.835933     20.39971     69.35682         9     0.900     0.777 -12.98   0
       352    996.3465     37.8951 300.4787572 +22.6967027     232.1318     72.37959      1.435     3.31     6.205663     20.39971     39.79033         5     0.786     0.405 -68.27   0
       353    957.5051     38.1683 300.4665471 +22.6851674     540.5581     72.26912      1.444     4.02     6.036674     20.39971     60.87978         9     0.995     0.711  18.74   0
       354    154.0302     37.9245 300.2163340 +22.4446459     589.2852     72.30596      1.652     4.58     6.104077     20.39971     66.88824        12     1.145     0.941  30.56   0
       355    725.7784     36.0514 300.3949578 +22.6152509     503.9548     72.30596      1.313     3.18     5.576373     20.39971     67.62228        10     0.906     0.772 -28.63   0
       356    674.5032     31.6915 300.3803873 +22.5986563     2647.181     72.48991      1.448     2.58     5.962276     20.39971     336.3047        27     1.202     1.051 -89.16   0
       357    689.4844     30.4910 300.3854456 +22.6027931     883.7824     72.47153      1.872     5.98     5.866928     20.39971     77.01738        13     1.422     0.865  52.46   0
       358    315.5648     32.5068 300.2683389 +22.4914612     445.0789     72.26912      1.479     3.16     6.102232     20.39971     55.10254         7     0.839     0.652  -7.59   0
       359    760.9440     23.3575 300.4100334 +22.6221184     1435.197     72.28754      1.428     3.14      5.50696     20.39971     188.8011        19     1.204     0.903 -89.35   0
       360    246.3318    974.0139 299.9412136 +22.7410233     8345.341     72.32438     10.800    36.78     37.53165     20.39971     169.1549       925    12.361     5.154  64.95  19
       361    257.1780   1017.0745 299.9305824 +22.7566259     1338.794     72.30596      3.854    12.33     49.75252     20.39971     37.61933        26     2.302     1.839  15.72  18
       362    303.4635   1012.0889 299.9466025 +22.7690838     1598.531     72.41638      4.985     5.82     6.207034     20.39971     77.88105        28     1.540     1.356  44.26   0
       363    161.3597   1014.1368 299.9017402 +22.7270298     672.2686     72.28754      1.549     4.01     96.03352     20.39971     45.63734         5     1.364     0.337 -40.35   0
       364    790.6264     12.9194 300.4226699 +22.6279937     402.4159     72.28754      1.441     2.65     5.515839     20.39971     53.49637         9     0.898     0.636 -18.48   0
       365    142.5561   1008.1359 299.8978459 +22.7196661     1152.484     72.30596      1.759    11.54     89.10953     20.39971     42.87643        25     3.554     1.043  65.19  18
       366    138.3641   1007.4184 299.8967760 +22.7182022     1188.416     72.30596      2.652     8.58     87.72588     20.39971      39.5044        18     1.834     1.121 -73.43   3
       367    208.6124   1003.7252 299.9198197 +22.7382250     1914.014     72.32438     -0.546    28.81      82.4449     20.39971     62.23056       112     6.126     3.761 -15.28  19
