#   1 NUMBER                 Running object number                                     
#   2 X_IMAGE                Object position along x                                    [pixel]
#   3 Y_IMAGE                Object position along y                                    [pixel]
#   4 ALPHA_J2000            Right ascension of barycenter (J2000)                      [deg]
#   5 DELTA_J2000            Declination of barycenter (J2000)                          [deg]
#   6 FLUX_APER              Flux vector within fixed circular aperture(s)              [count]
#   7 FLUXERR_APER           RMS error vector for aperture flux(es)                     [count]
#   8 FLUX_RADIUS            Fraction-of-light radii                                    [pixel]
#   9 FWHM_IMAGE             FWHM assuming a gaussian core                              [pixel]
#  10 BACKGROUND             Background at centroid position                            [count]
#  11 THRESHOLD              Detection threshold above background                       [count]
#  12 FLUX_MAX               Peak flux above background                                 [count]
#  13 ISOAREA_IMAGE          Isophotal area above Analysis threshold                    [pixel**2]
#  14 A_IMAGE                Profile RMS along major axis                               [pixel]
#  15 B_IMAGE                Profile RMS along minor axis                               [pixel]
#  16 THETA_IMAGE            Position angle (CCW/x)                                     [deg]
#  17 FLAGS                  Extraction flags                                          
         1    773.0663     10.8398 300.4119881 +22.6127906     622.6135     72.33058      1.270     2.81     6.287754     20.41706     84.61075        13     0.974     0.851   1.31   0
         2    335.5986     11.0088 300.2757211 +22.4818765     186.1907     72.18289      1.288     4.13     6.203822     20.41706     28.33684         5     1.092     0.446 -24.34   0
         3    204.8512      9.8993 300.2354204 +22.4423943     3922.988     72.45956      1.558     2.99      6.69568     20.41706     416.0499        34     1.358     1.157  55.50   0
         4    530.9023      7.7295 300.3375623 +22.5394149     398.3104     72.49638      1.414     2.78     5.825768     20.41706      54.1778         5     0.900     0.341 -45.16   0
         5    766.4394      2.5584 300.4126057 +22.6084251     899.1457     62.90045      1.331     2.69     6.303593     20.41706     131.4955        15     1.007     0.882  54.89  24
         6    320.8371      2.2751 300.2739586 +22.4749452     1086.752     61.41973      1.329     2.66      6.43117     20.41706     131.7843        14     0.990     0.796  -0.76  24
         7    732.1118      1.9620 300.4021014 +22.5979812      278.281     59.81327      0.942     2.25     6.311774     20.41706     66.04533         6     0.863     0.424 -54.31  24
         8    207.2121   1005.6195 299.9129233 +22.7288891     2335.121     72.33058      4.626    15.60     82.57198     20.41706     62.53611        60     3.458     1.956 -72.49  19
         9    277.7336   1023.8046 299.9289313 +22.7552721     901.8947     55.48634      4.272    10.11     38.50306     20.41706     48.84509        19     2.996     0.952  22.70  27
        10    282.3855   1022.7665 299.9307154 +22.7563708     1247.196     61.24573      3.979    11.09     34.00266     20.41706     55.69773        30     3.140     1.091  34.80  27
        11    282.7251   1017.1375 299.9326523 +22.7548588     2165.156     72.40431      4.291    16.71     31.44409     20.41706     57.94857        60     3.785     2.050  31.00  19
        12    123.1176   1013.3802 299.8842644 +22.7058665     2979.897     72.33058     15.395    81.06     90.53767     20.41706     115.0651      1302    24.271     7.511  48.26  27
        13    112.6367    954.5715 299.9001358 +22.6858624     4981.052     72.38589     21.168    80.67     38.06348     20.41706     212.8295      2080    14.859    12.151  32.81  19
        14     20.5508   1000.2522 299.8566727 +22.6713054     886.7556     72.40431      4.825     4.53    -5.269006     20.41706     30.85507         5     1.219     0.478 -83.01   1
        15    580.5974    997.7150 300.0316507 +22.8386688     2334.092     72.29369      1.907     4.43      4.53125     20.41706     144.8043        31     1.379     1.346 -25.51   0
        16    667.0672    993.1446 300.0600647 +22.8632932     8392.739     72.42274      1.917     4.24     4.985744     20.41706     580.6779        45     1.509     1.394  25.29   3
        17    672.5151    990.6844 300.0625618 +22.8642211     9459.764     72.47797      1.941     4.61     4.990594     20.41706     553.3244        51     1.528     1.467  12.87   3
        18    767.2329    993.6085 300.0911187 +22.8934643     650.4816     72.36746      1.893     6.38     4.655877     20.41706     47.29325        11     1.377     0.829  10.61   0
        19    204.0575   1002.8137 299.9128555 +22.7271377     2254.773     72.33058      4.778    17.78     80.58802     20.41706     55.29084        66     4.347     2.020 -55.48  19
        20    253.0914    991.2288 299.9318667 +22.7385352     6458.755     72.33058      9.441    27.99     46.90901     20.41706     149.6818       465     6.664     5.153 -78.41  19
        21    109.2211    923.1628 299.9092885 +22.6758330     3826.216     72.38589     18.640    57.28     13.22708     20.41706     87.22066      1001    12.435     7.721 -28.59   3
        22    202.0128    985.8195 299.9177478 +22.7216518     1515.812     72.33058      4.267    13.27     67.07298     20.41706     52.98908        27     2.367     2.069  43.41   2
        23    532.3539    981.6970 300.0218425 +22.8196010     451.1141     72.38589      1.645     4.10     4.049225     20.41706     46.12521         6     1.106     0.434  57.48   0
        24    960.1074    977.0344 300.1566360 +22.9465270     844.2048     72.31214      2.079     7.41     4.091139     20.41706     45.86839        17     1.728     0.889  46.24   0
        25      3.4475   1005.9750 299.8494996 +22.6678091     2537.502     66.82838      7.596    24.11    -26.72816     20.41706     63.89407       124     6.408     2.520  12.33  27
        26      4.3354    969.3138 299.8616995 +22.6575697     1050.008     70.06355      6.504     9.16    -11.72247     20.41706     38.68556        12     2.825     0.829  -4.96  25
        27    179.7369    962.6498 299.9183600 +22.7083221     1129.024     72.42274      3.329    11.58     52.22104     20.41706     46.65306        26     2.662     1.403  43.42   0
        28    160.9274    957.5941 299.9141586 +22.7012262     1251.203     72.31214      8.298    12.31      51.5867     20.41706     43.66543        28     2.444     1.725  12.56   2
        29      4.5866    959.4378 299.8649894 +22.6548147     708.7765     70.70791      4.670     4.94    -7.482133     20.41706     28.08302         5     1.139     0.606 -56.17  17
        30    389.1953   1004.5158 299.9698714 +22.7831936     559.1674     72.29369      1.880     5.57     4.887445     20.41706      41.7956         9     1.090     0.803  59.69   0
        31    565.7460    954.6041 300.0410501 +22.8218439     469.7601     72.34902      1.993     5.81     4.445398     20.41706     36.64587         7     1.404     0.676  68.02   0
        32     13.4105    993.0988 299.8567819 +22.6671112     1400.226     72.25677     13.806    14.98    -12.02159     20.41706     42.90115        36     4.066     1.534 -84.99  19
        33    685.3536    960.1796 300.0764836 +22.8593163     6790.213     72.42274      1.860     4.04     5.043935     20.41706     412.9745        45     1.479     1.408   5.79   0
        34    276.2063    954.3992 299.9510323 +22.7349122     444.2515     72.18289      1.637     6.41     18.17548     20.41706     42.32637        14     1.227     1.146  -2.37   0
        35     12.1323    952.8558 299.8694733 +22.6551942     703.5253     72.40431      4.603     5.27     -2.43887     20.41706     33.24597         8     1.337     0.587  65.10   0
        36    593.8202    950.9205 300.0509890 +22.8292075     1493.486     72.36746      1.688     4.36     4.656137     20.41706     104.8401        24     1.331     1.160  16.47   0
        37      4.3725    948.5042 299.8684786 +22.6516169     745.6407      70.0064      3.666     6.20     -4.23066     20.41706     43.59964         7     2.040     0.530 -43.40  16
        38    770.6956    947.6488 300.1071477 +22.8813093     357.8485     72.42274      2.170     6.90     4.778095     20.41706     33.38089         7     1.316     1.015 -23.35   0
        39    487.6402    947.2482 300.0191301 +22.7963038     1041.894     72.40431      1.680     4.07     4.343043     20.41706     82.50748        20     1.272     1.034  57.61   0
        40    418.3065    945.2442 299.9982070 +22.7749278     6515.896     72.38589      1.851     4.12     4.687701     20.41706     493.8918        47     1.455     1.444 -77.86   0
        41    451.1783    932.0979 300.0127105 +22.7810186     505.8651     72.29369      1.583     5.44     4.573649     20.41706     47.98344         9     1.302     0.681  60.01   0
        42     13.8441    979.3648 299.8613836 +22.6633055     1684.595     72.42274      9.054    29.94    -7.752064     20.41706     43.41822       109     6.384     3.897   0.15  19
        43    964.5122    924.1213 300.1752207 +22.9326507     2072.195     72.51477      1.934     5.16     4.811506     20.41706     118.2744        29     1.406     1.376 -23.96   0
        44      4.2595    995.6727 299.8531028 +22.6651007     2681.828     69.79649     13.794    27.40     -21.8364     20.41706     69.12041       158     5.904     3.532  59.32  27
        45    615.6409    921.2538 300.0674320 +22.8272381      303.846     72.33058      1.257     3.44     4.690686     20.41706     32.05175         5     0.751     0.455 -75.15   0
        46    463.1577    919.8407 300.0204244 +22.7810959     302.4965     72.45956      1.401     3.07     4.548216     20.41706     48.01181         5     0.938     0.329  46.12   0
        47    753.4423    912.3635 300.1132474 +22.8660066     736.6914     72.44115      2.022     5.89     5.005547     20.41706     42.05164        14     1.227     0.933 -13.05   2
        48      4.1001   1018.1823 299.8457314 +22.6715032     3222.161     69.14363      7.639    34.33    -30.07739     20.41706     69.33077       261     7.885     4.149  -0.09  27
        49    565.7089    908.1404 300.0561493 +22.8084995     465.7241     72.44115      1.655     3.97     4.543305     20.41706     52.52422         9     1.008     0.715  39.33   0
        50    788.2928    907.4443 300.1257069 +22.8750423      1018.28     72.36746      1.732     4.10     4.702956     20.41706     79.71838        19     1.253     1.005 -30.70   0
        51    810.5297    900.8843 300.1347704 +22.8798249     11393.18     72.47797      1.785     3.93     4.576589     20.41706     743.3739        52     1.461     1.392  28.31   0
        52   1002.6669    900.7161 300.1947330 +22.9373617     359.9558     72.47797      1.855     4.64      5.29516     20.41706     28.93116         6     1.216     0.502  59.80   0
        53    854.9027    900.3337 300.1487803 +22.8929678     369.9232     72.45956      1.857     4.58     4.486496     20.41706     34.35188         5     1.171     0.508 -56.47   0
        54    122.0742    892.0521 299.9233979 +22.6707721     985.0602     72.38589      5.379     5.48     11.39914     20.41706     65.16448        19     1.464     1.223  24.57   0
        55    862.3104    888.2469 300.1550200 +22.8917171     400.5066     72.34902      1.826     6.19     4.475723     20.41706     35.32739         8     1.458     0.739  -6.12   0
        56    520.3165   1006.6783 300.0099692 +22.8231568     531.8473     72.47797      1.971     4.60     3.836144     20.41706     33.03177         7     1.107     0.543  61.81   0
        57    818.9539    883.0500 300.1431953 +22.8772291     1463.756     72.38589      1.654     3.81     4.577912     20.41706      106.051        22     1.208     1.126 -16.61   0
        58    516.3137    889.2263 300.0469231 +22.7882566      522.563     72.34902      1.845     2.88     4.499279     20.41706     46.53108         6     0.737     0.603 -75.92   2
        59   1002.4022    882.7640 300.2004883 +22.9321254     394.4584     72.36746      1.614     6.08     5.277471     20.41706     41.52611        10     1.270     0.820  10.25   0
        60    671.1135    880.2764 300.0980334 +22.8321108     350.4624     72.49638      1.381     4.32     5.124025     20.41706     38.88667         8     1.178     0.609   4.62   0
        61    857.5001    876.7043 300.1572738 +22.8869606     833.8524     72.56994      2.009     5.41     4.488886     20.41706     51.97344        15     1.141     0.994   3.68   0
        62    905.5042    867.9105 300.1750991 +22.8988221     662.4747     72.55155      1.935     6.28     4.470521     20.41706     40.85469        15     1.297     1.019  52.86   0
        63    756.9166    866.6243 300.1292031 +22.8539160     801.5474     72.33058      1.698     5.10     4.998013     20.41706     58.21041        16     1.257     0.897 -34.11   0
        64     17.3428    865.3586 299.8995412 +22.6316792     148.4159     72.34902      1.001     3.50      5.43702     20.41706     41.67459         5     1.018     0.348 -70.29   0
        65    766.4382    863.8037 300.1330871 +22.8559605      1167.16     72.40431      1.678     6.45     4.926184     20.41706     617.9349        14     1.917     0.610  -7.79   0
        66    469.4575    862.9507 300.0408830 +22.7666624     4267.425     72.42274      1.680     3.49     4.524052     20.41706     403.9294        35     1.332     1.261  -5.02   0
        67    512.8256    851.4235 300.0581282 +22.7763621     427.5844     72.33058      1.708     5.89     4.509536     20.41706     42.40406         8     1.268     0.770  16.05   0
        68    247.6993    851.5217 299.9756206 +22.6968529     438.8454     72.49638      1.992     5.03     6.946652     20.41706     40.88496         8     1.209     0.723  24.48   0
        69    194.7998    848.6089 299.9601230 +22.6801428     778.5963     72.18289      1.845     3.59     7.872223     20.41706     77.76113        15     1.236     0.996  67.56   0
        70    171.8848    845.6169 299.9539734 +22.6724077     1475.196     72.33058      1.739     4.24     7.791314     20.41706     155.7385        25     1.334     1.224  14.40   0
        71    997.9711    833.3796 300.2151631 +22.9166105     2125.782     72.36746      1.846     4.37     5.086457     20.41706      138.289        30     1.378     1.282 -15.72   0
        72    702.6961    834.1729 300.1228607 +22.8283441     490.5085     72.29369      1.935     6.57     5.094895     20.41706      39.5099        10     1.530     0.790 -32.25   0
        73    474.4795    833.1207 300.0521436 +22.7596087     309.7946     72.49638      1.627     4.32     4.515131     20.41706     35.38944         5     0.828     0.688 -38.53   0
        74    781.4442    827.6700 300.1495109 +22.8500829      729.233     72.33058      1.718     3.22     4.801223     20.41706      67.1682        12     1.041     0.835  34.89   0
        75    203.8724    827.1219 299.9699278 +22.6767031     411.6064     72.47797      1.534     3.74     6.653955     20.41706     50.53936         8     1.164     0.800  13.56   0
        76    649.5831    821.2002 300.1105339 +22.8086961     4756.283     72.25677      1.567     3.27     4.935709     20.41706     416.8667        31     1.216     1.182 -49.56   0
        77    139.2746    821.8108 299.9515773 +22.6557939     400.5872     72.38589      1.620     6.09     6.087492     20.41706     46.17694        10     1.217     0.856 -34.77   0
        78    451.8810    818.5496 300.0498477 +22.7486492     585.5677     72.38589      1.660     3.56     4.552821     20.41706     61.16342         9     1.081     0.700  15.02   0
        79    199.8605    814.7924 299.9726883 +22.6719630       1375.3     72.34902      1.820     3.87     6.013507     20.41706     121.1111        23     1.251     1.191 -47.36   0
        80    670.0688    813.6625 300.1193648 +22.8126739     630.3339     72.42274      1.470     3.22     4.976846     20.41706     81.76481        14     0.985     0.938  24.49   0
        81    468.4247    812.7745 300.0568732 +22.7519539     253.7129     72.33058      1.716     3.43     4.526619     20.41706     29.34859         5     0.733     0.464 -72.56   0
        82    218.9892    811.9035 299.9795735 +22.6768745     553.3275     72.27524      1.905     5.34     5.829694     20.41706     44.55332         9     1.058     0.762  31.23   0
        83    825.5864    801.0088 300.1719352 +22.8556563     4316.014     72.27524      1.642     3.45     4.577329     20.41706     348.5455        33     1.271     1.217   8.21   0
        84    233.9378    795.0770 299.9896896 +22.6765335     463.6064     72.42274      1.561     5.80     5.230979     20.41706     46.30621        11     1.174     0.848   1.40   0
        85    542.7916    793.4086 300.0863150 +22.7686977     600.6624     72.21985      1.383     3.17     4.627616     20.41706     72.91171        10     0.909     0.807  39.27   0
        86    188.6033    791.4508 299.9767757 +22.6618903     994.6204     72.36746      1.830     5.02     5.254421     20.41706     90.61205        18     1.382     0.982 -26.27   0
        87    338.5974    783.3679 300.0260397 +22.7045739     53938.73     72.33058      1.647     3.31     4.749496     20.41706     5115.349       104     1.487     1.395  29.28   0
        88    604.1684    786.6423 300.1076238 +22.7851588     506.3766     72.40431      1.601     5.18     4.901406     20.41706      40.4824         9     1.045     0.726 -28.90   0
        89   1009.1732    781.7552 300.2354393 +22.9051339     829.2031     72.38589      1.805     5.66     4.977076     20.41706     70.62519        18     1.261     1.146  70.11   0
        90    596.5284    782.4426 300.1066099 +22.7816625      1590.19     72.34902      1.524     3.14     4.880209     20.41706     160.0918        19     1.062     1.052  -6.29   0
        91    266.7833    781.4300 300.0043368 +22.6824736     579.8721     72.34902      1.821     4.65     5.121367     20.41706     50.97952         8     0.972     0.632 -22.05   0
        92    625.3707    778.6321 300.1168298 +22.7892159     833.1776     72.36746      1.453     3.01     4.929444     20.41706     94.39015        14     0.975     0.914  67.42   0
        93     25.6585    777.9436 299.9305366 +22.6091141     886.8619     72.44115      1.858     3.55     5.282841     20.41706      75.4082        13     1.215     0.783  70.59   2
        94    636.2944    776.9703 300.1207719 +22.7920137     511.0641     72.27524      1.295     3.25      4.93303     20.41706     78.83783        11     0.953     0.811  45.17   0
        95    956.8996    774.5469 300.2214777 +22.8874025     271.9124     72.45956      1.505     4.53      4.80782     20.41706     31.42928         5     1.185     0.492   3.99   0
        96    741.6284    773.2037 300.1548085 +22.8225075     451.6117     72.33058      1.414     3.83      4.99644     20.41706     48.29641        10     1.036     0.686 -47.74   0
        97    779.2191    763.4688 300.1696859 +22.8309782     815.3433     72.36746      1.676     3.61     4.835063     20.41706     82.94345        13     1.171     0.744  34.13   0
        98    388.3387    760.6247 300.0489037 +22.7129682     31618.07     72.36746      1.598     3.05     4.650549     20.41706     3583.737        71     1.391     1.308  34.48   0
        99    402.6556    761.2430 300.0531569 +22.7174397     2068.253     72.34902      1.596     2.95     4.646235     20.41706     200.9777        24     1.200     1.023   8.94   0
       100    911.4498    756.6697 300.2131148 +22.8686493     2791.629     72.36746      1.630     3.42     4.794208     20.41706     263.8666        26     1.228     1.112  14.12   0
       101    399.6641    755.3168 300.0541520 +22.7148418     672.2339     72.47797      1.933     5.44     4.652786     20.41706     52.48456        11     1.099     0.759  27.72   0
       102    669.3931    752.5118 300.1390297 +22.7949133     913.5318     72.27524      1.516     3.38     4.942502     20.41706     111.8051        18     1.105     1.036  60.46   0
       103    270.7495    752.4739 300.0149800 +22.6753564     851.5536     72.38589      1.576     4.75     4.963892     20.41706     71.52776        15     1.207     0.874  -9.97   0
       104     76.2848    748.5356 299.9558192 +22.6158761     475.6037     72.45956      1.412     3.02     5.282841     20.41706     54.51639         7     0.913     0.511 -57.33   0
       105    516.3732    747.3605 300.0930567 +22.7475580     925.6038     72.40431      1.521     3.15     4.799297     20.41706     96.97131        15     1.003     0.953  49.00   0
       106    917.7099    744.4903 300.2190250 +22.8670257     530.7289     72.53316      1.481     3.95     4.871644     20.41706     61.83574        14     1.089     0.926  45.11   0
       107    462.5232    742.0696 300.0780159 +22.7298916     480.4425     72.47797      1.452     4.47     4.697771     20.41706     47.19306        14     1.130     0.894 -70.38   0
       108    374.3378    742.9604 300.0502884 +22.7036998     379.8818     72.36746      1.519     4.02     4.663457     20.41706     42.22285         6     0.841     0.631 -49.74   0
       109    104.5759    741.6268 299.9668539 +22.6223850      432.035     72.33058      1.239     3.66     5.278644     20.41706     51.07407         6     0.959     0.489 -56.10   0
       110    506.3687    752.7021 300.0882068 +22.7460914     423.7996     72.34902      1.411     4.05     4.743513     20.41706     51.67821        10     0.997     0.784 -13.28   0
       111    895.2054    739.2098 300.2137241 +22.8587660     440.1302     72.21985      1.639     5.82     4.877389     20.41706     38.15473        11     1.060     0.899 -68.66   0
       112    268.2385    736.8788 300.0192668 +22.6701288       503.97     72.34902      1.342     2.96     4.908139     20.41706     85.03278         9     0.867     0.791  70.94   0
       113    591.6854    727.2872 300.1230263 +22.7643756     597.0311     72.49638      1.876     3.75     4.987029     20.41706     57.20029         8     0.933     0.671  13.66   0
       114    561.5361    725.3710 300.1142617 +22.7547866     571.8786     72.38589      1.376     2.85     5.026673     20.41706     78.84457        10     0.866     0.798 -89.38   0
       115    977.9083    722.0102 300.2451041 +22.8786005     4440.462     72.31214      1.667     3.44     4.920325     20.41706     329.7292        38     1.386     1.289  47.19   0
       116    583.2742    722.8817 300.1218388 +22.7605890     1267.098     72.47797      1.406     3.03     5.015457     20.41706     151.7531        19     1.149     0.940  28.76   0
       117    503.2877    722.2596 300.0971401 +22.7364289     366.8468     72.44115      1.228     3.83      4.87894     20.41706     44.58604         6     0.768     0.548  48.14   0
       118    664.5259    718.0574 300.1487099 +22.7835606     320.0906     72.42274      1.310     4.01     4.991997     20.41706     37.83514         8     0.857     0.829  74.56   0
       119    966.2743    713.3182 300.2443000 +22.8726178     1719.094     72.47797      1.643     3.48     4.923359     20.41706     150.5565        23     1.239     1.114 -60.72   0
       120    329.4309    707.1030 300.0479710 +22.6799408      835.755     72.31214      1.477     3.41     4.796731     20.41706     95.19221        16     1.125     0.907  59.73   0
       121    792.6944    704.6158 300.1930104 +22.8181121     2613.622     72.29369      1.602     2.99     4.845058     20.41706     274.5718        27     1.286     1.084  -5.17   0
       122    997.5448    703.5348 300.2572326 +22.8791732     1702.791     72.42274      1.724     3.80     4.917528     20.41706     143.4269        25     1.276     1.199  24.20   0
       123     15.2130    695.0127 299.9542379 +22.5821986     777.5023     72.29369      1.604     2.81     5.248743     20.41706     118.2124        15     1.220     0.816 -22.57   0
       124   1011.4745    694.4350 300.2645346 +22.8807302     262.1059     72.33058      1.530     3.82      4.91316     20.41706     28.55702         6     0.994     0.421  72.63   0
       125    177.9600    691.1462 300.0060600 +22.6299245     704.8225     72.34902      1.882     6.95     5.364131     20.41706     45.40009        15     1.367     1.088  83.14   0
       126    875.4210    690.6717 300.2233278 +22.8388932     607.5232     72.36746      1.924     5.35     4.874314     20.41706     48.62024        10     1.226     0.658  25.83   0
       127    911.1500    681.5994 300.2374154 +22.8469903     149256.6     72.34902      1.583     3.16     4.920959     20.41706     14043.09       160     1.485     1.447  33.89   0
       128    673.8055    685.1808 300.1622824 +22.7769005     437.5016     72.33058      1.432     3.98     5.071125     20.41706     59.99215         7     0.926     0.741  -6.19   0
       129    763.4670    681.7508 300.1913312 +22.8027858     780.7422     72.36746      1.454     3.56     4.853653     20.41706     95.28885        14     1.075     0.934  12.18   0
       130    944.0209    674.7164 300.2499021 +22.8548591     451.5258     72.31214      1.656     4.18     4.940501     20.41706     50.06696         8     1.224     0.457  40.58   0
       131    597.2841    670.4019 300.1432519 +22.7497202     1561.428     72.29369      1.361     2.75     5.225987     20.41706      171.289        17     1.062     0.878 -12.41   0
       132    778.6353    667.6978 300.2006236 +22.8032941     9551.406     72.36746      1.495     2.77     4.849625     20.41706     1127.618        42     1.232     1.196  -1.99   0
       133    280.0703    662.6797 300.0470521 +22.6523878     4665.158     72.47797      1.469     2.87     5.243786     20.41706     630.6276        30     1.196     1.130  30.72   0
       134    362.1497    660.8514 300.0731737 +22.6764799     1165.682     72.40431      1.443     2.84     4.885574     20.41706     146.2775        16     1.032     0.940  11.47   0
       135    237.9061    658.2947 300.0353664 +22.6384823     553.9036     72.53316      1.700     4.42     5.297148     20.41706     53.48291        11     1.015     0.958  83.54   0
       136    570.4716    656.1554 300.1395313 +22.7375920     714.3823     72.33058      1.320     3.23     5.450949     20.41706     85.28053        13     0.975     0.901 -24.04   0
       137    562.0817    648.4371 300.1394263 +22.7328607     3247.479     72.33058      1.381     2.55     5.520463     20.41706     379.2942        24     1.106     1.018  16.94   0
       138    552.4133    642.3035 300.1384086 +22.7282013      1487.08     72.27524      1.337     2.47     5.569716     20.41706     180.7747        18     1.024     0.944  68.12   0
       139    480.7513    641.7437 300.1162834 +22.7065573     325.5236     72.40431      1.131     3.45     5.207391     20.41706     40.19434         5     0.971     0.353 -44.52   0
       140    945.8106    640.0382 300.2617261 +22.8454293     516.0544     72.36746      1.729     5.19     5.023114     20.41706     53.40798         8     0.987     0.920  63.67   0
       141    462.2674    638.9848 300.1114270 +22.7002235     571.1005     72.34902      0.496     0.44     5.226081     20.41706     359.2393         5     0.563     0.386 -22.50   0
       142    215.6484    638.5770 300.0348514 +22.6261481     701.2063     72.36746      1.438     3.30     5.382021     20.41706     74.01793        11     1.055     0.755  -7.81   0
       143    229.7518    636.6918 300.0398482 +22.6298376     653.0278     72.40431      1.551     3.62     5.360434     20.41706     63.27318        13     1.033     0.842  38.89   0
       144    115.5735    636.4700 300.0044323 +22.5955220     372.0836     72.36746      1.978     4.52      5.53658     20.41706     36.32796         5     1.250     0.465  -9.02   0
       145    286.8360    634.1017 300.0584385 +22.6462159     444.4895     72.36746      1.942     4.10     5.343866     20.41706     38.40512         8     0.929     0.810 -24.72   0
       146    999.5959    633.6802 300.2805671 +22.8597108     570.1131     72.27524      1.692     3.58     5.161987     20.41706     51.61531         6     1.065     0.443  -8.63   0
       147    476.9849    632.0274 300.1182671 +22.7026385     1674.715     72.38589      1.370     2.72     5.289214     20.41706     224.4975        20     1.108     0.943  -3.44   0
       148    255.8085    633.2969 300.0490520 +22.6366789     433.3745     72.25677      1.258     2.73     5.360407     20.41706      78.8475         7     0.877     0.537  55.18   0
       149    576.3225    632.3762 300.1490772 +22.7325174     436.7233     72.36746      1.380     2.91     5.595961     20.41706     52.54541         8     0.872     0.629  -3.89   0
       150    510.7759    631.3921 300.1289910 +22.7125864     306.8573     72.36746      1.425     3.46     5.448387     20.41706      32.6257         5     0.747     0.464 -14.95   0
       151    131.0340    626.7708 300.0123867 +22.5973778      19965.7     72.38589      1.614     3.21     5.553362     20.41706     2348.544        58     1.397     1.324  40.39   0
       152     51.3682    628.7147 299.9870031 +22.5740334     695.3695     72.36746      2.047     6.98      5.49163     20.41706     74.85033        14     1.819     0.795 -27.77   0
       153    562.0939    627.1769 300.1463358 +22.7267594     978.8987     72.27524      1.339     3.22     5.630421     20.41706     106.3509        16     1.065     0.949 -25.05   0
       154    597.1437    626.4006 300.1575013 +22.7370422     301.8295     72.29369      1.381     2.78     5.639997     20.41706     40.81618         6     0.786     0.726  15.41   0
       155    932.9947    623.3774 300.2631413 +22.8368024     285.6478     72.34902      1.643     5.85     5.025885     20.41706     29.42239         6     1.364     0.705   7.27   0
       156    980.2089    613.7071 300.2810076 +22.8481638     1076.877     72.29369      1.630     3.35     5.214311     20.41706      105.814        17     1.100     0.985  -0.98   0
       157     77.0836    611.2455 300.0006653 +22.5767379     1411.004     72.34902      1.969     4.96     5.571279     20.41706     92.58556        28     1.554     1.226 -80.46   0
       158    846.8414    611.7933 300.2400421 +22.8076670     563.1663     72.40431      1.431     3.42     4.854698     20.41706     56.60947         8     0.858     0.708 -51.54   0
       159    525.5291    607.9544 300.1411958 +22.7102791     459.4768     72.34902      1.245     2.61      5.62754     20.41706     81.91269        10     0.972     0.629  28.70   0
       160    920.0213    606.4897 300.2645809 +22.8280632     1052.295     72.29369      2.281     5.89     5.017589     20.41706      77.8882        18     1.749     0.936  13.40   2
       161    317.7652    606.9583 300.0768728 +22.6477013     339.8412     72.42274      1.441     5.16     5.435892     20.41706     33.22001         9     1.003     0.750  -2.77   0
       162    482.3872    600.2569 300.1302671 +22.6951362     735.3959     72.34902      1.346     2.71     5.498131     20.41706     90.95568        12     0.896     0.848 -59.36   0
       163    630.3081    598.9008 300.1767608 +22.7390838     383.2539     72.55155      1.210     2.74     5.768221     20.41706     65.48878         9     0.860     0.682  11.43   0
       164    677.4417    597.2379 300.1919817 +22.7527309     522.0209     72.45956      1.586     3.98      5.60435     20.41706     56.31054         8     0.983     0.659  30.16   0
       165    647.8765    596.8684 300.1828926 +22.7437650     559.7214     72.45956      1.280     2.89     5.719622     20.41706     76.67365        12     0.959     0.818 -67.79   0
       166    526.3456    595.8168 300.1453919 +22.7070385     897.2956     72.34902      1.418     3.34     5.632447     20.41706     93.31608        15     1.132     0.816  33.04   0
       167    713.2446    595.4359 300.2037205 +22.7629415     317.5071     72.42274      1.170     3.52     5.183244     20.41706     32.15648         5     0.781     0.459  17.37   0
       168    960.2336    591.6099 300.2819543 +22.8358300     3409.555     72.33058      1.549     2.89     5.209472     20.41706     382.4861        30     1.225     1.141 -23.76   0
       169    491.8890    591.4333 300.1360900 +22.6954511     1715.646     72.33058      1.377     2.72     5.538552     20.41706      212.374        21     1.046     1.008 -67.80   0
       170    857.3425    588.8304 300.2507738 +22.8042139     334.7717     72.38589      1.472     3.79     4.854599     20.41706     47.45524         6     0.937     0.628  14.55   0
       171    467.2748    587.1409 300.1298232 +22.6868398     238.0086     72.42274      1.240     4.11     5.495176     20.41706     33.98843         6     0.763     0.631 -16.28   0
       172     53.7879    584.8713 300.0019927 +22.5621827     5081.045     72.38589      1.676     3.60     5.564349     20.41706     535.0661        34     1.366     1.231  27.34   0
       173    999.8098    581.2930 300.2976493 +22.8447162      435.734     72.31214      1.538     5.71     5.367025     20.41706     37.89662        11     1.096     0.839  -8.13   0
       174    521.1859    582.1512 300.1482236 +22.7015676     267.6169     72.38589      1.241     3.12     5.625032     20.41706     41.62762         6     0.759     0.552  40.48   0
       175    355.3249    578.1540 300.0979094 +22.6506959     9215.393     72.36746      1.411     2.64     5.435499     20.41706     1122.691        38     1.197     1.131  68.58   0
       176    477.7467    575.2308 300.1369499 +22.6865592     9100.648     72.38589      1.353     2.71      5.52467     20.41706     1075.968        35     1.136     1.078  54.96   0
       177    723.9458    572.0928 300.2146353 +22.7594417     405.1693     72.42274      1.442     2.85     5.108418     20.41706     52.94275         6     0.891     0.540  15.91   0
       178    243.0517    572.2969 300.0648956 +22.6153470     285.1533     72.44115      1.340     4.50     5.436873     20.41706     29.62202         6     0.899     0.639  36.98   0
       179    889.4736    569.3193 300.2671276 +22.8082308     1943.961     72.47797      1.552     2.82     4.982637     20.41706     201.1107        25     1.146     1.120  41.87   0
       180    974.1357    566.7393 300.2943673 +22.8328443     12539.05     72.40431      1.547     3.01     5.322317     20.41706     1309.703        54     1.344     1.276  54.06   0
       181    538.3723    564.8201 300.1592017 +22.7017419     11626.31     72.36746      1.356     2.46     5.672269     20.41706     1560.718        41     1.167     1.098  40.99   0
       182    707.7536    560.7084 300.2132873 +22.7513195     556.2891     72.36746      1.564     3.44      5.30337     20.41706     64.05223        11     0.930     0.835  35.62   0
       183    265.8529    560.2927 300.0758829 +22.6187397     1325.633     72.42274      1.481     2.67     5.439086     20.41706     154.0518        18     1.095     0.890  22.54   0
       184    423.9543    559.4251 300.1253423 +22.6658951     382.0271     72.38589      1.576     2.03     5.432011     20.41706     54.34604         6     0.752     0.494   0.32   0
       185    512.4719    558.1175 300.1533154 +22.6920539     304.5248     72.49638      1.127     1.99     5.618425     20.41706     64.24455         5     0.682     0.463  68.06   0
       186    470.0323    552.9910 300.1417706 +22.6778606     4410.375     72.36746      1.380     2.76     5.534839     20.41706     534.6108        28     1.135     1.029  40.42   0
       187    812.7880    553.1531 300.2484712 +22.7806152     858.8228     72.36746      1.351     3.30     4.854599     20.41706     92.60532        11     0.940     0.756  -1.90   0
       188    448.3369    551.4551 300.1355175 +22.6709161      1352.67     72.42274      1.371     2.52      5.48562     20.41706      156.207        15     0.999     0.848  54.56   0
       189    202.6146    550.7127 300.0593326 +22.5970250     704.5199     72.31214      1.442     2.96     5.450557     20.41706      113.668        13     1.000     0.877 -46.41   0
       190    889.8326    548.5682 300.2739781 +22.8023742     1618.967     72.42274      1.531     3.00     5.020019     20.41706     167.0608        23     1.151     1.099 -35.55   0
       191    586.6469    540.5392 300.1821160 +22.7092360     202688.6     72.40431      1.352     2.37     5.772573     20.41706     29402.45       202     1.446     1.367  11.70   0
       192    135.7533    548.2032 300.0393660 +22.5762510     228.4696     72.34902      1.460     4.94     5.505176     20.41706     47.28329         7     1.047     0.660  -4.32   0
       193    770.4128    545.5831 300.2377226 +22.7657460     794.7991     72.31214      1.377     2.85     4.944034     20.41706     107.3576        18     1.113     0.940  84.70   0
       194    410.3684    546.6555 300.1252613 +22.6581558     382.5561     72.38589      1.408     3.51     5.413957     20.41706     43.64548         6     0.882     0.474  -2.79   0
       195    863.6354    544.3062 300.2671943 +22.7933031     293.0949     72.33058      1.317     3.70     4.855828     20.41706     38.27322         5     0.973     0.403 -14.58   0
       196    974.3764    542.0173 300.3024703 +22.8258096     369.3115     72.36746      1.820     4.61     5.378087     20.41706     25.62425         5     1.050     0.574 -16.62   0
       197    272.6916    540.3779 300.0844754 +22.6150743     3570.625     72.29369      1.476     2.83     5.435217     20.41706     400.5969        27     1.188     1.062  58.49   0
       198    838.4283    536.8857 300.2617457 +22.7836205      538.408     72.36746      1.326     2.66     4.864431     20.41706     73.77138         9     0.885     0.635  18.82   0
       199    857.1486    535.0037 300.2681926 +22.7886866     376.9868     72.36746      1.763     3.71     4.866889     20.41706     39.54126         7     0.868     0.649  23.25   0
       200    618.3627    527.1194 300.1963496 +22.7148854     251.2496     72.33058      1.298     3.13     5.771016     20.41706     36.45679         5     0.744     0.440  71.09   0
       201    477.0210    525.2484 300.1529532 +22.6719888     377.9111     72.38589      1.458     3.51     5.508031     20.41706     37.93386         5     0.772     0.461  14.18   3
       202    477.3249    520.8150 300.1544871 +22.6708067     2630.359     72.36746      1.379     2.38     5.497469     20.41706     360.3435        23     1.166     0.973  73.81   2
       203    321.7549    523.1567 300.1053246 +22.6248423     366.2786     72.40431      1.403     3.12     5.419425     20.41706     56.58783         8     0.893     0.707   9.19   0
       204    927.1984    521.7190 300.2943474 +22.8058470     193.2935     72.27524      1.012     6.03     5.264134     20.41706     36.67245         8     1.239     0.826 -27.56   0
       205    888.9761    517.4610 300.2838113 +22.7931766     433.4839     72.36746      1.388     4.69     5.032824     20.41706     47.53022         8     1.011     0.616  39.38   0
       206    794.6235    509.8520 300.2568691 +22.7627305     316.9418     72.38589      1.180     3.82      4.90634     20.41706     46.07648         9     0.942     0.657 -20.15   0
       207    874.3745    507.1585 300.2826036 +22.7858424     1757.291     72.42274      1.379     2.71       4.9524     20.41706      192.246        20     1.053     0.962  22.74   0
       208    760.6429    507.0804 300.2471791 +22.7517554     474.4924     72.34902      1.666     4.57     4.954412     20.41706     39.85263         8     1.023     0.642 -27.26   0
       209      4.3630    505.6110 300.0123729 +22.5246163     792.6697      70.0064      1.709     3.75     5.714557     20.41706     81.89719        14     1.156     0.986 -75.57  16
       210    745.5350    504.8014 300.2432112 +22.7465748     2645.763     72.36746      1.398     2.50     4.972151     20.41706     327.0677        21     1.033     0.994  41.54   0
       211    989.6832    502.2386 300.3201603 +22.8189567     500.1429     72.33058      1.485     3.35     5.407179     20.41706     49.31925         9     0.870     0.741 -10.85   3
       212    988.6355    498.1626 300.3211568 +22.8174711     818.7108     72.44115      1.639     3.17     5.404583     20.41706     76.63073        13     0.953     0.912   1.04   3
       213    955.0041    502.0611 300.3094012 +22.8085221     299.2086     72.34902      1.325     3.71     5.323157     20.41706     38.06848         5     1.006     0.393  29.77   0
       214    650.4047    501.2550 300.2147261 +22.7170559     423.9948     72.36746      1.289     3.35     5.698642     20.41706     56.70865         8     0.880     0.657 -38.61   0
       215    532.8228    500.5938 300.1783267 +22.6816323     822.0533     72.34902      1.423     2.68     5.643047     20.41706     93.85017        12     0.955     0.771 -54.82   0
       216   1002.8063    498.8828 300.3253434 +22.8219209     1347.902     72.29369      1.585     3.25     5.438755     20.41706     127.6257        18     1.112     1.040 -18.99   0
       217    874.6301    497.2639 300.2858956 +22.7830748     2193.982     72.38589      1.609     3.02     4.967221     20.41706     254.1594        25     1.345     1.041  73.66   0
       218    628.0145    495.2556 300.2097001 +22.7086237     662.4937     72.34902      1.401     2.64     5.704586     20.41706     78.71673         8     0.811     0.616 -28.52   0
       219    912.7262    492.3059 300.2993836 +22.7930580     4322.812     72.51477      1.401     2.53     5.169604     20.41706     542.9462        31     1.148     1.126  83.12   0
       220    465.9849    494.1372 300.1596183 +22.6597463     313.0292     72.33058      1.321     2.91     5.420572     20.41706     56.07896         6     0.779     0.507 -27.16   0
       221    553.8382    491.8801 300.1876981 +22.6854273     220.4506     72.33058      1.263     3.92     5.690786     20.41706     28.49154         6     0.770     0.573  46.49   0
       222    627.2736    491.1672 300.2107966 +22.7072272       363.86     72.36746      1.448     3.77     5.698642     20.41706     40.70527         5     0.886     0.460  42.02   0
       223    650.3276    488.9782 300.2186874 +22.7135056     326.4712     72.40431      1.374     3.27     5.688993     20.41706     53.90985         6     0.968     0.424  76.65   0
       224    573.3862    488.2200 300.1949725 +22.6902337     467.2903     72.33058      1.432     1.76     5.692532     20.41706     58.96101         5     0.659     0.455  68.78   0
       225   1004.4401    482.9417 300.3310282 +22.8178266     578.7715     72.36746      1.397     3.56      5.44335     20.41706     74.26072        13     1.041     0.839  23.87   0
       226    144.5785    482.3718 300.0634793 +22.5600062     1142.887     72.36746      1.763     3.07     5.010369     20.41706     120.5883        17     1.118     1.043 -54.48   0
       227    969.5333    480.8341 300.3208240 +22.8067696     199.5678     72.36746      1.230     3.69     5.353245     20.41706     32.71183         5     1.073     0.364  -4.37   0
       228    943.7377    479.8444 300.3130999 +22.7987615      202.668     72.38589      1.425     4.84     5.278635     20.41706     33.57249         7     1.200     0.553  64.38   0
       229   1001.3281    472.1187 300.3335709 +22.8137829     328.2751     72.49638      1.663     3.90     5.325923     20.41706     35.20005         6     0.754     0.631 -29.12   0
       230    137.3768    472.3477 300.0644948 +22.5549695     349.4397     72.38589      1.444     4.93     5.034191     20.41706     44.38374         7     1.011     0.680   5.99   0
       231    745.1464    467.0586 300.2553423 +22.7356122      484.346     72.42274      1.330     2.48     4.941967     20.41706     64.05733         6     0.721     0.564  44.82   0
       232    633.8015    464.4609 300.2214986 +22.7015102     293.3664     72.33058      1.193     4.15     5.545459     20.41706     42.40752         6     0.997     0.494  -4.61   0
       233    686.2192    462.5317 300.2384522 +22.7166595     851.9201     72.36746      1.408     2.55      5.41277     20.41706      133.429        13     1.023     0.869  86.03   0
       234     47.3867    456.7213 300.0416052 +22.5234949      347.112     72.36746      1.288     3.47     5.396942     20.41706     29.70812         5     0.773     0.451 -73.02   0
       235   1000.9490    455.4402 300.3388665 +22.8088736     573.6171     72.38589      1.343     2.73      5.11867     20.41706     74.92287        10     0.890     0.762 -20.58   0
       236    746.9170    454.8810 300.2598467 +22.7326429     855.3796     72.51477      1.364     2.76     4.938011     20.41706     117.0497        13     0.932     0.874 -58.63   0
       237    904.1541    451.1494 300.3100705 +22.7786594     1030.518     72.38589      1.357     3.04     5.054446     20.41706       104.81        13     1.021     0.792  19.74   0
       238    888.2269    447.5370 300.3062768 +22.7728518     662.9691     72.36746      1.334     2.17     5.000698     20.41706     110.4693        11     0.976     0.752  63.46   0
       239    869.0135    448.2935 300.3000409 +22.7673160     360.6823     72.29369      1.134     3.11     4.944985     20.41706     41.54913         7     0.736     0.662   9.05   0
       240    632.7629    445.4865 300.2273338 +22.6957473     3233.634     72.34902      1.270     2.32     5.392467     20.41706      473.212        24     1.051     0.953  49.96   0
       241     93.3184    447.2533 300.0589482 +22.5345541     278.7267     72.40431      1.335     4.38     5.033101     20.41706     40.06601         5     0.748     0.729   4.89   0
       242    779.2527    445.5793 300.2729425 +22.7396546     324.3051     72.36746      1.233     4.67      4.93195     20.41706     38.86734         6     1.128     0.549  26.67   0
       243    993.3363    444.4054 300.3400735 +22.8034215     598.6347     72.34902      1.719     3.48     4.998054     20.41706     64.16886         9     1.016     0.689   0.95   0
       244    109.3689    436.9810 300.0672692 +22.5364197     337.8255     72.36746      1.368     3.94     5.048853     20.41706     43.26986         6     1.072     0.818  27.37   0
       245    638.3062    432.8155 300.2331727 +22.6937672     307.8134     72.29369      1.218     3.95     5.294182     20.41706     44.02861         5     0.981     0.456  85.69   0
       246    472.6985    432.7100 300.1816456 +22.6441158     395.3336     72.53316      1.319     2.81     5.230982     20.41706     57.34201         8     0.917     0.560 -16.35   0
       247   1002.7599    423.3532 300.3498459 +22.8001887     907.1494     72.42274      1.402     3.48     4.720242     20.41706     127.6547        17     1.167     0.919   3.99   0
       248    915.9932    424.3356 300.3224651 +22.7744952     407.7382     72.33058      1.260     2.22     5.011317     20.41706     80.94256         8     0.792     0.614  47.87   0
       249    539.2542    419.9558 300.2065021 +22.6603959     493.6164     72.38589      1.464     4.70     5.634102     20.41706     62.82121        11     1.280     0.667 -61.65   0
       250    743.4099    419.3810 300.2702756 +22.7213897      1091.39     72.33058      1.323     2.58     4.927263     20.41706     150.8256        15     0.978     0.884  51.11   0
       251    247.3651    417.5308 300.1164747 +22.5722148     736.9631     72.36746      1.500     3.18     5.730351     20.41706     76.88386        14     1.019     0.928  78.26   0
       252    309.7079    413.2142 300.1372622 +22.5896648     3696.454     72.29369      1.353     2.53     5.596979     20.41706     444.2943        26     1.128     1.033  60.83   0
       253    256.8409    407.9860 300.1225183 +22.5723152     7613.729     72.38589      1.423     2.88      5.74288     20.41706     914.3408        37     1.192     1.143  57.44   0
       254    761.4779    408.2848 300.2795069 +22.7236118     155.9235     72.47797      0.938     2.95     4.928872     20.41706     42.62611         5     0.721     0.442  65.88   0
       255   1022.6625    402.9571 300.3626742 +22.8002808     1667.978     61.74464      1.419     3.31     4.548558     20.41706     168.3154        20     1.155     1.001 -86.70  24
       256    397.6723    402.2877 300.1681712 +22.6128931     4762.368     72.51477      1.307     2.43     5.428231     20.41706      635.209        29     1.108     1.048  43.22   0
       257    641.8961    399.0628 300.2452443 +22.6851438     18578.41     72.45956      1.319     2.47     5.174325     20.41706     2583.099        51     1.190     1.107  66.30   0
       258    658.9952    400.1851 300.2502060 +22.6905884     965.6628     72.23831      2.107     4.27     5.164598     20.41706      71.7532         9     0.955     0.873  35.65   2
       259    489.2645    400.5286 300.1972451 +22.6398360     273.7156     72.40431      1.344     3.61     5.369133     20.41706     42.94511         5     0.769     0.725 -48.67   0
       260    268.7803    397.3781 300.1296730 +22.5728488     247.0494     72.36746      1.213     3.36     5.751734     20.41706     41.94467         5     0.769     0.424 -21.48   0
       261    838.8583    389.5482 300.3097049 +22.7413981     399.8484     72.42274      1.366     2.69     4.949685     20.41706      68.7842         8     0.873     0.620 -59.40   0
       262    261.6259    386.2064 300.1310731 +22.5674963     454.5439     72.36746      1.476     2.75     5.751502     20.41706     57.25513         7     0.842     0.591 -18.71   0
       263    975.4852    381.7545 300.3548376 +22.7800613     837.0175     72.34902      1.503     3.15     4.781661     20.41706     98.41506        15     1.061     0.920 -61.64   0
       264    512.2542    380.8741 300.2107786 +22.6410782     390.0312     72.38589      1.288     2.52     5.643775     20.41706      52.0007         6     0.711     0.579 -42.76   0
       265    196.5542    379.1541 300.1131301 +22.5459635     2015.683     72.40431      1.446     2.43     5.602643     20.41706     289.3621        22     1.103     1.005  56.10   0
       266    582.5571    368.4528 300.2366968 +22.6585721     6603.035     72.38589      1.286     2.24     5.453785     20.41706     952.5928        35     1.179     1.029  76.97   0
       267    996.0889    368.9930 300.3654055 +22.7825586     1249.935     72.27524      1.498     3.17     4.679678     20.41706     125.4838        16     1.174     0.824  46.48   0
       268    297.2612    367.7654 300.1481379 +22.5728831     606.2214     72.38589      1.318     2.78     5.758714     20.41706       109.27        12     1.090     0.777  63.59   0
       269    155.0185    361.0041 300.1061079 +22.5282997     543.6163     72.31214      1.396     3.39     5.467412     20.41706     61.39998         8     0.906     0.673   0.79   0
       270    842.1507    360.4492 300.3201732 +22.7340179     405.4961     72.40431      1.613     4.29     4.973958     20.41706     44.00027         7     1.033     0.566 -26.59   0
       271      2.4777    358.7353 300.0594493 +22.4819065     1309.239     62.51756      1.484     2.76     5.449707     20.41706     170.1189        17     1.053     0.957 -50.20  24
       272    696.4152    358.6481 300.2753406 +22.6898590       431.21     72.40431      1.141     3.70     5.092393     20.41706     72.07555         6     0.988     0.436  54.62   0
       273    786.7585    357.6017 300.3038312 +22.7166134     1304.838     72.36746      1.452     2.48     4.935736     20.41706     165.5511        15     1.006     0.915 -60.22   0
       274    489.2185    354.7084 300.2120976 +22.6266590     6170.552     72.29369      1.305     2.30     5.802907     20.41706     866.8526        32     1.119     1.045  37.27   0
       275    752.8101    353.7774 300.2944923 +22.7053481     1198.049     72.36746      0.600     0.79     4.944124     20.41706     762.8381         5     0.460     0.403  27.69   0
       276    881.1718    349.2704 300.3359655 +22.7424864     1512.362     72.36746      1.462     2.82     5.026144     20.41706     168.1159        19     1.150     0.994  70.80   0
       277    978.4172    349.6604 300.3661657 +22.7717090     679.1135     72.29369      1.455     2.39     4.760399     20.41706     80.63707        11     0.863     0.766  45.69   0
       278    745.5816    346.9723 300.2944476 +22.7012272     1237.587     72.38589      0.599     2.15     4.985571     20.41706     533.5199         5     0.561     0.252  -2.65   0
       279    473.9616    343.0997 300.2111150 +22.6187526     584.4005     72.38589      1.593     3.44     5.816088     20.41706     64.22154         9     0.928     0.721  77.65   0
       280    555.8482    341.1259 300.2372463 +22.6427185     395.2359     72.36746      1.207     4.93     5.725737     20.41706     60.25602         9     1.116     0.617  46.83   0
       281      1.4137    340.2134 300.0651272 +22.4762718     609.0101      56.7462      1.054     2.59     5.606669     20.41706     115.5664         8     0.972     0.466 -79.14  24
       282    835.3002    340.4507 300.3245260 +22.7262169     197.2081     72.45956      1.034     3.68     5.051923     20.41706     43.85229         5     0.923     0.492   5.26   0
       283    853.9014    336.9933 300.3314464 +22.7307919     585.4529     72.25677      1.281     2.70     5.086491     20.41706     79.22014         9     0.805     0.704  25.45   0
       284    358.2032    336.6393 300.1771912 +22.5822091     171.5797     72.38589      1.224     3.37     5.761537     20.41706     33.19455         5     0.757     0.435 -19.21   0
       285    376.6949    333.9348 300.1838212 +22.5869740     2605.589     72.49638      1.347     2.58     5.769503     20.41706     355.7246        21     1.123     0.903  49.40   0
       286    136.3285    335.1168 300.1086971 +22.5152643     207.7628     72.49638      1.928     4.83     5.477285     20.41706     33.46806         5     1.223     0.541 -40.84   0
       287     95.1634    331.2366 300.0971635 +22.5018079     1078.284     72.44115      1.627     3.12     5.462615     20.41706      89.6083        17     1.050     0.987 -86.91   0
       288    724.6034    328.3830 300.2939417 +22.6896014     275.3891     72.29369      1.171     3.70     5.136012     20.41706     61.81629         5     0.920     0.428 -44.87   0
       289    346.0997    323.3355 300.1777417 +22.5747607     29615.36     72.45956      1.348     2.47     5.768837     20.41706     3740.707        63     1.299     1.144  59.04   0
       290    324.2236    327.6136 300.1695494 +22.5694333      278.908     72.36746      1.615     3.49     5.773453     20.41706     26.75807         5     0.772     0.456 -15.91   0
       291    880.7227    320.9492 300.3450136 +22.7342081     1418.975     72.36746      1.329     2.68     5.173798     20.41706     182.7157        18     1.033     0.948  -6.33   0
       292    836.3761    318.9219 300.3318456 +22.7203489     231.9408     72.36746      1.089     2.19     5.182528     20.41706     50.55079         7     0.685     0.659 -79.16   0
       293     42.3816    311.0976 300.0872970 +22.4802004     4957.489     72.29369      1.591     3.00     5.778495     20.41706     560.8273        39     1.372     1.244  61.59   0
       294    796.1411    309.9176 300.3222250 +22.7057137     545.5569     72.44115      1.260     2.21     5.225617     20.41706     87.24409         8     0.759     0.647  42.17   0
       295    220.0789    309.5544 300.1430216 +22.5330320     479.7199     72.36746      1.484     3.73     5.564886     20.41706     58.30351         9     0.988     0.724  15.83   0
       296    444.8669    308.5694 300.2132614 +22.6001149     511.9156     72.36746      1.144     1.94     5.799769     20.41706     80.75151         6     0.717     0.490   7.48   0
       297    756.5244    303.1639 300.3120692 +22.6919100     1974.028     72.33058      1.316     2.40     5.275003     20.41706     229.4994        23     1.143     0.963  79.54   0
       298    564.5955    297.5200 300.2541149 +22.6328082     373.9659     72.27524      1.258     4.42     5.648015     20.41706     41.03817         7     0.886     0.658  69.53   0
       299    971.7894    296.3287 300.3813997 +22.7543859     518.4363     72.36746      1.222     2.98     4.713165     20.41706     66.96663         9     0.832     0.733 -67.29   0
       300    418.3738    287.7058 300.2117842 +22.5861830     2140.287     72.31214      1.529     3.18     5.785554     20.41706     253.9213        23     1.287     0.969  60.44   0
       301    630.3602    286.5418 300.2781555 +22.6493506      483.024     72.36746      1.452     2.64     5.364434     20.41706     70.60501         5     0.722     0.423  26.81   0
       302    857.4324    280.7386 300.3507955 +22.7156727     698.8305     72.40431      1.379     2.75      5.37068     20.41706     103.7194        12     0.962     0.809 -11.53   0
       303    756.9146    278.6459 300.3201434 +22.6849778     406.1037     72.34902      1.695     2.49     5.383731     20.41706      42.8237         5     0.734     0.427  21.11   0
       304    739.7590    278.4087 300.3148744 +22.6797730     268.7943     72.36746      1.017     1.85     5.388592     20.41706     63.19133         5     0.637     0.482 -13.60   0
       305    208.6879    268.5732 300.1527715 +22.5178493     343.9837     72.34902      2.074     3.78     5.558722     20.41706     33.49869         5     1.322     0.310 -45.52   0
       306    494.2505    267.0386 300.2421014 +22.6029769     1185.293     72.38589      1.321     2.67     5.819187     20.41706     155.5036        16     0.950     0.913 -83.38   0
       307     67.0371    267.6811 300.1090374 +22.4751298     306.4271     72.33058      1.292     3.86     5.841007     20.41706     43.19831         6     1.034     0.500 -52.10   0
       308    579.5683    265.0156 300.2693194 +22.6279513     318.7527     72.34902      1.046     3.41     5.671555     20.41706     48.93215         6     0.942     0.483  11.60   0
       309   1005.5187    263.4701 300.4025790 +22.7550281     331.5134     72.47797      1.142     3.93     4.563386     20.41706     52.29943         6     0.977     0.493 -35.93   0
       310    234.4349    262.2357 300.1628315 +22.5237462     279.4558     72.44115      1.167     3.46     5.614171     20.41706     35.44645         5     0.743     0.466  73.09   0
       311    739.0758    259.0197 300.3209498 +22.6739939     2181.469     72.36746      1.301     2.28     5.424976     20.41706     342.8325        21     1.070     0.912  83.99   0
       312   1000.4113    253.4334 300.4042408 +22.7506124     3294.402     72.34902      1.516     2.75     4.732013     20.41706       417.96        28     1.209     1.126 -36.46   0
       313    447.1909    243.0245 300.2352421 +22.5819789     620.3682     72.36746      1.242     2.41     5.814815     20.41706     90.43307        10     0.857     0.672  -1.64   0
       314    153.1796    237.3102 300.1456547 +22.4922335      509.237     72.31214      1.349     3.33     5.693911     20.41706     77.28608        10     1.070     0.730   3.25   0
       315    122.0922    236.9208 300.1361193 +22.4828031     1479.311     72.49638      1.804     3.92     5.812932     20.41706     131.9912        26     1.374     1.211 -34.56   0
       316   1015.9498    234.1504 300.4153419 +22.7497145     582.9321     72.40431      1.306     2.09     4.844523     20.41706     95.63164         8     0.777     0.631  45.76   0
       317    859.8512    230.8695 300.3677228 +22.7020549     305.9385     72.36746      1.327     3.88     5.387044     20.41706     47.17092         6     0.919     0.470  33.79   0
       318    206.2072    229.1213 300.1647934 +22.5057758     571.1383     72.29369      1.462     2.78     5.689313     20.41706     63.57404         8     0.809     0.657 -33.49   0
       319   1000.7335    226.4113 300.4131045 +22.7429348     321.6746     72.34902      1.384     3.53     5.024102     20.41706     46.75344         8     0.923     0.677   4.75   0
       320     61.3586    226.1170 300.1207508 +22.4614945     342.6241     72.33058      1.262     3.44     6.016969     20.41706     43.99578         5     0.971     0.352 -43.06   0
       321    810.7218    220.5389 300.3557573 +22.6843779     606.2375     72.44115      1.288     2.78     5.419298     20.41706     104.1063        13     1.017     0.785  72.64   0
       322    901.2939    213.6628 300.3862241 +22.7095096     357.2748     72.45956      1.187     2.57     5.394916     20.41706     44.50702         5     0.713     0.453 -14.25   0
       323    908.8903    209.5207 300.3899359 +22.7105916     2154.977     72.49638      1.424     2.41     5.398021     20.41706     325.8248        22     1.111     1.012  31.36   0
       324    327.3394    206.6824 300.2097367 +22.5356297     2027.529     72.45956      1.388     2.56     5.781143     20.41706     298.8948        26     1.148     1.073  61.70   0
       325    405.2340    201.8794 300.2355271 +22.5575870     1082.741     72.31214      1.491     2.68     5.803046     20.41706     117.2832        17     1.137     0.853 -28.07   0
       326    157.5139    202.6652 300.1582347 +22.4835837     380.5504     72.45956      1.693     3.92     5.817042     20.41706      42.8442         6     0.893     0.596  27.59   0
       327    807.1616    201.1951 300.3609198 +22.6777492     586.1182     72.38589      1.377     3.16      5.44325     20.41706     71.82932         8     0.974     0.582  80.89   0
       328    222.2865    193.7657 300.1812553 +22.5004400     735.5696     72.33058      1.493     3.64     5.709164     20.41706     82.26227        15     1.079     1.017 -60.47   0
       329    340.3244    193.6040 300.2180160 +22.5357629     265.1772     72.27524      1.065     3.42     5.736747     20.41706     45.74084         5     0.744     0.455 -17.60   0
       330    759.9613    191.0061 300.3495126 +22.6606899     1793.749     72.40431      1.286     2.19     5.618779     20.41706     270.7838        18     0.996     0.915  44.64   0
       331    824.7667    190.5429 300.3698613 +22.6799552     663.0299     72.38589      1.385     3.42     5.441288     20.41706     92.35086         8     0.990     0.635  76.77   0
       332    243.6170    187.1622 300.1900282 +22.5049354     567.8851     72.36746      1.372     2.75     5.714189     20.41706     77.36404         9     0.878     0.653 -32.41   0
       333    764.1401    182.5422 300.3535590 +22.6595069     878.1903     72.44115      1.599     3.30     5.636397     20.41706     76.68749        11     0.979     0.823  31.30   0
       334    684.4811    181.5938 300.3290458 +22.6353866     1155.145     72.29369      1.249     2.79      5.86512     20.41706     180.1047        17     1.087     0.870 -86.68   0
       335    533.2834    183.2626 300.2814171 +22.5905915     219.0833     72.45956      1.299     4.60     5.828142     20.41706     42.56102         7     1.126     0.532  18.45   0
       336    505.5102    178.0556 300.2744591 +22.5807770      421.274     72.40431      1.568     3.82     5.809354     20.41706     58.90979         9     1.021     0.847  43.55   0
       337    879.8737    173.1264 300.3926880 +22.6914387     1417.159     72.42274      1.367     2.79     5.426738     20.41706     182.6891        19     1.052     0.952 -69.89   0
       338    610.7790    173.3455 300.3087628 +22.6109476      1080.19     72.36746      1.370     2.42     5.826815     20.41706     137.2015        15     1.052     0.819  51.22   0
       339    892.2339    172.3695 300.3967874 +22.6949200     775.1077     72.38589      1.338     2.81     5.427515     20.41706     110.4988        13     0.949     0.870 -32.74   0
       340    938.3394    171.6868 300.4113865 +22.7085205     314.8582     72.45956      1.407     3.99     5.377837     20.41706     46.05932         7     1.093     0.416 -29.69   0
       341   1008.8282    162.4397 300.4363716 +22.7269508     1275.731     72.40431      1.665     2.60     4.983994     20.41706     156.2984        19     1.235     1.007 -60.25   0
       342     32.7572    158.8296 300.1336787 +22.4336008     427.7529     72.40431      1.390     4.75     6.050936     20.41706     52.67491         8     1.252     0.590  85.21   0
       343    243.0135    155.6199 300.2000656 +22.4956938     713.3058     72.33058      1.348     2.76     5.746022     20.41706     90.80346        13     1.015     0.797  27.54   0
       344    104.5253    150.1083 300.1588040 +22.4526084     2136.096     72.51477      1.624     3.32     6.239903     20.41706     221.2217        25     1.273     1.099  66.90   0
       345    927.6794    147.4675 300.4159135 +22.6983629     832.7803     72.47797      1.443     3.03     5.490836     20.41706     96.41183        15     1.044     0.879  48.71   0
       346     54.0442    147.4174 300.1439909 +22.4367048     499.0251     72.38589      1.459     3.42     6.191105     20.41706     57.33043         9     0.949     0.743  -1.40   0
       347    262.0522    143.5341 300.2099031 +22.4979264     5587.229     72.40431      1.446     2.57     5.820356     20.41706     697.8096        34     1.269     1.109  56.15   0
       348     46.0651    137.9134 300.1445924 +22.4315840     1295.858     72.45956      1.541     3.26      6.24636     20.41706     142.3534        22     1.241     1.033  43.24   0
       349    245.1804    134.3875 300.2076214 +22.4902435     719.9746     72.33058      1.521     3.36     5.974167     20.41706     74.27657        10     0.938     0.740  19.25   0
       350    906.1983    125.2286 300.4164234 +22.6855370     3574.058     72.33058      1.441     2.60     5.645997     20.41706     473.7624        29     1.239     1.069  82.73   0
       351   1009.8496    124.0024 300.4491502 +22.7161958     2873.877     72.36746      1.490     3.05     5.362686     20.41706     328.6583        31     1.307     1.151  78.19   0
       352    208.7761    121.4489 300.2004962 +22.4756186     367.4735     72.36746      1.619     3.46      6.27736     20.41706     49.39277         6     0.892     0.547  62.57   0
       353    455.3264    120.3269 300.2775517 +22.5491547     628.5125     72.42274      1.344     3.10     5.800849     20.41706     85.18013        11     1.032     0.760  56.87   0
       354    379.7192    112.5531 300.2565440 +22.5242750     748.5535     72.36746      1.996     4.49     5.779864     20.41706     70.42688         9     1.228     0.552 -27.12   2
       355    145.6753    109.1522 300.1848665 +22.4531779     803.0327     72.36746      1.805     3.67      6.55506     20.41706     71.61317        11     0.939     0.866  -0.62   0
       356    506.9263    107.6711 300.2977145 +22.5609697     1757.934     72.44115      1.373     2.52      5.80599     20.41706     249.1888        19     1.058     0.981  36.01   0
       357    435.0315    108.1928 300.2751683 +22.5395888     525.7273     72.36746      1.515     3.77     5.803631     20.41706     59.47918        10     1.044     0.773  35.75   0
       358     43.8802    108.1493 300.1535599 +22.4223819     341.4098     72.36746      1.561     2.65     6.482584     20.41706     43.15306         6     0.744     0.542 -60.54   0
       359    568.6757    107.1733 300.3171008 +22.5793166     399.5206     72.36746      1.296     2.56     5.929161     20.41706     56.60279         5     0.730     0.439 -73.76   0
       360    331.1061    104.0213 300.2441860 +22.5072614     222.6922     72.29369      1.490     3.90     5.832616     20.41706     31.51304         5     0.849     0.513  28.68   0
       361    250.3742    102.9987 300.2194094 +22.4827818     383.0945     72.31214      1.407     2.42     6.256793     20.41706     53.01954         7     0.702     0.657  89.04   0
       362    795.0509     97.0065 300.3909192 +22.6441574     344.2119     72.36746      1.330     4.85     6.064623     20.41706     56.69722         8     0.998     0.696  58.46   0
       363    940.7172     91.2892 300.4381887 +22.6860999     227.7542     72.47797      1.291     4.27     5.675336     20.41706       45.695         5     0.798     0.652  67.90   0
       364    280.9753     87.4642 300.2339596 +22.4874862     6204.039     72.34902      1.438     2.58     6.111215     20.41706     750.2549        35     1.247     1.141  79.81   0
       365    787.8206     88.1248 300.3915441 +22.6394387     286.2744     72.36746      1.289     3.47     6.114206     20.41706     48.60795         6     0.923     0.462  35.77   0
       366    131.9102     86.8458 300.1878170 +22.4426457      786.332     72.34902      1.573     3.60     6.685729     20.41706     96.92747        14     1.119     0.901 -85.91   0
       367    252.8570     81.4078 300.2271782 +22.4773223     256.3968     72.34902      1.220     2.61     6.369432     20.41706     53.24774         7     0.733     0.647 -14.07   0
       368    757.3029     79.1520 300.3849409 +22.6277244     285.7942     72.40431      1.161     3.52     6.247017     20.41706     47.79762         5     1.150     0.310  -9.41   0
       369    296.3709     78.6599 300.2416007 +22.4895685     361.1031     72.38589      1.198     2.99     6.090544     20.41706     59.25642         7     0.896     0.538 -62.58   0
       370     42.8402     78.1139 300.1629698 +22.4134446      398.156     72.34902      1.365     2.02     6.627187     20.41706     53.94541         6     0.696     0.551 -45.95   0
       371    527.0832     72.8086 300.3152875 +22.5569831     6398.249     72.31214      1.404     2.72      5.81844     20.41706     843.5311        33     1.229     1.055  69.67   0
       372    412.6956     72.7856 300.2796920 +22.5227225      694.532     72.29369      1.398     2.89     5.807951     20.41706     90.20786        14     1.064     0.844 -45.60   0
       373    584.1489     67.4699 300.3347857 +22.5725337     245.4809     72.36746      1.235     2.26     6.050833     20.41706     55.03492         6     0.727     0.609 -70.67   0
       374    547.8348     67.0412 300.3236172 +22.5615382     231.2883     72.42274      1.173     2.39     5.818683     20.41706     51.78677         5     0.767     0.473  42.22   0
       375    779.5332     63.1218 300.3970637 +22.6297662     897.4214     72.47797      1.664     5.16     6.190345     20.41706     101.5205        18     1.614     0.934 -78.70   0
       376    720.9136     63.9947 300.3785134 +22.6124736     358.2574     72.29369      1.272     3.23      6.29115     20.41706      66.9285         8     0.964     0.632  67.33   0
       377    872.0032     61.7421 300.4263364 +22.6570394     425.6717     72.33058      1.382     2.37     6.223301     20.41706     55.67073         7     0.695     0.653 -13.11   0
       378    220.2115     56.8890 300.2249724 +22.4604973     458.0632     72.31214      1.302     2.24     6.625413     20.41706     72.13318         7     0.684     0.662 -61.78   0
       379    578.8331     55.3410 300.3370605 +22.5674547     430.1401     72.38589      1.237     2.62      6.02267     20.41706     69.30921         8     0.781     0.673  39.16   0
       380    655.4935     52.9503 300.3617109 +22.5897159     6328.162     72.42274      1.378     2.53     6.209901     20.41706     788.6276        34     1.200     1.072  67.59   0
       381    430.4153     51.8994 300.2919738 +22.5220257     1336.237     72.27524      1.333     2.74      5.82581     20.41706     180.6718        16     1.021     0.870  65.56   0
       382    696.7054     50.4487 300.3753601 +22.6013319     842.4164     72.42274      1.338     2.45     6.247525     20.41706     127.5066        16     1.011     0.883  22.84   0
       383    766.6317     48.2227 300.3978707 +22.6216194      452.022     72.36746      1.857     2.96     6.248055     20.41706     41.06164         6     0.723     0.619  34.92   0
       384    712.5729     46.5409 300.3815701 +22.6049570     569.2158     72.36746      1.358     2.96     6.276854     20.41706     75.12387         9     0.925     0.708  -1.35   0
       385    982.6795     44.0040 300.4666004 +22.6850455      672.993     72.27524      1.817     4.34     5.655833     20.41706     72.68193        13     1.214     1.037 -14.52   0
       386    179.3824     44.2116 300.2163867 +22.4446226     710.4559     72.33058      1.634     3.34     6.660662     20.41706       79.815        11     0.989     0.872 -55.43   0
       387    751.1777     41.7119 300.3951642 +22.6151216     422.0871     72.29369      1.404     3.30     6.290191     20.41706     52.98693         9     0.850     0.768 -84.88   0
       388    714.8389     36.8995 300.3854001 +22.6028620     911.9163     72.38589      1.813     4.22     6.280748     20.41706     84.57362        18     1.456     0.808  51.63   0
       389    699.7308     37.8614 300.3803812 +22.5986170     2811.469     72.40431      1.401     2.53     6.253502     20.41706     393.0461        27     1.190     1.058  61.74   0
       390    340.7970     38.3367 300.2684847 +22.4912878     589.1111     72.36746      1.660     4.60     6.047174     20.41706     70.64226        12     1.353     0.783 -33.56   0
       391    786.1279     29.5685 300.4099911 +22.6220871     1555.391     72.36746      1.366     2.50     6.237981     20.41706     207.6294        19     1.218     0.917  82.56   0
       392    863.8981     24.2421 300.4359601 +22.6438244     274.6862     72.36746      1.297     3.36      6.55803     20.41706     37.42636         5     0.972     0.336  44.52   0
       393    724.2196     22.6143 300.3929514 +22.6015603     659.0763     72.33058      1.326     2.85     6.297273     20.41706     108.7951        13     1.085     0.768 -53.42   0
       394    529.7566     21.8082 300.3326446 +22.5431201     1073.921     72.38589      1.361     2.61     5.826528     20.41706     159.0987        15     1.026     0.943 -83.65   0
       395    102.4248     21.5899 300.1997967 +22.4150655     605.5605     72.36746      1.666     5.02     6.769404     20.41706     61.77751        12     1.265     0.838  46.10   0
       396    433.5137     19.8270 300.3033292 +22.5137339     808.1613     72.36746      1.431     3.16     5.852252     20.41706     96.54842        13     1.074     0.789 -62.63   0
       397    815.8071     18.9031 300.4226975 +22.6278995      380.522     72.25677      1.264     2.12     6.325212     20.41706     66.49965         6     0.719     0.520  25.81   0
       398    729.8085     16.9624 300.3965240 +22.6016071     177.4605     72.38589      1.178     3.84     6.308108     20.41706     28.82663         5     0.841     0.503  28.65   0
       399    329.0214   1018.5497 299.9465895 +22.7691594     1007.807     72.36746      1.830     4.66     12.91787     20.41706     92.30294        20     1.375     1.138  -0.96  16
       400    272.5916   1004.7915 299.9335177 +22.7482772     3312.627     72.21985     10.304    56.10      37.1454     20.41706     1265.958       690    20.877     4.183 -10.36  19
       401    234.0928    992.4322 299.9255689 +22.7331775     4581.284     72.29369      8.555    27.21     61.57999     20.41706     97.37581       358     6.162     4.842  84.63  19
       402    272.6666    981.0384 299.9412674 +22.7414888     9346.952     72.34902     11.299    33.41     28.73722     20.41706     183.6028       876    11.580     5.542  61.11  19
       403    164.9000   1013.8620 299.8970913 +22.7185493     1423.736     72.42274      3.007    11.07     95.34577     20.41706     55.86638        30     2.882     1.185 -16.37  18
       404    213.0196   1007.0576 299.9142607 +22.7310448     1459.082     72.36746      3.834    12.18     82.47354     20.41706      56.3996        35     3.486     1.184 -65.28  19
