#   1 NUMBER                 Running object number                                     
#   2 X_IMAGE                Object position along x                                    [pixel]
#   3 Y_IMAGE                Object position along y                                    [pixel]
#   4 ALPHA_J2000            Right ascension of barycenter (J2000)                      [deg]
#   5 DELTA_J2000            Declination of barycenter (J2000)                          [deg]
#   6 FLUX_APER              Flux vector within fixed circular aperture(s)              [count]
#   7 FLUXERR_APER           RMS error vector for aperture flux(es)                     [count]
#   8 FLUX_RADIUS            Fraction-of-light radii                                    [pixel]
#   9 FWHM_IMAGE             FWHM assuming a gaussian core                              [pixel]
#  10 BACKGROUND             Background at centroid position                            [count]
#  11 THRESHOLD              Detection threshold above background                       [count]
#  12 FLUX_MAX               Peak flux above background                                 [count]
#  13 ISOAREA_IMAGE          Isophotal area above Analysis threshold                    [pixel**2]
#  14 A_IMAGE                Profile RMS along major axis                               [pixel]
#  15 B_IMAGE                Profile RMS along minor axis                               [pixel]
#  16 THETA_IMAGE            Position angle (CCW/x)                                     [deg]
#  17 FLAGS                  Extraction flags                                          
         1    689.6648     16.3141 300.3929826 +22.6016424     819.9163     71.94909      1.712     3.34     5.799967     20.27322      84.8191        16     1.108     1.022  16.42   0
         2    398.9341     13.7294 300.3032524 +22.5138850     809.0096     71.89423      1.499     2.79     6.264124     20.27322     96.64659        13     0.979     0.820 -68.36   0
         3    781.0371     12.4613 300.4227182 +22.6278708     448.3121     71.87593      1.433     2.87     5.652481     20.27322     75.70177         9     0.911     0.758  51.07   0
         4    738.6014      4.5564 300.4120469 +22.6129017     704.8191     70.07852      1.574     3.00     5.629965     20.27322     71.17633        12     1.019     0.743 -30.97  16
         5    170.1740      3.5478 300.2353680 +22.4424578     3657.532     66.73309      1.709     3.33     6.010617     20.27322     389.6911        36     1.457     1.239  17.62  24
         6    167.7024    993.4891 299.9133095 +22.7258196     1080.763     72.04043      6.427    13.07     77.45569     20.27322     58.13619        31     6.720     0.708 -61.51  19
         7     84.6447   1010.3920 299.8819906 +22.7057335     5000.435     71.87593     18.753   105.68     78.54668     20.27322     160.8283      2494    21.751    16.453  60.30  27
         8    228.0193   1001.6662 299.9294077 +22.7462661     198.1492     71.82101      1.015     4.40     81.71832     20.27322     38.02828         6     1.471     0.374  12.11   3
         9     76.2164    951.4623 299.8985348 +22.6863133     5380.508     71.83932     25.475    91.05      30.3709     20.27322     1356.444      2880    18.181    12.652 -14.10  27
        10      2.8007   1015.0308 299.8550471 +22.6824917     1205.046     63.54289      8.497    14.10     -7.89837     20.27322     40.60453        34     3.106     1.780  70.21  26
        11    228.7406    999.3746 299.9303774 +22.7458256      585.311     71.85764      2.074     6.24     77.65833     20.27322     49.42801         9     1.664     0.657  31.18   3
        12    187.9629    979.2197 299.9242503 +22.7278096     717.9931     71.87593      3.681     8.95     64.12401     20.27322      44.3212        17     1.928     1.161  50.06   1
        13    163.3979    967.2665 299.9204988 +22.7170105     1004.161     71.85764      4.884     7.97     55.07977     20.27322     38.91441        14     2.247     0.790 -74.41   3
        14    166.8459    979.0447 299.9177407 +22.7214218     2009.083     71.89423      3.911    14.07     65.24166     20.27322      56.8373        44     2.566     2.146 -35.97   3
        15    164.2853    972.0357 299.9192238 +22.7186440     1536.354     71.83932      3.823     8.26     59.33304     20.27322     50.68563        17     1.742     1.245 -31.81   3
        16    198.4111    985.6353 299.9254131 +22.7327845     3755.808     71.85764      7.540    24.29     70.21545     20.27322     79.48897       224     5.067     4.133  13.44   3
        17    218.1456    983.7745 299.9321556 +22.7381735     4635.422     71.89423      7.739    23.87     67.49188     20.27322     96.34848       342     5.667     4.774 -65.09   3
        18    924.8964    971.1350 300.1564191 +22.9464888     698.5599     71.96737      2.080     5.84     4.149495     20.27322     41.25088        12     1.177     0.913  -0.89   0
        19      1.8168    992.2837 299.8621393 +22.6756780     815.4536      58.6117      5.922     6.35    -6.554739     20.27322     34.99725         7     1.101     1.028   4.94  25
        20      2.7705    960.9160 299.8726360 +22.6669753     649.2888     63.41858      4.087     3.81    -2.718058     20.27322      28.4905         5     1.474     0.283  77.58  17
        21    143.9934    957.2445 299.9177243 +22.7083137     1539.793     71.87593      7.644     9.73     46.16753     20.27322     49.64965        24     2.399     1.102  25.65   3
        22    142.2120    954.8197 299.9179590 +22.7070839      1706.77     71.82101     10.948    14.45     44.38392     20.27322     51.59349        40     3.277     1.772   5.47   3
        23    116.3508    958.7039 299.9086559 +22.7004355     737.2354     71.91252      3.143     3.42     47.12237     20.27322       36.277         5     0.749     0.451 -74.76   1
        24    650.5522    953.8309 300.0765070 +22.8592890     6907.866     71.89423      1.983     4.52     4.681162     20.27322     351.6317        50     1.568     1.479  13.70   0
        25    530.2212    948.0612 300.0408969 +22.8215515     547.7304     71.82101      1.982     4.28     4.415916     20.27322     45.93474         6     1.363     0.383  55.08   0
        26    559.0115    944.4789 300.0510290 +22.8291573     1541.105     71.83932      1.855     4.43     4.539199     20.27322     102.6891        28     1.474     1.208  -8.60   0
        27    452.8471    940.7515 300.0191802 +22.7962491     1057.933     71.89423      1.957     4.60     4.325608     20.27322      73.5519        22     1.334     1.172  29.44   0
        28    354.0063    998.5864 299.9696056 +22.7831874     428.4497     71.72939      1.771     5.85     4.287827     20.27322     33.06221         9     1.446     0.666  -3.61   0
        29    174.4631   1001.0176 299.9129632 +22.7300069     2409.331     71.83932      4.538    22.72     84.45424     20.27322     69.50201        98     5.115     2.803 -84.80  19
        30    383.3940    938.8773 299.9981694 +22.7748788     6691.968     71.76606      1.969     4.43     4.440172     20.27322     452.9996        53     1.591     1.484  20.03   0
        31    236.6565    973.4078 299.9412844 +22.7407562     7443.576     71.83932      8.388    31.13     46.84164     20.27322     160.6249       688    10.225     4.760  62.85  18
        32    416.5620    925.4920 300.0128458 +22.7809883     556.1539     71.85764      1.741     5.78     4.416581     20.27322     43.24366        11     1.116     0.843  35.35   0
        33    125.8548    923.5777 299.9230317 +22.6932184     1023.063     71.87593      5.669     6.01     20.32303     20.27322     48.86483         5     2.043     0.497  -3.75   3
        34    632.1589    986.8575 300.0600347 +22.8632519     8656.077     71.83932      2.102     5.28     4.699562     20.27322     438.5503        49     1.593     1.523  13.98   3
        35    929.9081    917.9133 300.1752908 +22.9327068      2263.53     72.02217      2.205     5.18      4.49657     20.27322     117.2791        36     1.597     1.407  44.90   0
        36    117.7951    916.9664 299.9226756 +22.6889042     1529.563     71.83932     13.628    14.05     18.56347     20.27322     44.36741        32     2.902     1.891  35.66   3
        37    718.3370    906.6891 300.1129619 +22.8660788     746.5253     71.94909      2.014     5.61      4.66868     20.27322     41.28522        17     1.238     1.101 -79.42   0
        38    545.5847    991.5955 300.0315238 +22.8386495     2368.152     71.69272      1.988     4.55     4.060425     20.27322     145.0166        32     1.489     1.340   6.72   0
        39    170.2379    997.2358 299.9128794 +22.7276546     2366.724     71.93081      5.205    23.52     80.93818     20.27322     70.18764        88     5.093     3.017 -16.04  19
        40    753.5975    900.9438 300.1258217 +22.8749983     1015.868     71.82101      1.985     4.82     4.666427     20.27322     65.53733        21     1.331     1.140  10.51   0
        41    531.0833    901.7769 300.0562150 +22.8085294     456.2891     71.82101      1.716     4.59      4.57709     20.27322     31.77483         8     1.417     0.422  20.36   0
        42    211.0646    897.1389 299.9581234 +22.7112078     956.6726     71.89423     11.295    12.27     10.18144     20.27322     32.77257        15     3.676     1.139  44.76   0
        43    775.6934    894.6321 300.1347627 +22.8798087     11523.39     71.78439      1.921     4.34     4.656051     20.27322      630.186        60     1.591     1.474 -13.64   0
        44    199.3538   1004.5156 299.9195658 +22.7384801     1482.059     71.83932      3.884    12.48     88.20139     20.27322     55.36106        19     3.101     1.398  30.22  18
        45    579.9514    914.7333 300.0672240 +22.8269005      195.933     71.85764      1.459     3.88     4.653789     20.27322     30.24816         5     0.850     0.506  53.76   0
        46    966.3423    895.4579 300.1939605 +22.9371734     385.7811     71.93081      1.827     5.06     4.546976     20.27322     29.04812         7     1.005     0.721 -44.02   0
        47    204.0849    894.5924 299.9567805 +22.7083833     796.0782     71.78439      4.392     5.29     10.70182     20.27322     37.02514         7     1.820     0.434 -65.33   0
        48    207.7639   1001.5283 299.9231529 +22.7401477     960.4153     71.83932      1.910     3.43     85.35971     20.27322     39.99441         5     1.519     0.225  17.27   2
        49    732.6682    987.6827 300.0910901 +22.8936235     732.7948     71.96737      1.931     6.22      4.96151     20.27322      44.2088        14     1.415     0.935 -21.12   0
        50    172.1654    991.2874 299.9154133 +22.7265280     1530.589     71.83932      4.508     8.94     75.60235     20.27322     54.82377        23     2.003     1.115 -54.31   3
        51     75.7962    917.1205 299.9095700 +22.6763433     3891.896     71.76606     22.438    54.89     14.14592     20.27322     86.66719      1104    12.692     7.408 -23.39  19
        52     87.0973    885.9340 299.9232212 +22.6707948     1071.863     71.94909      4.612     5.49     10.43064     20.27322      60.1573        17     1.424     1.187  60.50   0
        53    827.6736    882.8285 300.1548088 +22.8919973     427.8363     71.87593      1.773     5.34     4.653826     20.27322     37.24597         8     1.124     0.717 -22.82   0
        54    480.5388    882.7973 300.0466451 +22.7879266     302.7578     71.83932      1.496     4.89     4.494905     20.27322     33.59925         7     1.200     0.708 -42.09   0
        55    784.1577    876.7534 300.1432145 +22.8772122     1283.005     71.89423      1.824     5.30     4.650036     20.27322     91.24512        21     1.327     1.104 -17.58   0
        56    637.6607    984.6387 300.0624706 +22.8642649     9653.622     71.85764      2.079     4.87     4.698418     20.27322     523.9416        51     1.608     1.563  48.71   3
        57    822.3907    870.2350 300.1572556 +22.8867980     1009.428     71.83932      2.214     4.63     4.652484     20.27322     53.31591        16     1.101     1.020 -74.05   0
        58    930.0543    866.9895 300.1918936 +22.9181249     408.7235     71.85764      2.173     5.66     4.647292     20.27322     25.88183         6     1.240     0.727 -23.53   0
        59    870.3680    861.3634 300.1751031 +22.8986264     519.7138     71.87593      1.854     4.93     4.661872     20.27322     40.33074         9     1.094     0.629   5.88   0
        60    722.1043    860.4133 300.1291811 +22.8539231     760.4844     71.78439      1.899     5.50     4.632726     20.27322     56.45441        17     1.243     1.158 -32.28   0
        61    733.3311    857.8510 300.1335137 +22.8565522     413.0953     71.83932      1.620     5.37     4.630781     20.27322     45.37257         9     1.165     0.880  22.90   0
        62    434.6532    856.5854 300.0408795 +22.7666453     4274.348     71.87593      1.818     3.93     4.528471     20.27322     318.5511        36     1.411     1.335   4.98   0
        63    478.5732    845.5856 300.0581295 +22.7766595     332.6819     71.87593      1.876     4.22     4.528471     20.27322     33.12431         5     0.973     0.522 -47.88   0
        64    159.7350    842.4139 299.9599498 +22.6801137     801.6658     71.82101      1.878     6.33     7.724451     20.27322     57.93593        21     1.394     1.293  -1.93   0
        65     69.0000    840.9470 299.9322187 +22.6524662     349.4663      71.8027      1.414     3.75     6.046765     20.27322     33.79856         5     1.396     0.289  90.00   0
        66    137.0253    839.3548 299.9538830 +22.6724225     1663.064     71.87593      2.058     4.97     7.062529     20.27322     113.4372        32     1.629     1.412  14.94   0
        67   1008.8860    828.8588 300.2288886 +22.9307861     2198.407     71.96737      1.987     4.96      4.48641     20.27322     124.1272        30     1.441     1.297  -6.03   0
        68     12.6607    829.3153 299.9184897 +22.6322235     375.6505     71.96737      1.670     4.95     5.722036     20.27322     33.85858         7     1.034     0.670  88.26   0
        69    963.1559    827.0452 300.2152069 +22.9165673     2270.986     71.89423      2.158     5.08     4.585299     20.27322     131.1793        35     1.616     1.399  22.39   0
        70    169.5376    821.7886 299.9697013 +22.6771402     404.6449     71.82101      1.545     4.17     6.441237     20.27322     46.25523         5     1.503     0.331 -62.35   0
        71    746.7760    821.0427 300.1496696 +22.8500130     708.1909     71.91252      1.691     5.94     4.548536     20.27322     63.62889        13     1.146     0.865 -13.54   0
        72    614.7094    814.8459 300.1105239 +22.8086513     4830.406     71.83932      1.759     3.83     4.621655     20.27322      347.689        40     1.424     1.313  10.73   0
        73    104.5607    815.0710 299.9516821 +22.6557180     347.7206     71.82101      1.537     6.05     5.765851     20.27322     35.03688         8     1.192     0.863 -79.92   0
        74    416.9068    811.7842 300.0499164 +22.7484686     634.4986     71.78439      1.756     5.11     4.528471     20.27322     47.93719        12     1.168     0.876   2.40   0
        75    164.9189    808.3459 299.9726337 +22.6718993     1339.193     71.89423      1.950     4.49     5.780716     20.27322     100.9237        27     1.433     1.297  25.54   0
        76    635.2333    807.3188 300.1193651 +22.8126425     775.7466     71.82101      1.731     4.30     4.568911     20.27322     73.67278        15     1.118     1.057  25.52   0
        77    552.4669    798.3682 300.0964889 +22.7852631     327.3332     71.85764      1.482     4.15     4.406479     20.27322     43.33906         6     0.851     0.577 -47.81   0
        78   1007.6167    794.8484 300.2395469 +22.9206343     1149.909     71.89423      1.935     5.24     4.451953     20.27322     70.64267        24     1.352     1.275  44.07   0
        79    790.8545    794.6135 300.1720022 +22.8556319     4203.401     71.85764      1.766     3.86     4.522943     20.27322     285.1628        41     1.398     1.351   4.51   0
        80    199.4681    788.7386 299.9897494 +22.6766408     564.0637     71.91252      1.833     2.84     5.382994     20.27322     67.71611         8     0.991     0.721 -38.95   0
        81    507.9104    787.1605 300.0862537 +22.7686885     575.5249     71.85764      1.498     4.65     4.485534     20.27322     49.32592        10     1.036     0.787   1.37   0
        82    154.8497    784.8015 299.9771536 +22.6621261     1038.375     71.83932      1.761     3.84     5.336775     20.27322     91.55815        16     1.228     0.886  77.40   2
        83    569.4042    780.3229 300.1076290 +22.7851606     631.0092     71.76606      1.833     5.18     4.503201     20.27322     45.83815        11     1.105     0.810  -6.86   0
        84    303.7296    776.9383 300.0260169 +22.7045294     54162.75     71.89423      1.796     3.68      5.31915     20.27322     4139.256       101     1.587     1.513   2.06   0
        85    974.5546    775.7349 300.2354404 +22.9052404     1013.019     71.85764      1.810     5.33     4.626319     20.27322      73.0394        18     1.277     1.037 -28.32   0
        86    561.7698    776.0286 300.1066464 +22.7816394      1761.75     71.85764      1.696     3.75     4.491879     20.27322     130.0239        23     1.231     1.089  19.99   0
        87    232.6125    775.5314 300.0043497 +22.6827950     513.2728     71.87593      1.951     4.44     5.404932     20.27322      41.8617         9     0.976     0.696 -27.18   0
        88    590.4426    772.1885 300.1168263 +22.7891318     804.3578     71.85764      1.670     3.90      4.56454     20.27322     76.32991        15     1.206     0.894 -12.87   0
        89    601.5652    770.7528 300.1207581 +22.7920535     637.7041     71.89423      1.989     4.65      4.59164     20.27322      52.3233        13     1.099     0.992  26.59   0
        90    706.9047    766.9633 300.1548160 +22.8225359     509.4929     71.85764      1.949     5.92      4.48028     20.27322     34.75326         8     1.069     0.923 -23.76   0
        91    501.5063    764.4821 300.0916288 +22.7602594      341.383     72.02217      1.707     5.57     4.531625     20.27322     35.27879         6     1.337     0.731 -30.33   0
        92    744.7535    757.2919 300.1697571 +22.8311002     803.9697     71.87593      1.757     4.74      4.51646     20.27322     62.28421        16     1.274     0.913  -9.48   0
        93    353.4808    754.2171 300.0488813 +22.7129306     31781.75     71.85764      1.743     3.47     4.993831     20.27322     2665.963        76     1.486     1.428   4.77   0
        94    367.7481    754.7390 300.0531520 +22.7173586     2040.093     71.91252      1.714     3.70      4.92228     20.27322     178.8754        27     1.308     1.149 -25.58   0
        95    876.7036    750.5085 300.2131088 +22.8686837     2725.404     72.04043      1.772     4.05     4.711663     20.27322     200.0035        29     1.338     1.234  19.95   0
        96    364.8897    748.9313 300.0541494 +22.7148350     623.0834     72.00391      1.679     4.46      4.93083     20.27322     57.41678        12     1.120     0.900 -18.86   0
        97    906.2290    748.9366 300.2228300 +22.8770763     385.6875     71.87593      1.991     5.66     4.739239     20.27322     29.27666         8     1.189     0.758 -50.69   0
        98    634.3682    746.4788 300.1388662 +22.7949161     850.8287     71.83932      1.577     3.72     4.534194     20.27322     81.91689        18     1.194     0.978  11.66   0
        99    236.0048    745.8520 300.0150481 +22.6752987     724.1442     71.85764      1.783     3.86     5.404774     20.27322     73.59866        14     1.197     1.032 -50.86   0
       100    481.5551    741.1693 300.0929907 +22.7475868     878.8637     71.89423      1.638     3.93     4.569165     20.27322     77.95294        17     1.280     0.905   2.28   0
       101     41.5213    741.3558 299.9560395 +22.6156650      550.426     71.83932      1.997     4.42     5.709239     20.27322     53.80606        11     1.124     0.742  85.24   0
       102    882.5035    738.2413 300.2189040 +22.8668970     502.5564     71.87593      1.603     4.20     4.729532     20.27322     49.96588        12     1.056     0.882  10.11   0
       103    384.3785    737.1798 300.0640333 +22.7173066      230.627     71.85764      1.126     2.88     4.853985     20.27322     34.88522         5     0.721     0.457  73.09   0
       104    427.8727    736.3346 300.0778471 +22.7301050     432.1829     71.89423      1.570     3.84     4.714451     20.27322     43.22626         6     0.991     0.427  12.97   0
       105     69.1374    735.9065 299.9663932 +22.6223883     362.9748     71.94909      1.640     4.47     5.499256     20.27322     38.26971         6     1.000     0.567 -41.53   0
       106    470.9969    746.2116 300.0880647 +22.7458688     412.1387     71.67437      1.452     5.55     4.588729     20.27322     41.45667         9     1.118     0.777 -82.19   0
       107    860.8139    733.2446 300.2137620 +22.8589645     385.8005     71.87593      1.482     4.74     4.744979     20.27322     39.22632         8     1.016     0.628  -3.25   0
       108    233.8002    730.7558 300.0192669 +22.6703067     561.4868     71.83932      1.731     5.02     5.400548     20.27322     50.13395        10     1.044     0.904 -10.65   0
       109   1009.4514    725.5753 300.2626305 +22.9012785      222.444     71.87593      1.639     4.83     4.770092     20.27322     30.00192         5     1.144     0.579 -33.48   0
       110    556.7140    720.9335 300.1229729 +22.7643077     440.9386     71.96737      1.617     5.85     4.672219     20.27322     36.04907        10     1.128     0.853 -22.45   0
       111    526.5974    719.1752 300.1141635 +22.7547757     804.6962      71.8027      1.853     3.07      4.68753     20.27322     74.28345        13     1.016     0.851 -14.84   0
       112    943.1199    715.7091 300.2451361 +22.8785789     4620.672     71.98564      1.831     4.13     4.778216     20.27322      295.067        38     1.401     1.368 -83.15   0
       113    548.5903    716.5704 300.1218599 +22.7606201     1290.225     71.85764      1.603     3.33     4.699265     20.27322     131.6958        19     1.156     1.016 -51.62   0
       114    468.8690    716.3438 300.0971059 +22.7366580     249.2861     71.87593      1.151     3.58     4.716275     20.27322     39.03927         6     0.745     0.630  53.47   0
       115    931.6392    707.1711 300.2443278 +22.8726873     1609.446     71.87593      1.775     4.17      4.78451     20.27322     118.2565        24     1.298     1.170 -53.15   0
       116    698.8212    707.0738 300.1717553 +22.8029153     307.5509     71.85764      1.368     3.90     4.712393     20.27322     33.88083         5     0.819     0.531  31.60   0
       117    697.4993    701.6242 300.1731136 +22.8009541      157.491      71.8027      0.947     3.40     4.748674     20.27322     46.63379         5     0.773     0.432  66.89   0
       118    294.3708    700.8565 300.0478231 +22.6798937     1003.709     71.85764      1.841     5.64     5.194591     20.27322     77.15764        17     1.393     0.984 -10.38   0
       119    962.7708    697.1573 300.2572951 +22.8791332     1809.264     71.89423      2.058     5.07     4.750982     20.27322      120.806        31     1.544     1.378  60.66   0
       120    757.9164    698.2722 300.1930364 +22.8180932     2575.993     71.98564      1.708     3.32     4.916979     20.27322     192.5213        30     1.480     1.151  22.92   0
       121   1019.4035    699.5237 300.2742008 +22.8967719     1463.983     71.76606      0.843     3.20     4.696875     20.27322     590.8635         7     0.720     0.415  34.72  16
       122    778.2859    690.0179 300.2020688 +22.8218247     1348.485      71.8027      0.654     2.27      5.05517     20.27322     574.2466         6     0.615     0.315   2.74   0
       123    773.2035    688.0003 300.2011395 +22.8197225     1152.177     71.63766      0.466     0.86     5.058012     20.27322     736.6965         7     0.456     0.344   1.69   0
       124    143.3453    684.5135 300.0061573 +22.6299100     571.5353     71.91252      1.665     5.06     5.438142     20.27322     60.73775        14     1.149     0.996 -33.41   0
       125    840.3422    684.3193 300.2232718 +22.8387770     561.3525     71.89423      1.649     4.57     5.193639     20.27322     45.39666         8     1.117     0.532 -17.84   0
       126    876.3672    675.3143 300.2374336 +22.8469801       148539     71.82101      1.723     3.47     5.196298     20.27322     12226.92       159     1.561     1.520 -39.22   0
       127    638.4841    678.9233 300.1620958 +22.7767513     480.1258     71.96737      1.824     4.33     4.880409     20.27322     59.33208         9     1.259     0.676  17.01   0
       128   1022.6845    677.3394 300.2824317 +22.8913785     977.0253     61.30965      1.557     3.73     4.626466     20.27322     84.14669        17     1.134     0.984  71.76  24
       129    728.8007    675.7921 300.1912621 +22.8029133     659.7485     71.67437      1.391     3.87     5.030035     20.27322     79.84967        13     1.173     0.800 -11.33   0
       130    909.0137    668.2198 300.2499224 +22.8547191     396.8369     71.82101      1.528     4.55     4.986149     20.27322     51.55088         8     0.901     0.653  39.08   0
       131    562.5966    664.1515 300.1432505 +22.7497681     1703.332     71.85764      1.551     3.65     5.081913     20.27322     164.2723        21     1.167     1.042  64.58   0
       132    743.8245    661.3977 300.2006213 +22.8032797     9454.518      71.8027      1.584     3.11     5.141614     20.27322     902.3181        43     1.272     1.260 -11.04   0
       133    245.2354    656.3177 300.0470031 +22.6523793     5040.157     71.82101      1.728     3.40     5.330645     20.27322     467.2247        41     1.428     1.296  24.81   0
       134    327.3862    654.5837 300.0731259 +22.6765148     1219.859      71.8027      1.699     3.49      4.99229     20.27322     118.7728        21     1.182     1.106 -50.12   0
       135    203.6889    652.5258 300.0353118 +22.6388320     367.9008     72.02217      1.319     2.77     5.427382     20.27322     56.67577         5     0.944     0.324 -68.08   0
       136    535.6632    650.0055 300.1394556 +22.7376346     820.8747     71.82101      1.624     2.89      5.26193     20.27322     100.0626        13     0.991     0.857  -5.65   0
       137    527.2639    642.1353 300.1393956 +22.7328576     3232.944     71.89423      1.497     2.77     5.339373     20.27322     328.0423        26     1.151     1.092  10.34   0
       138    517.6217    635.7990 300.1384503 +22.7281485     1441.048     71.78439      1.555     3.25     5.384909     20.27322     152.8217        19     1.182     0.949  47.37   0
       139    446.2040    635.1932 300.1164076 +22.7065691     447.7628     71.69272      1.523     5.04     5.140228     20.27322     34.34666         8     1.038     0.693  51.54   0
       140    911.0262    634.4055 300.2615333 +22.8456050     506.8593     71.83932      1.834     4.45     5.216243     20.27322      46.3233        10     1.184     0.662   4.64   0
       141    180.8611    632.1284 300.0348363 +22.6261337     630.1542     71.89423      1.535     3.63     5.460006     20.27322     61.15007        12     0.964     0.878 -51.70   0
       142    195.5094    630.6683 300.0398661 +22.6301077     652.9923     71.98564      1.577     2.61     5.455245     20.27322     65.21871        11     0.878     0.789 -23.48   0
       143    964.5150    627.3780 300.2805053 +22.8596022     523.3936      71.8027      1.658     5.95     4.912153     20.27322     50.31221        11     1.298     0.766 -22.52   0
       144    220.9104    627.2271 300.0488839 +22.6367376     511.0931     71.83932      1.485     4.09      5.44889     20.27322     61.40974        12     1.151     0.886 -55.99   0
       145    442.1998    625.6734 300.1182525 +22.7026359     1768.687     71.72939      1.577     3.06      5.18338     20.27322     185.4878        22     1.251     1.023  35.71   0
       146    252.6073    626.8314 300.0588722 +22.6461289     521.5376     71.85764      2.302     3.24     5.347496     20.27322     39.36595         5     0.755     0.426  67.52   0
       147    541.5656    626.3116 300.1489891 +22.7326002     414.3691     71.83932      1.442     3.67     5.573243     20.27322     52.66124         9     0.995     0.661  11.52   0
       148    476.8499    625.0538 300.1292427 +22.7128437     1028.491     71.89423      0.385     1.78     5.359757     20.27322     850.7523         5     0.515     0.196 -13.48   0
       149   1018.1205    623.1716 300.2986014 +22.8744429     867.0394     71.87593      1.850     4.98     4.442969     20.27322     70.57433        18     1.393     1.050  57.66  16
       150     96.1917    620.2994 300.0123512 +22.5973459     20120.87     71.74773      1.850     3.47     5.751185     20.27322     1969.653        73     1.584     1.474  22.14   0
       151    527.0962    620.7647 300.1462836 +22.7266712     989.5334     71.85764      1.412     3.15     5.581016     20.27322     99.08685        14     1.001     0.891  21.85   0
       152    562.3704    620.1417 300.1574733 +22.7370631     321.6808     71.87593      1.464     3.41     5.656885     20.27322     44.26725         6     1.047     0.509 -20.93   0
       153    280.1804    612.9894 300.0719452 +22.6504241     252.7744     71.83932      1.724     4.64     5.289173     20.27322     34.86496         5     1.216     0.503 -25.03   0
       154     17.4808    622.1373 299.9872896 +22.5742625     699.1671     71.96737      1.946     4.92     5.795148     20.27322     71.80675        13     1.339     1.026  15.01   0
       155    945.3351    607.2032 300.2810723 +22.8480609     1105.057     71.85764      1.759     3.72     5.207045     20.27322      98.8604        20     1.175     1.117  85.18   0
       156    812.0585    605.6379 300.2400062 +22.8076997     596.3364     71.87593      1.914     5.17     5.386945     20.27322     51.98767        12     1.124     0.975   0.25   0
       157     42.2993    604.4180 300.0007562 +22.5766250     1640.758     71.76606      2.193     5.59     5.754497     20.27322     105.6292        32     1.714     1.260 -87.86   0
       158    108.9676    604.6837 300.0213935 +22.5966981     276.9677     71.83932      1.489     6.21     5.694611     20.27322     36.97226         9     1.363     0.794 -46.28   0
       159    490.9359    601.3610 300.1413228 +22.7102629     512.7415     71.83932      1.701     3.70     5.583318     20.27322     64.46445        10     1.187     0.781 -20.13   0
       160    885.5499    599.8889 300.2647951 +22.8280569     806.1605     71.85764      1.852     4.45     5.400398     20.27322     65.16088        14     1.164     0.892  76.97   0
       161    283.5968    600.6390 300.0770184 +22.6479040      342.802     71.89423      1.281     3.89     5.286511     20.27322     34.03648         6     0.907     0.479   2.84   0
       162    630.1274    598.1534 300.1857238 +22.7510509     308.8279     71.85764      1.261     4.64     5.657419     20.27322     36.23655         8     0.897     0.682 -42.38   0
       163    447.4671    593.9770 300.1301850 +22.6951149     650.5469     71.83932      1.529     3.63     5.389097     20.27322     75.56913        12     1.041     0.817  39.34   0
       164    595.5871    592.7209 300.1767256 +22.7391418     511.4383     71.83932      1.505     2.57      5.81344     20.27322      60.1475        10     0.841     0.773 -20.83   0
       165    612.9958    590.8481 300.1827578 +22.7438199      692.209     71.83932      1.555     3.88     5.786866     20.27322     64.60882        12     1.011     0.851 -59.61   0
       166    642.6369    591.0195 300.1919383 +22.7527498     545.2224     71.87593      1.623     4.06     5.577113     20.27322      63.7564        10     0.994     0.809  68.00   0
       167    491.7383    589.7179 300.1453533 +22.7071602     825.0366     71.94909      1.601     3.24     5.623872     20.27322     93.37633        16     1.067     0.966  32.99   0
       168    925.4775    585.3887 300.2819602 +22.8358454     3339.146     71.85764      1.666     3.26     5.357718     20.27322      317.932        33     1.315     1.240  58.55   0
       169    457.1187    585.1965 300.1360411 +22.6954866     1645.186     71.76606      1.514     3.07     5.478747     20.27322     168.2566        25     1.247     1.060  28.40   0
       170   1022.9341    583.6558 300.3129365 +22.8645249     539.4748     59.98682      1.390     3.66     4.352662     20.27322     55.75872        11     1.050     0.761  76.43  24
       171    432.7765    580.2835 300.1300573 +22.6867804     308.7655     71.83932      1.547     4.31     5.376476     20.27322     34.93171         5     0.751     0.703  67.21   0
       172     18.9350    578.3738 300.0019507 +22.5621460     5184.675     71.83932      1.937     3.79     5.646543     20.27322     489.8635        42     1.541     1.384  31.79   0
       173    965.0834    575.4590 300.2975429 +22.8448496     290.9956     71.96737      1.558     4.24     4.964424     20.27322     39.37914         6     1.051     0.487  52.91   0
       174    320.5322    571.7360 300.0978954 +22.6506816     9106.833     71.91252      1.623     2.98     5.217744     20.27322      1066.46        47     1.354     1.259  47.19   0
       175    442.9543    568.7800 300.1369610 +22.6865280     9061.499     71.91252      1.526     3.01     5.474483     20.27322     931.8746        44     1.290     1.217  39.71   0
       176    689.2395    565.4482 300.2147650 +22.7593654     175.1703     71.89423      1.038     3.33     5.423454     20.27322     32.40788         5     0.733     0.448  21.77   0
       177     86.0785    565.3544 300.0270468 +22.5785500     298.7273     71.83932      1.430     4.76     5.615568     20.27322     39.16695         5     1.361     0.472   3.60   0
       178    854.7996    563.1110 300.2671452 +22.8082795     1807.821     71.76606      1.559     3.16     5.393453     20.27322     172.0058        22     1.225     1.051  58.34   0
       179    939.4112    560.4123 300.2944176 +22.8328386     12609.27     71.74773      1.685     3.41     5.218227     20.27322     1134.287        51     1.381     1.337 -53.98   0
       180    503.5287    558.4292 300.1591838 +22.7017090     11612.82     71.85764      1.514     2.77     5.755772     20.27322     1392.511        44     1.243     1.201  56.80   0
       181    673.2386    554.4245 300.2133570 +22.7514055     472.6824     71.87593      1.225     2.35     5.477187     20.27322     62.34466         9     0.816     0.672 -64.19   0
       182    230.9533    553.7480 300.0758652 +22.6186629      1392.06     71.89423      1.656     3.42     5.322721     20.27322     129.8185        23     1.262     1.105  23.64   0
       183    388.9184    553.7899 300.1250055 +22.6660288     378.3918      71.8027      1.507     4.74      5.30348     20.27322      39.0847         6     1.083     0.589  27.90   0
       184    477.9070    551.7151 300.1533846 +22.6921031     329.0895     72.04043      1.331     3.62     5.714491     20.27322     43.69011         8     0.971     0.618   9.87   0
       185    778.3183    546.8516 300.2485727 +22.7807034     813.4313     71.87593      1.496     3.73     5.378355     20.27322     84.19508        17     1.188     0.974  88.82   0
       186    435.1931    546.6366 300.1417335 +22.6778441     4336.841     71.85764      1.514     2.71     5.530362     20.27322     508.5022        33     1.263     1.110   3.83   0
       187    413.5030    544.9420 300.1355309 +22.6708570     1139.597     71.93081      1.419     3.07     5.440659     20.27322     141.9726        14     1.053     0.835  34.49   0
       188    167.7297    544.2627 300.0592807 +22.5969840     801.4857     71.89423      1.795     4.71     5.481599     20.27322     67.15903        15     1.400     0.869 -28.74   0
       189    855.1030    542.2885 300.2740002 +22.8023862     1654.482     72.04043      1.640     3.20     5.386877     20.27322     158.4748        25     1.229     1.160 -45.65   0
       190    551.8765    534.2144 300.1821037 +22.7092418     206770.6     71.87593      1.486     2.84     5.840032     20.27322     21271.02       196     1.524     1.447 -13.51   0
       191    102.6854    542.3286 300.0396842 +22.5769241     312.7318     71.96737      1.573     3.75      5.55653     20.27322     36.49625         5     0.990     0.407 -15.05   0
       192    735.4273    539.4688 300.2375970 +22.7657363     716.3045     71.83932      1.319     2.51     5.387181     20.27322     101.7478        13     0.927     0.817  34.32   0
       193    375.6266    540.1667 300.1252907 +22.6581338     376.4315     71.87593      1.413     4.19     5.274799     20.27322     54.92958         8     1.116     0.751  42.53   0
       194    237.9768    534.0295 300.0844510 +22.6151093     3512.114     71.85764      1.558     3.13     5.295666     20.27322     342.6393        31     1.296     1.151  15.31   0
       195    417.2054    530.6426 300.1413254 +22.6678610     381.0594     71.87593      2.021     6.06     5.466806     20.27322     31.24851         8     1.253     0.824   5.01   0
       196    804.1401    530.5806 300.2619069 +22.7837608     616.2885      71.8027      1.855     3.65     5.379077     20.27322     50.68366         7     0.959     0.484   6.69   0
       197    583.4398    520.9767 300.1962336 +22.7148961     324.3721     71.89423      1.695     3.22     5.838101     20.27322     39.85596         5     0.960     0.621   1.10   0
       198    442.5206    514.6334 300.1544036 +22.6708506      2809.82     71.82101      1.583     2.93     5.570025     20.27322     310.2232        34     1.446     1.193  87.99   0
       199    286.7671    516.7365 300.1052433 +22.6247723     439.3649     71.85764      1.547     4.98     5.273856     20.27322     41.74023         9     0.923     0.760  72.29   0
       200    854.0297    511.1798 300.2837643 +22.7931241     465.9126     71.85764      1.565     4.39      5.38964     20.27322     53.35801        12     1.164     0.817 -25.56   0
       201    672.9520    510.3414 300.2275783 +22.7386552     198.2884     71.91252      1.202     3.27     5.666054     20.27322     31.70616         5     0.868     0.471   4.17   0
       202    759.9069    503.4100 300.2569344 +22.7627066     386.1364      71.8027      1.451     3.96     5.386521     20.27322     43.42348         8     0.924     0.760 -80.69   0
       203    839.3876    500.8152 300.2825619 +22.7857611     1781.225      71.8027      1.527     3.26     5.387637     20.27322     163.7996        22     1.276     1.010  22.76   0
       204    710.7391    498.4426 300.2432186 +22.7465542     2593.549     71.83932      1.492     2.73     5.525446     20.27322     302.7876        29     1.258     1.112 -37.21   0
       205    955.0035    496.3734 300.3200725 +22.8190978     417.0691     71.82101      1.780     5.11     5.092206     20.27322     38.03228         8     1.204     0.612  22.55   0
       206    919.5451    495.1926 300.3093918 +22.8081436     312.0873     71.85764      1.683     4.69     5.365049     20.27322     29.33844         7     1.275     0.490  65.37   0
       207    615.7203    495.3044 300.2146242 +22.7171919     556.2338     71.96737      1.578     4.89      5.83899     20.27322      42.1981        11     1.207     0.729 -57.95   0
       208    497.7374    494.1851 300.1782347 +22.6815239     733.1367     71.82101      1.429     3.43     5.691697     20.27322     86.91013        13     1.033     0.869 -25.34   0
       209    967.9262    492.6231 300.3253225 +22.8218879     1410.641     71.89423      1.802     3.74     4.961299     20.27322      110.492        19     1.181     1.076 -16.13   0
       210    839.7563    490.9355 300.2858837 +22.7830319     2248.463     71.83932      1.792     3.79     5.388671     20.27322     210.5747        31     1.554     1.140  78.10   0
       211    953.7974    491.6287 300.3212363 +22.8173727     768.5933      71.8027      1.624     3.08      5.10646     20.27322     84.91077        14     1.137     0.771  38.43   0
       212    593.0068    489.1392 300.2095483 +22.7086168     810.3912     71.82101      1.776     3.60     5.830796     20.27322     71.10212        11     1.199     0.636  19.01   0
       213    877.9930    486.0353 300.2994010 +22.7930716     4195.434     71.87593      1.526     3.03     5.389678     20.27322     387.5282        32     1.270     1.171 -52.85   0
       214    431.2809    487.8609 300.1595939 +22.6597945     423.2788     71.94909      1.467     2.91     5.536801     20.27322     64.66856         7     0.955     0.541  12.96   0
       215    379.4639    488.8438 300.1431440 +22.6445484     369.4327     71.85764      1.404     4.60      5.36285     20.27322     36.47789         8     0.932     0.645 -31.32   0
       216    538.8267    482.1003 300.1949546 +22.6903637     298.6384      71.8027      1.202     2.95     5.746067     20.27322      52.1711         6     0.742     0.562 -51.53   0
       217    969.9437    476.8038 300.3310867 +22.8179437      705.274     71.82101      1.512     3.25      4.96834     20.27322     80.23025        13     1.127     0.760  -5.58   0
       218    110.1030    476.2461 300.0634383 +22.5601864     942.5965     71.87593      1.542     3.01     5.576028     20.27322     110.2855        17     1.155     0.878   1.37   0
       219    909.4302    474.1072 300.3130799 +22.7990542     184.1099     71.78439      1.166     2.45     5.383116     20.27322     41.40771         5     0.711     0.456  69.25   0
       220    739.3321    473.8132 300.2601261 +22.7480400     210.9091     71.87593      1.082     3.69     5.388949     20.27322     27.40093         5     1.020     0.384   3.99   0
       221    965.7104    466.0213 300.3332653 +22.8135765     339.2553     71.78439      1.473     3.24     5.051872     20.27322     43.47588         8     0.963     0.575  24.74   0
       222    102.9134    466.3626 300.0644105 +22.5551944      322.023     71.83932      1.426     3.40     5.588834     20.27322     37.57056         5     0.784     0.426 -19.73   0
       223    710.0706    460.6775 300.2552673 +22.7355024       419.22     71.96737      1.225     2.81     5.517782     20.27322     71.34212         9     0.941     0.622 -48.87   0
       224    651.3931    456.3473 300.2383839 +22.7166848     785.8273     71.83932      1.447     3.05     5.729122     20.27322     87.93747        14     1.026     0.861  70.94   0
       225    965.8920    449.2834 300.3387541 +22.8088184     442.0097     72.04043      1.392     3.54     5.119229     20.27322     49.18218         8     0.812     0.663  29.64   0
       226    712.2824    448.6352 300.2598648 +22.7327043     837.1542     71.82101      1.388     3.02     5.480076     20.27322     103.9028        16     1.059     0.927  68.64   0
       227    869.4495    444.9165 300.3100810 +22.7786940     973.3731     71.85764      1.535     3.57      5.39374     20.27322      99.0808        18     1.158     0.991 -80.16   0
       228    853.4998    441.5133 300.3062103 +22.7729408     679.4448     72.02217      1.522     3.71     5.388089     20.27322     76.72992        13     1.183     0.833  33.45   0
       229    834.3355    441.7336 300.3001614 +22.7672667     257.8807     71.91252      1.368     3.19      5.37746     20.27322      43.9884         6     0.858     0.492  43.67   0
       230    597.9145    439.1628 300.2272964 +22.6957296     3207.713     71.83932      1.387     2.76     5.776784     20.27322     361.8615        26     1.111     1.049  41.32   0
       231    958.9651    438.2900 300.3401601 +22.8035843     420.3723     71.82101      1.408     3.94     5.203487     20.27322     53.53158         6     1.016     0.553 -20.82   0
       232     73.8595    430.3411 300.0670667 +22.5361457     264.5124     71.93081      1.392     4.88     5.728463     20.27322      35.8156         6     1.123     0.601 -21.81   0
       233    438.0707    426.1507 300.1817337 +22.6441067     454.4196     71.85764      1.580     3.40     5.651283     20.27322     46.41772         7     0.874     0.617  57.00   0
       234   1009.3906    418.5255 300.3623112 +22.8129927     1349.016     71.85764      1.603     4.32      5.07573     20.27322     128.4435        23     1.361     1.146  41.33   0
       235    881.3895    418.3524 300.3224258 +22.7746317     505.6558     71.87593      1.444     4.30     5.390553     20.27322     57.62907         9     1.010     0.835 -11.12   0
       236    967.8431    417.0814 300.3498128 +22.8001432     1049.928     71.82101      1.655     3.50     5.238895     20.27322     99.68947        17     1.189     0.927 -45.93   0
       237    708.5214    413.1646 300.2702024 +22.7213846     1064.201      71.8027      1.438     2.75     5.408144     20.27322     135.7585        18     1.136     0.862  65.28   0
       238    504.3800    413.8304 300.2063797 +22.6604338     505.2657     71.85764      1.591     3.37     5.677157     20.27322     46.74689         7     0.835     0.616 -15.43   0
       239    212.9822    411.1394 300.1165569 +22.5723418     745.5964      71.8027      1.800     3.58     5.576433     20.27322     76.65826        13     1.236     0.703  47.75   0
       240    274.9918    406.8765 300.1372304 +22.5897036     3804.437     71.82101      1.527     3.07     5.344469     20.27322     375.0213        31     1.311     1.140  40.18   0
       241   1008.1765    405.6436 300.3661122 +22.8089248     4476.105     71.91252      1.675     3.33     5.094151     20.27322     427.2993        38     1.358     1.292  71.97   0
       242    222.1045    401.5707 300.1224988 +22.5723291     7771.483     71.78439      1.618     2.98     5.547395     20.27322     870.9373        46     1.350     1.311  47.91   0
       243    988.0760    396.6155 300.3627679 +22.8003133     1760.896     71.85764      1.613     3.41     5.169039     20.27322     173.9505        26     1.250     1.174  21.10   0
       244    362.9480    395.8740 300.1681712 +22.6129024     4837.951     71.87593      1.471     2.95     5.548358     20.27322     545.6831        33     1.213     1.162  82.24   0
       245    607.1334    392.7094 300.2452414 +22.6851439     18664.62     71.96737      1.445     2.68     5.640562     20.27322     2291.101        57     1.286     1.198 -88.58   0
       246    624.9195    392.8253 300.2507459 +22.6905039     911.1843     71.83932      2.028     6.90      5.59079     20.27322     76.75508        19     1.655     0.915 -38.12   0
       247    454.2405    394.4978 300.1970382 +22.6398598     270.0398     71.85764      1.100     2.54     5.672525     20.27322     45.21934         5     0.714     0.474 -17.41   0
       248    850.7288    388.8052 300.3224486 +22.7569590     328.8185      71.8027      1.715     4.92     5.393888     20.27322     36.71275         7     1.035     0.662  24.51   0
       249    804.0120    383.1668 300.3097078 +22.7413531     595.9301     71.83932      1.752     4.45     5.293284     20.27322     44.36547         8     0.864     0.652  38.94   0
       250    227.2451    379.5199 300.1312515 +22.5675391     327.7346     71.83932      1.321     3.29     5.471629     20.27322      41.5195         5     0.745     0.431  24.54   0
       251    941.0677    375.4459 300.3549664 +22.7801574     852.6064     71.83932      1.769     3.69     5.365162     20.27322     97.94159        17     1.223     0.998 -54.05   0
       252    161.8076    372.4711 300.1131855 +22.5459019     2107.377     71.83932      1.648     3.18      5.58929     20.27322     219.6274        26     1.324     1.085  52.14   0
       253    547.7893    362.1571 300.2366647 +22.6585916     6647.008     71.85764      1.442     2.73     5.577018     20.27322     706.4673        39     1.237     1.155 -74.56   0
       254    961.5693    362.7451 300.3654844 +22.7826405     1206.469     71.87593      1.602     3.37     5.283337     20.27322     115.5361        19     1.155     1.032 -70.99   0
       255    262.5584    361.7179 300.1480118 +22.5730111     653.5425     71.82101      1.464     3.64     5.347906     20.27322     74.38894        14     1.176     0.801  -3.11   0
       256    120.7561    355.2720 300.1059993 +22.5286593      590.512     71.83932      1.938     2.63     5.740694     20.27322     57.11769         8     0.936     0.580  74.01   0
       257    808.2154    354.2733 300.3203921 +22.7343052     412.6544     71.85764      1.520     4.53     5.260933     20.27322     40.61347         7     1.058     0.552 -25.90   0
       258    661.5829    352.7503 300.2751722 +22.6899668     419.5524     71.87593      1.159     2.37     5.358212     20.27322     66.90656         7     0.772     0.603  10.23   0
       259    752.0526    351.2126 300.3038723 +22.7166122      1163.43     71.87593      1.505     3.12     5.277923     20.27322     148.8206        17     1.189     0.899  87.66   0
       260    454.4305    348.2987 300.2120843 +22.6266459     6330.798      71.8027      1.454     2.63     5.689006     20.27322     770.6248        36     1.248     1.148  67.05   0
       261    846.4600    343.1620 300.3359244 +22.7425586     1503.549     71.87593      1.668     3.05     5.360946     20.27322     145.6777        24     1.323     1.052 -64.56   0
       262    943.7717    343.2379 300.3662587 +22.7717046     637.5401     71.85764      1.698     4.38     5.371126     20.27322     58.34328        11     1.061     0.884 -47.15   0
       263    439.0522    337.2340 300.2108850 +22.6188606      408.595     71.87593      1.267     3.58     5.726317     20.27322     51.53183         7     0.752     0.653   0.23   0
       264    521.9266    335.0183 300.2374119 +22.6430479     386.1908     71.85764      1.209     2.05     5.590446     20.27322     75.40276         7     0.818     0.496  42.96   0
       265    800.1650    334.5682 300.3242735 +22.7262304     245.5295     71.87593      1.386     3.48     5.208275     20.27322     29.77411         5     0.764     0.458 -17.90   0
       266    502.0550    333.3959 300.2317490 +22.6366299     323.3972     71.82101      1.269     3.43     5.627475     20.27322     34.77882         5     0.778     0.437  19.98   0
       267    819.3442    330.6251 300.3315338 +22.7308377     539.1778     71.85764      1.524     3.04     5.251287     20.27322     64.66169         9     0.899     0.744  19.18   0
       268    342.0631    327.5029 300.1838492 +22.5870088     2671.415     71.94909      1.506     2.86     5.645184     20.27322      294.293        27     1.196     1.133  54.31   0
       269     60.3132    325.0440 300.0970126 +22.5018636     1011.263     71.83932      1.696     3.30     6.082108     20.27322     122.4578        19     1.204     1.057   0.34   0
       270    311.3664    316.9140 300.1777305 +22.5747703     29984.19     71.82101      1.547     2.90     5.585305     20.27322     3337.907        75     1.411     1.299  53.20   0
       271    846.1412    314.6812 300.3450630 +22.7342741     1418.758     71.91252      1.498     2.81     5.280524     20.27322     179.8303        19     1.073     0.993 -16.44   0
       272    800.9890    312.8320 300.3315807 +22.7202278     259.3738     71.85764      1.529     4.66     5.173028     20.27322     33.06437         6     1.459     0.423 -25.02   0
       273      7.5849    304.5811 300.0872604 +22.4801830     4752.876     71.83932      1.766     3.52     6.248526     20.27322     467.7136        41     1.437     1.344  27.52  16
       274    761.4817    303.7359 300.3222115 +22.7057867     539.9686     71.96737      1.276     2.58     5.188661     20.27322     75.04186        10     0.827     0.783 -78.19   0
       275    887.0649    302.6450 300.3617325 +22.7430609     531.0891     71.85764      2.817     5.34     5.308677     20.27322     42.09827         7     1.270     0.633  32.44   0
       276    410.0429    302.2545 300.2131981 +22.6001221     543.5627     71.85764      1.471     3.81     5.860328     20.27322     56.27966        10     1.014     0.855 -74.79   0
       277    185.6511    303.3190 300.1430293 +22.5331948     487.6067     71.87593      1.773     3.99     5.449599     20.27322     43.15836         9     1.014     0.639  -5.41   0
       278    627.2189    297.7804 300.2822924 +22.6638786     291.7408     71.85764      1.955     5.48     5.339873     20.27322      31.1772         6     1.282     0.660  84.65   0
       279    721.8385    297.0278 300.3120275 +22.6919909     1982.822     71.87593      1.450     2.67     5.218897     20.27322     237.1275        22     1.068     1.027   8.45   0
       280    530.6244    291.9442 300.2540910 +22.6332761     629.8702     71.87593      0.627     2.85     5.546736     20.27322     392.9332         6     0.672     0.356  14.81   0
       281    937.0992    289.8628 300.3814888 +22.7543575     687.8756     71.96737      1.559     3.30     5.364995     20.27322      72.8238        13     0.956     0.939  -3.01   0
       282    383.6302    281.2020 300.2118028 +22.5861622     2253.109     71.82101      1.711     3.60     5.831528     20.27322     218.0594        25     1.361     1.041  73.97   0
       283    595.6731    280.4122 300.2780953 +22.6494412     340.9777     71.87593      1.312     3.31     5.372495     20.27322     46.95499         6     0.691     0.671  65.17   0
       284    822.7097    274.3905 300.3508216 +22.7156759     517.1857     71.78439      1.202     2.79     5.228982     20.27322     77.11605        11     0.959     0.720 -45.27   0
       285    814.9415    274.9993 300.3482015 +22.7135260     368.7105     71.82101      1.433     3.64     5.212365     20.27322      40.8223         8     0.847     0.739 -79.26   0
       286    722.1669    271.9427 300.3202648 +22.6848777     315.8938     71.87593      1.401     5.61     5.309704     20.27322     37.27854         8     1.167     0.760 -82.24   0
       287    705.1713    272.2258 300.3148749 +22.6798714     325.6103     71.83932      1.178     3.97     5.308831     20.27322     52.64527         7     0.860     0.602 -37.60   0
       288    459.4216    260.7440 300.2420332 +22.6029866     1206.833     71.89423      1.333     2.66     5.843167     20.27322     154.7912        17     1.065     0.967 -66.78   0
       289    266.8377    261.2994 300.1819097 +22.5454559     486.0336     71.87593      1.671     4.63      5.56717     20.27322     41.06562         8     0.876     0.714 -17.57   0
       290    970.8019    257.3895 300.4025367 +22.7551013     290.7892     71.67437      1.249     2.24      5.51635     20.27322     38.69293         5     0.695     0.457 -19.00   0
       291    199.6155    256.1458 300.1626690 +22.5238338     284.6048     71.85764      1.592     4.99     5.472286     20.27322     28.92889         5     0.988     0.712 -15.37   0
       292    842.3970    254.4909 300.3634149 +22.7158455     296.5853     71.76606      1.438     5.16     5.338494     20.27322     31.56069         7     0.904     0.832  70.18   0
       293    704.3252    252.6758 300.3209505 +22.6739979     2244.296     71.94909      1.488     2.62     5.386572     20.27322     263.7075        25     1.168     1.074 -80.69   0
       294    965.7170    247.1423 300.4042726 +22.7506323     3231.543     71.94909      1.559     2.92     5.514434     20.27322     365.3225        29     1.296     1.129 -64.17   0
       295    412.5059    236.5352 300.2352749 +22.5819792     634.5804     71.96737      1.522     4.35     5.976332     20.27322     81.68644        19     1.250     1.205  53.11   0
       296    118.3180    231.0218 300.1455323 +22.4922572     488.3104     71.82101      1.590     2.82     6.023831     20.27322     67.25869         9     0.917     0.763 -58.60   0
       297     87.4984    230.6014 300.1360866 +22.4829001     1465.019     71.76606      1.777     4.28     6.225051     20.27322     152.9988        26     1.452     1.178  -1.14   0
       298    981.3139    227.7327 300.4154336 +22.7497150     475.5728     71.94909      1.379     3.74      5.55417     20.27322     64.64497        10     1.048     0.898  25.45   0
       299    825.2482    224.7611 300.3677057 +22.7021640     279.8607     71.89423      1.365     3.68     5.425304     20.27322      42.6715         8     0.935     0.613   5.50   0
       300    171.2762    222.8672 300.1646441 +22.5057854      581.325     71.94909      1.549     3.34     5.620196     20.27322      70.2167         8     0.857     0.777  86.44   0
       301    966.4233    220.7002 300.4130665 +22.7432372     389.9093      71.8027      1.719     4.06     5.553892     20.27322     38.98798         6     0.884     0.532  43.94   0
       302     26.9097    219.6630 300.1207989 +22.4616003     291.8221     71.94909      1.512     3.91     6.273739     20.27322     39.55862         6     1.042     0.421 -13.03   0
       303    775.9972    214.4953 300.3556749 +22.6844726     675.0253     71.76606      1.333     3.31     5.570551     20.27322     78.24014         9     0.990     0.683  16.44   0
       304    366.3941    214.0649 300.2282053 +22.5617119     279.2236     71.82101      1.172     2.67     5.931706     20.27322     50.17422         5     0.715     0.456  71.47   0
       305    867.4216    207.3555 300.3865033 +22.7097780     289.5349     71.91252      1.251     3.79     5.618176     20.27322     45.60052         7     1.018     0.669 -25.16   0
       306    874.1822    203.4469 300.3898794 +22.7106767     2130.579     71.89423      1.505     2.61     5.640961     20.27322     260.0148        25     1.164     1.067  27.97   0
       307    292.7092    200.2741 300.2097438 +22.5356782     2206.666     72.02217      1.568     2.91     5.705671     20.27322     243.1918        27     1.221     1.156  37.64   0
       308    772.1375    195.3331 300.3606835 +22.6778071      603.338     71.91252      1.399     2.74     5.705918     20.27322     70.76022         9     0.924     0.705  61.23   0
       309    370.6152    195.5177 300.2355316 +22.5576475     1024.742     71.83932      1.528     3.06     5.934274     20.27322     109.4004        16     1.043     0.960 -53.58   0
       310    417.3587    192.5158 300.2510561 +22.5707845     237.5148     71.82101      1.722     3.97      5.96499     20.27322     26.39174         6     0.943     0.479 -88.87   0
       311    879.5578    192.3333 300.3951592 +22.7090885     315.4677     71.83932      1.547     3.41      5.70872     20.27322     35.11298         5     1.072     0.314 -20.06   0
       312    187.8056    187.4801 300.1812559 +22.5005753     748.7107     71.78439      1.678     3.26     5.823043     20.27322     83.76857        16     1.103     0.958 -43.53   0
       313    305.8399    187.1460 300.2180853 +22.5358402     186.2205     71.85764      1.153     2.77     5.807814     20.27322      42.3104         6     0.759     0.535 -54.58   0
       314    790.0322    184.6529 300.3697258 +22.6800910     622.8839     71.87593      1.620     2.98     5.737438     20.27322     70.30448        10     0.948     0.759  20.85   0
       315    725.2038    184.5418 300.3495485 +22.6606576     1767.064     71.82101      1.525     2.77     5.806726     20.27322     200.4931        21     1.140     1.074  19.57   0
       316    208.6979    181.0533 300.1898374 +22.5049890     448.7942     71.94909      1.239     5.05     5.711655     20.27322     57.91087         9     1.229     0.588 -20.94   0
       317    996.6328    177.3391 300.4365520 +22.7397993     922.6163     71.89423      1.717     2.86     5.747327     20.27322     87.31894        16     1.085     0.870  49.53   0
       318    729.3026    176.1010 300.3535624 +22.6594572     785.1114     72.05869      1.640     3.93     5.856113     20.27322     87.10135        17     1.242     1.002 -52.87   0
       319    498.6656    177.5835 300.2812146 +22.5908410     385.9019     71.83932      1.583     4.54     5.872023     20.27322     31.40673         7     1.195     0.490  -2.95   0
       320    649.7853    175.3325 300.3290255 +22.6354361     1168.859     71.85764      1.433     2.63     5.761322     20.27322     153.1924        18     1.092     0.916  81.30   0
       321    470.8917    171.6976 300.2744728 +22.5808330     425.5327     72.04043      1.524     3.38     5.935206     20.27322     49.67362         5     0.811     0.409  17.42   0
       322    845.1967    166.8635 300.3926968 +22.6914815     1446.902     71.82101      1.555     3.33     5.891896     20.27322      136.577        19     1.135     1.018  70.45   0
       323    857.3068    166.1383 300.3967093 +22.6948963     934.4681     71.94909      1.699     3.38     5.905749     20.27322     76.70959        17     1.167     0.927  22.66   0
       324    576.1020    167.0700 300.3087438 +22.6110035     913.8999     71.98564      1.352     2.87     5.772472     20.27322     116.5061        17     1.160     0.868  -1.37   0
       325    902.9873    165.5043 300.4111655 +22.7083809     299.8803     71.78439      1.228     3.71     5.832977     20.27322       31.605         6     0.792     0.498   4.15   0
       326    867.4399    161.9953 300.4012132 +22.6967363     193.4081     71.87593      1.658     4.08     5.934025     20.27322     30.01863         5     1.082     0.439 -26.68   0
       327   1018.2726    156.8734 300.4499405 +22.7403833      1665.65     71.91252      1.626     3.43     5.800452     20.27322     172.6392        22     1.274     1.097  73.12  16
       328    974.1187    156.4410 300.4362993 +22.7270521     1268.323     71.82101      1.747     3.77     5.808772     20.27322     125.8214        18     1.176     1.010  36.99   0
       329    208.0514    148.8966 300.2000584 +22.4955589     779.3934     71.93081      1.732     4.21     5.874165     20.27322     62.71239        15     1.161     1.036 -31.51   0
       330     69.9726    143.7584 300.1587865 +22.4527123     2327.993     71.87593      1.741     3.32     6.667462     20.27322     206.7266        31     1.398     1.208 -76.33   0
       331    893.1684    141.3022 300.4159465 +22.6984811     646.2438     71.83932      1.453     3.26     5.913749     20.27322     75.94483        12     1.073     0.798  68.46   0
       332     19.7676    141.1062 300.1440406 +22.4369057     409.7457      71.8027      1.422     3.47     6.667462     20.27322     46.63116         6     0.770     0.552 -38.05   0
       333    227.2991    137.0729 300.2098775 +22.4979285     5664.784     72.00391      1.655     3.20     5.816387     20.27322     585.7566        41     1.364     1.285  81.06   0
       334    209.4204    138.3498 300.2039022 +22.4929395      375.192     71.85764      1.694     4.02     5.912407     20.27322     32.05334         6     1.091     0.423 -34.38   0
       335     11.4413    131.4687 300.1445759 +22.4316433     1282.325     71.83932      1.781     4.21     6.667462     20.27322     129.2889        20     1.413     1.044  35.90   0
       336    210.9488    128.0486 300.2077159 +22.4904383     780.7847     71.89423      1.740     2.76     5.943488     20.27322     72.66364         8     0.841     0.678   4.32   0
       337   1023.8441    124.8213 300.4620680 +22.7328264     1455.526     54.90414      1.294     3.91     5.757105     20.27322     269.3676        12     1.464     0.362 -89.16  24
       338    975.1766    117.8780 300.4491278 +22.7162727     2785.087     71.83932      1.631     3.18      5.83774     20.27322     259.8365        28     1.286     1.161 -74.12   0
       339    871.4841    119.0018 300.4164091 +22.6855786     3549.492     71.76606      1.540     3.02     5.963238     20.27322     349.5668        31     1.278     1.164  83.25   0
       340    173.9974    114.7434 300.2005342 +22.4755468     292.8522     71.82101      1.370     4.71     6.145435     20.27322     49.35062         8     0.980     0.641  -7.25   0
       341    420.9195    113.8586 300.2776575 +22.5492470     768.8185     71.91252      1.748     3.22     5.933783     20.27322     85.03907        13     1.061     0.920   0.54   0
       342    535.2796    112.0540 300.3138566 +22.5829673     295.0557     71.89423      1.468     4.73     5.863896     20.27322     41.61314         7     0.912     0.695 -87.52   0
       343    344.9070    106.1325 300.2564989 +22.5242646     692.9445     72.00391      1.730     5.93     5.982772     20.27322     60.06687        12     1.253     0.972 -57.22   2
       344    349.5152    104.5362 300.2584504 +22.5251859     438.6511     71.94909      1.963     4.74     5.988991     20.27322      45.4749         7     1.153     0.552  19.63   2
       345    879.8929    104.3668 300.4237750 +22.6838839      326.029      71.8027      1.472     4.48     5.972142     20.27322     34.45681         5     1.195     0.477   3.70   0
       346    110.9593    102.9896 300.1847399 +22.4532851     538.1777     71.85764      1.365     3.77     6.560655     20.27322     69.65739        10     0.953     0.735  22.77   0
       347    472.2841    101.2225 300.2977461 +22.5609943     1813.112     71.82101      1.503     2.80     5.933527     20.27322     194.0639        24     1.232     1.098  62.45   0
       348    400.3004    101.9181 300.2751074 +22.5396413     457.0767     72.02217      1.322     2.90     5.950212     20.27322     67.95895         9     0.881     0.702  16.66   0
       349    534.6631    100.7245 300.3173358 +22.5795258     397.9216     71.91252      1.492     4.92     5.871387     20.27322     38.23122         7     1.010     0.678   8.50   0
       350    214.7853     96.7686 300.2190451 +22.4826018     393.8396     71.85764      1.618     6.00     6.073492     20.27322     47.19681         8     1.117     0.907  80.14   0
       351    760.6164     91.0067 300.3909036 +22.6443556     333.0725     71.78439      1.395     2.72     5.906588     20.27322     46.33594         7     0.735     0.662 -82.36   0
       352    608.3088     87.4996 300.3445653 +22.5977679     158.2675     72.02217      1.197     4.31     5.876923     20.27322     29.58108         7     0.990     0.535 -60.46   0
       353    906.5753     85.5410 300.4381998 +22.6864491     268.8062     71.85764      1.408     3.40     5.972548     20.27322     53.01181         6     0.948     0.396  69.92   0
       354    246.3544     80.9598 300.2339880 +22.4875159     5968.292     71.93081      1.620     3.03     6.027023     20.27322     611.0932        43     1.389     1.301  86.87   0
       355    752.7742     81.9005 300.3914090 +22.6393899      367.657      71.8027      1.252     3.09     5.877639     20.27322      37.5233         6     0.744     0.566  47.21   0
       356     97.4023     80.6759 300.1877545 +22.4428146     647.9738     71.76606      1.834     3.86     6.519712     20.27322     68.80744        12     1.237     0.681 -18.04   0
       357    875.8171     78.9499 300.4307395 +22.6753522     334.8618     71.87593      1.218     3.13     5.968143     20.27322     40.01798         6     0.743     0.565  51.24   0
       358    262.1187     72.5972 300.2416019 +22.4898347     336.1065     71.76606      1.314     3.21     6.017357     20.27322     54.27576         7     1.038     0.446 -50.65   0
       359      8.1001     71.2460 300.1630501 +22.4133493     383.9288     71.87593      1.263     2.60     6.436851     20.27322     53.01806         8     0.777     0.725   2.37   0
       360    492.4645     66.4582 300.3152948 +22.5570426     6259.617     71.89423      1.535     2.68     5.898788     20.27322     750.4319        39     1.313     1.162  81.89   0
       361    377.8799     66.5917 300.2795737 +22.5227752      644.132      71.8027      1.299     3.22     6.077112     20.27322     68.96642         8     0.840     0.673  40.86   0
       362    549.7841     61.5892 300.3347263 +22.5728009     397.5484      71.8027      1.429     1.96     5.864212     20.27322      49.0029         5     0.670     0.462  20.46   0
       363    686.2339     57.9625 300.3784210 +22.6125946     307.3905     71.89423      1.414     3.77     5.867328     20.27322     42.95065         5     0.816     0.505  23.74   0
       364    744.9230     56.2203 300.3972815 +22.6296543     891.6451     71.85764      1.734     3.20     5.794009     20.27322     101.7452        16     1.110     0.936  66.47   0
       365    837.5025     55.5459 300.4263707 +22.6571574     352.6084     71.94909      1.060     2.97     5.886312     20.27322     58.80747         6     0.863     0.445  17.58   0
       366    185.4108     50.3178 300.2249573 +22.4604585      511.209     71.82101      1.682     3.17     6.074617     20.27322     50.28639         6     0.705     0.649  -3.02   0
       367    543.9662     49.2341 300.3369166 +22.5675072     427.3199     71.93081      1.256     3.25     5.863555     20.27322     57.80453         7     0.782     0.607  13.77   0
       368    620.7964     46.5914 300.3617105 +22.5897421     6195.408     71.67437      1.531     2.77     5.876744     20.27322      806.299        39     1.347     1.152  78.72   0
       369    395.6596     45.5333 300.2919307 +22.5220462     1465.078     71.89423      1.541     2.69     6.144742     20.27322     182.6172        21     1.195     1.008 -30.51   0
       370    661.7668     43.9510 300.3753342 +22.6012434     911.2041     71.89423      1.519     3.77     5.873274     20.27322     102.1515        16     1.193     0.979  70.11   0
       371    677.8193     40.6212 300.3814162 +22.6050892     711.5377     71.85764      1.686     2.23      5.86022     20.27322     70.67482         7     0.687     0.643  -3.92   0
       372    948.0859     38.1831 300.4664962 +22.6852373     548.4596     71.82101      1.636     2.46     5.743841     20.27322     64.62196         6     0.732     0.539  31.71   0
       373    144.5102     38.0564 300.2162091 +22.4446847     540.1871     71.89423      1.588     4.01     6.079026     20.27322     73.40924         8     1.084     0.689  24.14   0
       374    716.4345     35.7354 300.3950362 +22.6152383      418.802     71.85764      1.310     3.22       5.7743     20.27322     60.15197         9     1.005     0.586  -5.39   0
       375    664.9813     31.4686 300.3803797 +22.5986153     2841.766     71.85764      1.520     2.78     5.863381     20.27322     360.2162        29     1.307     1.078  80.46   0
       376    306.2576     32.5290 300.2683167 +22.4915395     362.9883     71.87593      1.259     3.09     6.119896     20.27322     49.80844         7     0.787     0.684  84.13   0
       377    680.2656     30.4081 300.3854873 +22.6028838     955.1405     71.83932      2.126     4.36     5.844138     20.27322     75.60718        15     1.315     0.929  63.30   0
       378    751.4449     23.0729 300.4100534 +22.6220707     1479.057     71.83932      1.526     2.90     5.687863     20.27322     162.2333        22     1.187     1.062  85.12   0
       379    911.3773     22.0576 300.4602658 +22.6696184     111.1979     71.85764      1.084     4.52      5.93227     20.27322     33.55175         5     0.980     0.592  14.18   0
       380    829.3747     18.0871 300.4359708 +22.6439490     312.3579      71.8027      1.087     4.26     5.784643     20.27322     35.86347         6     0.910     0.569  -3.72   0
       381    485.0331   1000.9840 300.0096131 +22.8231817     500.4696     71.83932      2.243     5.97     3.911707     20.27322     33.46862         7     1.341     0.749  -2.73   0
       382    495.0750     15.7923 300.3325211 +22.5432581     1053.532     71.82101      1.375     2.69     5.862382     20.27322      144.006        13     0.977     0.792  11.82   0
       383     67.8897     15.6017 300.1996594 +22.4152819     536.4803     71.78439      1.342     3.85     5.929105     20.27322     55.49164         9     1.169     0.481   4.87   0
       384    294.3116   1012.2064 299.9466012 +22.7691817     1341.897     71.76606      2.400     5.90     7.518769     20.27322     83.37757        28     1.589     1.364  45.92   0
       385    131.8061   1009.4133 299.8969696 +22.7196100     836.9584     71.72939      3.712     5.02     90.85765     20.27322     45.87857         9     1.074     0.664 -24.68   3
       386    130.1552   1006.3253 299.8974607 +22.7182293     1267.304     71.83932      3.441     8.12     88.22427     20.27322     51.75203        18     1.920     0.961 -22.61   2
