#   1 NUMBER                 Running object number                                     
#   2 X_IMAGE                Object position along x                                    [pixel]
#   3 Y_IMAGE                Object position along y                                    [pixel]
#   4 ALPHA_J2000            Right ascension of barycenter (J2000)                      [deg]
#   5 DELTA_J2000            Declination of barycenter (J2000)                          [deg]
#   6 FLUX_APER              Flux vector within fixed circular aperture(s)              [count]
#   7 FLUXERR_APER           RMS error vector for aperture flux(es)                     [count]
#   8 FLUX_RADIUS            Fraction-of-light radii                                    [pixel]
#   9 FWHM_IMAGE             FWHM assuming a gaussian core                              [pixel]
#  10 BACKGROUND             Background at centroid position                            [count]
#  11 THRESHOLD              Detection threshold above background                       [count]
#  12 FLUX_MAX               Peak flux above background                                 [count]
#  13 ISOAREA_IMAGE          Isophotal area above Analysis threshold                    [pixel**2]
#  14 A_IMAGE                Profile RMS along major axis                               [pixel]
#  15 B_IMAGE                Profile RMS along minor axis                               [pixel]
#  16 THETA_IMAGE            Position angle (CCW/x)                                     [deg]
#  17 FLAGS                  Extraction flags                                          
         1    859.3488     15.9212 300.4334060 +22.6232034     2180.507     72.53652      1.409     2.63     4.571584     20.46476     258.7102        22     1.122     0.961  38.62   0
         2    565.1099     13.9386 300.3424081 +22.5345624     503.3615     72.62885      1.394     3.79      4.96659     20.46476     66.93823         8     1.100     0.499 -45.93   0
         3    243.0093     11.4048 300.2430450 +22.4373648     1033.039     72.38857      1.450     2.56     4.937672     20.46476     127.8574        14     1.082     0.830  56.73   0
         4    807.8512      8.4125 300.4197922 +22.6056334     897.8371     72.57346      1.372     3.15     4.686492     20.46476     114.0189        14     1.081     0.792  56.59   0
         5    514.8475      6.4471 300.3291934 +22.5173594     417.5762     72.55499      1.476     3.28     5.171067     20.46476     52.39625         5     0.890     0.491  53.30   0
         6    802.8964   1015.7121 300.0910994 +22.8935375     779.5301     72.72105      2.039     7.74     3.724223     20.46476     45.29998        17     1.454     1.153  15.82  16
         7    269.1504   1014.7496 299.9253356 +22.7331107     4886.445     72.57346      8.632    24.76     52.58398     20.46476     96.91411       346     5.973     5.263 -30.40  19
         8    289.0064   1014.3474 299.9316378 +22.7389563     5961.167     72.51804      9.252    30.10     47.95533     20.46476     111.0205       546     6.872     6.085 -17.08  27
         9    307.4977   1002.9794 299.9410848 +22.7412485      8488.21     72.46258      9.542    32.51     32.18399     20.46476     180.4208       820    11.226     4.977  63.14  19
        10    236.0577   1005.1373 299.9181796 +22.7204206     2462.581     72.59193      7.140    20.42     54.08524     20.46476     69.66887       119     5.511     2.101  73.79  19
        11    145.2001   1018.1199 299.8857272 +22.6968607     4463.942     72.40707     11.313    33.73      50.7814     20.46476     97.29875       435     7.941     4.822  -2.90  27
        12    143.0166    983.6889 299.8962527 +22.6863386     4002.875     72.46258     26.947    87.18     32.53624     20.46476     106.6962      3377    20.616    14.061 -41.85  27
        13    567.2252   1004.3015 300.0214348 +22.8195727     403.8415     72.48107      1.606     3.59     2.965312     20.46476     38.30838         5     0.856     0.451  46.96   0
        14     51.5703   1001.5135 299.8620539 +22.6639848     950.1785     72.53652      3.220     5.55     3.919998     20.46476     58.48677        14     1.524     0.824 -67.87   0
        15    312.2394    976.4535 299.9511901 +22.7350678     141.3486     72.53652      1.388     6.73     20.79124     20.46476     42.71961         9     1.389     0.914 -38.98   0
        16    600.4719    975.9193 300.0410180 +22.8214059     508.4074     72.66574      3.074     6.23     3.093753     20.46476     28.35439        11     1.158     0.943 -22.56   0
        17    629.1804    972.7574 300.0509827 +22.8291108     1594.177     72.57346      1.829     4.59      3.11046     20.46476     98.66631        26     1.410     1.187  30.98   0
        18    523.2537    969.4548 300.0190917 +22.7963855     1047.667     72.57346      1.664     3.62     3.325228     20.46476     95.95239        19     1.202     1.029  18.84   0
        19    453.3919    967.4490 299.9980109 +22.7748482     7450.717     72.53652      2.009     9.94     3.621191     20.46476     669.0297        52     2.005     1.373  -5.08   0
        20    486.4326    953.8702 300.0127069 +22.7808681     665.4124     72.53652      2.053     6.82     3.485902     20.46476     41.75138        15     1.289     1.011  26.12   0
        21    995.5730    999.5047 300.1564222 +22.9466547     642.7418     72.44408      1.945     7.00     3.791054     20.46476     44.87337        16     1.382     0.993 -38.38   0
        22      1.2980    951.2271 299.8628075 +22.6344796     789.0419     56.21516      1.159     2.79      3.80155     20.46476     161.4161         9     1.093     0.455  87.04  24
        23   1000.1219    946.2260 300.1751784 +22.9327216     2116.241     72.53652      1.983     4.96     3.610261     20.46476     111.8326        32     1.490     1.353  35.69   0
        24    650.4393    943.2588 300.0671988 +22.8270245     430.9672     72.53652      1.743     4.70     3.365997     20.46476     34.28155         8     1.047     0.598 -15.62   0
        25    498.4434    941.9870 300.0203097 +22.7810635     385.7426     72.55499      1.751     4.55     3.442019     20.46476      32.3268         5     1.022     0.576 -14.90   0
        26    214.9029    984.4149 299.9183492 +22.7081302     1802.364     72.44408      6.033    13.04     44.64959     20.46476     54.08183        48     2.541     1.862   4.70   0
        27    788.9185    935.0344 300.1129984 +22.8661932     792.7369     72.49956      2.421     7.62     3.240963     20.46476     48.84828        20     1.765     0.921  64.11   0
        28    823.8296    929.1260 300.1257966 +22.8749650      1058.95     72.55499      1.720     3.96     3.168169     20.46476     85.51705        21     1.214     1.148  42.61   0
        29    601.7766    930.1364 300.0563202 +22.8086634     421.0285     72.51804      1.835     4.08     3.428949     20.46476     33.78815         5     0.758     0.679  39.28   0
        30    181.5346    927.0342 299.9266501 +22.6816661      942.173     72.53652      8.638     9.03     9.384789     20.46476     38.95366        15     2.020     1.126 -34.05   1
        31     33.4476    926.2753 299.8809052 +22.6369854     585.5646     72.53652      1.947     5.14     3.915685     20.46476     47.43496        12     1.489     0.928 -32.68   0
        32    846.0018    922.8897 300.1347337 +22.8798225     11297.85     72.44408      1.815     3.94     3.193827     20.46476     736.5975        56     1.507     1.431  75.97   0
        33    892.4599    923.9453 300.1488673 +22.8940531     473.4012     72.59193      2.118     4.02     3.337099     20.46476      38.0175         6     0.931     0.495 -47.66   2
        34    279.2064    919.1355 299.9595703 +22.7087206     570.8439     72.49956      5.814     5.41     7.602788     20.46476     25.56783         5     1.224     0.674  69.43   0
        35    157.6803    915.0135 299.9231498 +22.6710594     1313.946     72.51804      6.605     5.50     6.359011     20.46476     68.00822        21     1.697     1.056 -59.53   0
        36    154.5547    913.6071 299.9226364 +22.6697179     643.6218       72.555      3.237     3.49     6.222974     20.46476     41.32567         5     1.027     0.342 -68.13   1
        37    897.3285    910.3677 300.1548019 +22.8916148     429.7454     72.53652      1.677     5.55     3.465879     20.46476     41.70586         9     1.103     0.787 -26.77   0
        38    551.4814    910.7428 300.0469767 +22.7880129     543.9214     72.57346      1.918     6.22     3.478661     20.46476     39.01445        10     1.203     0.904   4.30   0
        39    128.3343    908.3002 299.9162180 +22.6603250     649.9495     72.62885      2.221     3.77     5.149898     20.46476     39.64841         5     0.967     0.422  75.93   0
        40    148.3543    905.5309 299.9233373 +22.6655417     761.2053     72.51804      4.585     5.60      5.75723     20.46476     38.33588         9     1.350     0.837  73.55   0
        41    854.3796    904.9719 300.1431733 +22.8771907     1335.116     72.53652      1.732     4.51     3.277845     20.46476     88.88242        24     1.425     1.111  58.59   0
        42    706.5832    902.4082 300.0979694 +22.8321407      447.551     72.48107      1.589     3.99     3.446393     20.46476     41.58434         8     0.989     0.767 -34.64   0
        43    892.7357    898.2818 300.1573023 +22.8867683     814.6445     72.64729      1.821     6.02     3.524513     20.46476     53.80708        17     1.511     0.838  47.03   0
        44   1001.0896    895.3034 300.1920476 +22.9183896     224.9825     72.72105      1.406     4.42     3.500139     20.46476     32.75384         7     0.924     0.602 -33.03   0
        45    941.0635    890.0259 300.1750509 +22.8988839     586.3448     72.51804      1.914     5.91     3.800148     20.46476     45.12993        12     1.359     0.723 -12.92   0
        46    792.6807    888.4488 300.1293258 +22.8539504     855.0481     72.57346      1.921     4.81      3.28673     20.46476     57.72943        18     1.309     1.003 -32.49   0
        47    720.9070    982.1254 300.0764931 +22.8593112     6913.916     72.68418      1.894     4.00     3.426127     20.46476     422.3808        50     1.512     1.451  86.22   0
        48    504.9674    885.0460 300.0408627 +22.7666880     4164.158     72.57346      1.638     3.36     3.475131     20.46476     336.4294        30     1.274     1.198  78.88   0
        49    803.7252    886.0483 300.1335472 +22.8565726     614.7677     72.53652      1.583     5.95     3.285823     20.46476     54.41069        13     1.294     0.770   7.37   0
        50    166.2408    873.6338 299.9392682 +22.6617683     530.8504     72.59193      2.563     6.97     5.289757     20.46476     40.51988        11     1.334     1.020 -29.77   0
        51    283.4080    873.4114 299.9757488 +22.6968721     486.5393     72.42558      1.801     4.64     4.946556     20.46476     46.81741         7     1.289     0.475  41.64   0
        52    230.6275    870.6921 299.9602300 +22.6802515     635.2188     72.48107      1.542     5.63     6.195105     20.46476     73.97379        11     1.191     0.749 -66.57   0
        53    207.4156    867.6892 299.9539940 +22.6724235     1588.622     72.46258      1.783     3.85     5.645678     20.46476     144.4267        22     1.258     1.178  32.13   0
        54    145.3799    944.9055 299.9096050 +22.6759337     3944.769     72.46258     21.838    51.52     14.27227     20.46476     92.73835       893    11.742     6.273 -37.43   3
        55    738.7123    855.5845 300.1232055 +22.8283364     471.4388     72.48107      1.953     3.70     3.437563     20.46476     38.40695         7     0.853     0.832   7.84   0
        56    509.7848    854.6732 300.0522402 +22.7594201     393.8159     72.53652      1.843     4.43     3.525297     20.46476     32.68125         5     1.170     0.478  59.02   0
        57    816.7396    848.9819 300.1496580 +22.8498339     651.4279     72.49956      1.665     4.68     3.597504     20.46476     53.05201        12     1.133     0.804  23.06   0
        58    195.1766    980.9059 299.9133619 +22.7012021     1465.735     72.44408      5.302     8.21     42.49092     20.46476     50.22442        14     1.835     1.028 -66.90   2
        59    685.0071    843.1747 300.1105175 +22.8086717     4876.208     72.53652      1.549     3.07     3.706029     20.46476     409.8074        34     1.270     1.174  78.28   0
        60    487.1743    840.4236 300.0498400 +22.7485497     630.5782     72.49956      1.626     4.37     3.443961     20.46476     66.19949        13     1.149     0.949  21.90   0
        61    235.1581    836.8187 299.9726537 +22.6718995     1423.803     72.55499      1.823     3.40     4.866075     20.46476     124.6623        22     1.183     1.089  -7.08   0
        62    705.8421    835.6074 300.1194662 +22.8127470     786.9899     72.55499      1.724     4.38     3.693918     20.46476       65.842        17     1.178     1.090 -64.42   0
        63    254.5224    833.7826 299.9796588 +22.6768404     316.7671     72.53652      1.431     4.73     4.630882     20.46476     40.31932         7     1.029     0.655 -79.67   0
        64    861.1024    823.0181 300.1719246 +22.8556777     4189.588     72.46258      1.664     3.34     4.012111     20.46476     298.9449        36     1.398     1.267  53.42   0
        65    269.0511    816.7934 299.9896986 +22.6763288     530.9672     72.53652      1.694     6.31     4.346603     20.46476     39.45296        14     1.295     0.864   3.29   0
        66    578.1967    815.5645 300.0862466 +22.7687182     596.9282     72.53652      1.407     3.41     3.900407     20.46476     57.49396        11     0.968     0.789 -48.86   0
        67    224.5654    813.2946 299.9770113 +22.6619754     911.6573     72.51804      1.559     3.15     4.535223     20.46476     99.96249        15     1.014     0.960  57.19   0
        68    374.0606    805.4294 300.0260384 +22.7045780      53322.1     72.57346      1.597     3.07     4.039574     20.46476     5096.836       100     1.435     1.420  51.59   0
        69    639.4960    808.6805 300.1075656 +22.7851252      401.826     72.66574      1.530     4.12     3.985831     20.46476     48.91147         7     0.925     0.770  10.44   0
        70    631.9270    804.6588 300.1065171 +22.7817013     1676.214     72.57346      1.523     3.10     4.014325     20.46476     160.5356        22     1.146     1.096 -28.37   0
        71    302.5646    803.9692 300.0042853 +22.6827077     364.6833     72.55499      1.352     3.20     4.163616     20.46476     61.77023        10     1.051     0.609 -30.09   0
        72    660.8378    800.6546 300.1168196 +22.7892211     860.7886     72.53652      1.453     3.11     4.042818     20.46476     101.2305        16     1.065     0.922 -15.96   0
        73     60.1253    800.0692 299.9302315 +22.6088264     884.3821     72.61039      2.316     4.45      3.31156     20.46476     78.94359        21     1.316     1.276  43.06   0
        74     27.1849    800.7614 299.9197786 +22.5991358     785.3339     72.55499      2.156     6.84     3.159416     20.46476     43.00782        14     1.398     0.937 -14.82   0
        75    671.9073    799.0131 300.1207998 +22.7920690     566.5497     72.46258      1.395     2.99      4.04506     20.46476     72.95995        11     0.976     0.732  84.27   0
        76    776.7752    795.1689 300.1547083 +22.8224049     385.8632     72.53652      1.449     5.01     4.136185     20.46476     45.05571         8     0.999     0.711  27.31   0
        77    423.7756    782.6946 300.0488908 +22.7129708     31518.59     72.44408      1.554     3.07     3.752768     20.46476     3125.921        72     1.364     1.329  43.28   0
        78    814.8120    785.4622 300.1697138 +22.8310198     751.0334     72.49956      1.615     3.99     4.268492     20.46476     61.45016        14     1.111     0.904  37.39   0
        79    438.1051    783.2490 300.0531674 +22.7174283     1915.571     72.59193      1.537     2.97     3.700517     20.46476     176.1044        22     1.109     1.036  50.56   0
        80    313.0796    781.8953 300.0147308 +22.6795320      253.673     72.64729      1.168     4.87     4.126105     20.46476     32.33661         7     1.113     0.604  -7.90   0
        81    947.0208    778.6484 300.2131308 +22.8686854     2944.494     72.55499      1.718     3.65     4.152527     20.46476      212.303        29     1.266     1.223  21.92   0
        82    976.2681    777.2237 300.2227120 +22.8770400      332.559     72.51804      1.521     3.74     3.945242     20.46476     31.33889         5     0.910     0.442  43.98   0
        83    435.2126    777.1315 300.0542566 +22.7148056     538.7368     72.55499      1.402     2.58     3.732333     20.46476     63.13345         8     0.814     0.619 -52.44   0
        84    306.2054    774.5630 300.0149777 +22.6753665       812.05     72.57346      1.637     3.54     4.117593     20.46476     102.9678        14     1.149     0.963  77.43   0
        85    704.7192    774.6950 300.1389236 +22.7949263     965.2534     72.68418      1.618     3.71     4.072084     20.46476      87.0453        15     1.052     0.949 -14.14   0
        86    599.7897    773.3397 300.1066967 +22.7630763     232.3966     72.49957      1.099     3.80     4.105694     20.46476     27.01402         5     1.033     0.401  85.47   0
        87    551.8118    769.3634 300.0930576 +22.7475478     771.4088     72.51804      1.467     3.08     4.031594     20.46476     94.78938        17     1.094     0.964  55.34   0
        88    111.1236    769.9092 299.9558743 +22.6154891     462.9724     72.68418      1.681     4.93     3.710843     20.46476     52.34946         9     1.288     0.824 -69.32   0
        89    953.4722    766.7040 300.2190256 +22.8671880      456.126     72.66574      1.497     4.90     4.140268     20.46476     47.04999         9     0.976     0.825 -24.60   0
        90    498.1559    765.1716 300.0777251 +22.7302534     467.5392     72.57346      1.731     4.35     3.786638     20.46476     42.29645         8     1.117     0.606  47.47   0
        91    453.9496    765.3785 300.0639057 +22.7170539     324.5729     72.53652      1.674     5.21     3.742874     20.46476      35.4555         6     0.975     0.786  74.85   0
        92    409.8489    765.1188 300.0502736 +22.7037510     358.9545     72.57346      1.345     1.87     3.835767     20.46476     58.07748         6     0.691     0.538 -48.08   0
        93    541.3867    774.5254 300.0881352 +22.7459027     376.9126       72.555      1.235     3.36     3.980969     20.46476     54.66751        10     1.060     0.653  50.90   0
        94    139.5504    764.1921 299.9665624 +22.6223820     483.8434     72.53652      1.403     2.84     3.861437     20.46476     70.23096         8     0.994     0.560 -21.88   0
        95    930.6219    761.0029 300.2137562 +22.8587036     341.8936     72.48107      1.366     5.50     4.279427     20.46476     41.61396        12     1.081     0.928 -16.73   0
        96    304.1320    758.8781 300.0194323 +22.6702458     479.9195     72.64729      1.363     2.98     4.098136     20.46476     72.70109        10     0.888     0.763 -56.04   0
        97    377.9186    755.4030 300.0435025 +22.6913855     346.9138     72.44408      1.699     4.13     3.984903     20.46476     34.23969         5     0.789     0.618 -78.05   0
        98    627.2733    749.3836 300.1230400 +22.7644415     447.4875     72.53652      1.447     3.81     4.163613     20.46476     50.59433        11     1.054     0.805  -4.62   0
        99    597.2310    747.4760 300.1143087 +22.7548861     639.2578     72.53652      1.334     3.28     4.170724     20.46476     71.05402        10     1.006     0.672  36.51   0
       100   1013.3137    743.9742 300.2450729 +22.8785884       4477.1     72.49956      1.696     3.52     3.977356     20.46476     307.5851        39     1.397     1.292  83.59   0
       101    505.7936    746.3242 300.0862285 +22.7271359     370.6174     72.46258      1.359     5.45     3.946937     20.46476     42.37144         9     1.407     0.595  41.48   0
       102    618.6898    744.9977 300.1217939 +22.7606090     1466.832     72.44408      1.490     2.99     4.184874     20.46476     155.4635        21     1.113     1.031  82.68   0
       103    538.7254    744.4345 300.0970896 +22.7364696     361.1342     72.51804      1.405     3.48     4.057783     20.46476     31.67596         5     0.759     0.460 -17.80   0
       104    700.3910    740.1772 300.1487978 +22.7837199     244.0892     72.53652      1.408     3.56     4.199728     20.46476     38.93873         5     0.975     0.374  -4.92   0
       105   1001.7496    735.4234 300.2442470 +22.8726675      1522.88     72.53652      1.557     3.48     4.090469     20.46476     147.4147        20     1.151     1.052 -47.76   0
       106    364.7199    729.2431 300.0479022 +22.6799217     775.7576     72.51804      1.383     2.62     3.995806     20.46476     110.1915        13     0.981     0.835 -43.21   0
       107    828.2438    726.6503 300.1930192 +22.8181582     2628.813     72.57346      1.667     3.12     4.280002     20.46476     245.4095        32     1.445     1.168  17.82   0
       108     50.2296    717.0193 299.9541554 +22.5820488     871.4052     72.53652      1.753     4.78     3.555972     20.46476      70.9369        17     1.242     1.110 -17.62   0
       109    213.6716    713.1004 300.0061977 +22.6299747     553.8058     72.68418      1.390     3.98     4.121823     20.46476      75.3805        12     1.115     0.842  34.73   0
       110    910.3455    712.5656 300.2231827 +22.8387159     610.9482     72.55499      1.591     3.92     4.337711     20.46476     65.61454        11     1.090     0.757  55.27   0
       111    946.5763    703.5521 300.2374061 +22.8469823     148107.2       72.555      1.646     3.18     4.349265     20.46476     13258.12       160     1.551     1.467  69.24   0
       112    708.7009    707.2917 300.1620753 +22.7767698     295.5244     72.72105      1.242     3.93     4.276189     20.46476     55.52023         7     0.915     0.616  19.73   0
       113    798.9412    703.5496 300.1913989 +22.8027426       782.98     72.59193      1.572     3.82     4.226852     20.46476     80.61301        13     1.098     0.840 -86.57   0
       114    110.4017    703.2747 299.9773090 +22.5961677     216.0097     72.44408      1.429     4.67     4.135111     20.46476     36.56228         5     1.017     0.724   6.76   0
       115    979.2110    696.3008 300.2499371 +22.8546764     561.2407     72.44408      1.634     3.82     4.390393     20.46476     54.03716         9     0.928     0.859  -1.77   0
       116    632.7443    692.4310 300.1432558 +22.7497338     1660.318     72.55499      1.429     2.83      4.33496     20.46476     167.3412        21     1.156     0.992 -39.91   0
       117    814.0096    689.6575 300.2006087 +22.8032690     9357.624     72.49956      1.488     2.86     4.238658     20.46476     960.3212        41     1.283     1.171  64.48   0
       118    315.5841    684.7327 300.0470921 +22.6524133     4933.774     72.53652      1.520     2.69     3.814433     20.46476     604.9453        36     1.249     1.196  66.71   0
       119     29.3118    683.2304 299.9586414 +22.5660835     1700.584     72.51804      1.785     3.36     3.716621     20.46476     181.9039        26     1.328     1.233  37.76   0
       120    397.6842    682.7782 300.0732547 +22.6764786     1124.136     72.48107      1.388     2.51     3.829198     20.46476     161.7956        15     1.003     0.881 -17.04   0
       121    273.1346    680.2334 300.0353590 +22.6383883     527.5021     72.53652      1.607     4.66     3.878101     20.46476     54.40932        11     1.158     0.758  51.72   0
       122    605.6151    678.4960 300.1393397 +22.7376004     785.1982     72.44408      1.427     3.20      4.47147     20.46476     86.63447        13     1.025     0.846 -46.33   0
       123    597.4666    670.5190 300.1393958 +22.7328676     3280.446     72.64729      1.383     2.45     4.463956     20.46476     407.3299        25     1.116     0.996  57.82   0
       124    587.6358    664.2903 300.1383601 +22.7281324     1339.025     72.51804      1.343     2.68     4.462043     20.46476      166.606        17     1.011     0.911  65.73   0
       125    516.9842    663.7916 300.1165355 +22.7068063     366.1989     72.46258      1.362     2.50     4.229572     20.46476     47.43114         5     0.773     0.477 -51.70   0
       126      5.5453    664.0974 299.9574799 +22.5534648     422.2299     72.62885      1.879     4.69     3.850547     20.46476     33.60159         7     1.135     0.549  31.35  16
       127    981.2881    662.2709 300.2616450 +22.8455221     501.3328     72.70261      1.641     2.90     4.536911     20.46476     65.88383         8     0.901     0.630  65.42   0
       128    250.9357    660.3065 300.0349350 +22.6260126     675.7123     72.64729      1.588     3.98     3.936818     20.46476      65.5909        12     0.972     0.911  72.31   0
       129    265.0861    658.9153 300.0397850 +22.6298586     588.4587     72.66574      1.413     3.72     3.865298     20.46476     79.13106        12     1.024     0.870   2.50   0
       130    290.9951    656.1282 300.0487438 +22.6368313     583.2391     72.48107      1.429     3.74     3.748589     20.46476     60.39198        10     0.941     0.758 -56.42   0
       131    321.8944    655.7211 300.0584816 +22.6459832     380.7432     72.66574      1.485     3.93     3.747342     20.46476     47.11909         7     1.230     0.629   9.13   0
       132    611.6803    654.5259 300.1490174 +22.7325376     357.6492     72.64729      1.310     4.23     4.592908     20.46476     54.60535         9     1.037     0.696  22.61   0
       133    512.6180    654.0021 300.1183582 +22.7026874     1740.948     72.44408      1.401     2.65     4.252626     20.46476     197.1785        21     1.082     0.940  55.30   0
       134    166.4997    648.8724 300.0124135 +22.5974005     19725.49     72.70261      1.585     2.87     4.242455     20.46476     2303.596        63     1.405     1.320  35.86   0
       135     87.4345    650.5527 299.9873083 +22.5741576     761.3583     72.57346      1.783     3.42     4.337388     20.46476     84.29788        12     1.055     0.803 -44.37   0
       136    597.4549    649.3197 300.1462813 +22.7267785     971.3276     72.57346      1.354     2.60     4.582842     20.46476      134.017        12     0.932     0.764  26.05   0
       137    632.7543    648.3184 300.1575948 +22.7370729     258.0013     72.51804      1.138     4.26     4.568781     20.46476     45.75632         7     0.856     0.604  38.46   0
       138    350.8806    640.8031 300.0723410 +22.6503972     392.0666     72.44408      1.566     4.17     3.738269     20.46476     48.57598         6     0.973     0.510  68.48   0
       139    680.5724    637.1727 300.1761044 +22.7482061     346.6982     72.49956      1.349     2.46     4.536671     20.46476      42.1411         5     0.702     0.465 -71.27   0
       140   1015.5605    635.6199 300.2809922 +22.8481306     977.6221     72.57346      1.555     3.99     4.595865     20.46476     94.54968        19     1.160     1.095 -21.54   0
       141    112.5087    633.1082 300.0007639 +22.5766793     1496.956     72.70261      1.944     4.28     4.345134     20.46476     120.2332        25     1.508     1.098 -84.81   0
       142    882.6080    633.3913 300.2402698 +22.8076630     515.5571     72.38857      1.418     3.55     4.421452     20.46476     61.79874        14     1.085     0.960  44.09   0
       143    178.9879    633.1903 300.0213887 +22.5966496     489.2237     72.42558      1.732     4.36     4.124493     20.46476     49.47993         6     1.167     0.464  37.07   0
       144    955.7780    628.5302 300.2646565 +22.8281865     851.7291     72.53652      2.029     4.20     4.515254     20.46476     74.87907        15     1.175     0.981  58.87   0
       145    353.4743    629.0781 300.0769571 +22.6478109     373.1561     72.64729      1.232     2.95     3.731735     20.46476     39.41117         6     0.770     0.495 -83.79   0
       146    560.8989    630.0099 300.1411782 +22.7102761     422.3322     72.42558      1.141     3.27     4.529884     20.46476     59.43033         8     0.832     0.646  37.37   0
       147    517.5413    622.1583 300.1302372 +22.6950234     711.4501     72.51804      1.247     2.61      4.37075     20.46476     104.1371        12     0.941     0.761  10.41   0
       148    665.7845    620.6422 300.1768712 +22.7390273     465.3969     72.55499      1.145     3.06     4.703734     20.46476     74.05273         6     0.872     0.533 -65.45   0
       149    712.9860    619.5305 300.1919305 +22.7528549     498.5599     72.55499      1.342     2.24     4.566934     20.46476     66.48936         8     0.765     0.639 -67.38   0
       150    682.9277    618.8590 300.1827885 +22.7436534     607.1653     72.57346      1.408     2.45     4.676727     20.46476     85.50489        11     0.832     0.799  16.20   0
       151    561.7735    618.0928 300.1453225 +22.7071173     978.6445     72.48107      1.400     2.54     4.600196     20.46476     129.5517        12     0.972     0.727 -13.21   0
       152    995.5795    613.6030 300.2819161 +22.8358195     3302.011     72.48107      1.611     3.09      4.56507     20.46476     299.8645        31     1.229     1.193 -88.20   0
       153    527.2348    613.5414 300.1360531 +22.6954562     1616.681     72.53652      1.349     2.59     4.448047     20.46476     179.4336        18     1.046     0.924  24.99   0
       154    892.7148    610.8210 300.2507535 +22.8042071     222.1745     72.48107      1.473     4.30     4.453868     20.46476     31.15674         6     0.790     0.667 -26.54   0
       155     89.2860    606.9805 300.0020396 +22.5622181      5015.09     72.46258      1.642     3.10     4.467529     20.46476     532.6257        36     1.328     1.233  71.71   0
       156    556.1149    604.1759 300.1480831 +22.7014258     362.6038     72.49957      1.399     5.15     4.640696     20.46476     41.46737         9     1.105     0.678  13.14   0
       157    390.7165    600.1905 300.0979232 +22.6506904     8971.685     72.48107      1.391     2.54     3.819124     20.46476     1068.912        43     1.227     1.141  58.89   0
       158    150.7786    599.5516 300.0235535 +22.5785378     241.7248     72.55499      1.716     5.43     4.165991     20.46476     32.90753         6     1.060     0.907 -24.78   0
       159    513.2178    597.2631 300.1369803 +22.6865811     8914.686     72.51804      1.356     2.45     4.407815     20.46476     986.3602        39     1.181     1.111  80.31   0
       160    917.5958    594.7070 300.2637441 +22.8070311     300.5151     72.42558      1.506     3.81     4.478812     20.46476     34.21151         5     0.961     0.433  74.42   0
       161    759.6083    593.5733 300.2148847 +22.7593718     301.0559     72.53652      1.262     3.50     4.443323     20.46476     48.15068         5     0.758     0.466  16.08   0
       162    924.9160    591.2889 300.2671363 +22.8082418     1890.568     72.66574      1.429     2.92      4.48199     20.46476     202.5146        22     1.142     0.992  63.10   0
       163   1009.5403    588.6323 300.2943825 +22.8328253     12452.32     72.57346      1.600     3.15     4.564122     20.46476     1220.652        55     1.390     1.286 -69.56   0
       164    573.7668    586.8713 300.1591986 +22.7017494     11372.29     72.53652      1.343     2.38     4.749124     20.46476     1584.541        42     1.151     1.119  84.64   0
       165    743.3793    582.8917 300.2133000 +22.7514409     684.2903     72.46258      1.532     3.14     4.477091     20.46476     84.31501        12     1.046     0.789   5.06   0
       166    459.1176    581.8420 300.1251587 +22.6659345     386.1302     72.49956      1.331     4.28     4.117825     20.46476     45.25052         8     0.952     0.696  67.56   0
       167    301.0450    582.2294 300.0758772 +22.6186439      1369.21     72.57346      1.423     3.12     3.727504     20.46476     140.0958        20     1.154     0.942  41.54   0
       168      2.4442    579.3956 299.9840349 +22.5282485     2106.821     62.42791      1.513     3.17     5.190475     20.46476     239.1182        23     1.246     1.004 -83.21  24
       169    548.2728    580.0059 300.1534948 +22.6921362     412.3042     72.48107      1.367     2.36     4.700799     20.46476     49.60057         7     0.679     0.673 -81.98   0
       170    505.4540    575.0775 300.1417719 +22.6778850     4207.833     72.57346      1.351     2.36     4.386529     20.46476     555.1035        30     1.165     1.027  40.13   0
       171    848.3187    575.1216 300.2485166 +22.7806510     666.8477     72.66574      1.320     2.98     4.399487     20.46476     94.81609        13     0.961     0.865  58.21   0
       172    483.6825    573.6038 300.1354770 +22.6709348     1284.077     72.46258      1.368     2.59     4.215057     20.46476     159.9247        15     0.967     0.882   1.65   0
       173    237.9759    572.5494 300.0594185 +22.5969499     809.2265     72.55499      1.586     3.79     3.722577     20.46476      83.6477        15     1.183     0.956  77.89   0
       174    925.3249    570.6099 300.2739820 +22.8024228     1563.152     72.53652      1.566     3.23     4.453788     20.46476     149.0111        22     1.196     1.065 -35.36   0
       175    450.9117    572.5659 300.1256195 +22.6608117     1672.477     72.51804      0.639     0.81     4.113292     20.46476     817.1045         6     0.496     0.380  86.89   0
       176    172.2081    570.5944 300.0396174 +22.5766606     296.9674     72.38857      1.445     5.25     3.997307     20.46476     39.04208         9     1.073     0.724  84.48   0
       177    622.0562    562.5820 300.1821199 +22.7092496     198671.2     72.51804      1.361     2.44     4.845069     20.46476     26685.47       193     1.428     1.396 -46.37   0
       178    445.8638    569.1202 300.1251686 +22.6583092     324.5003     72.64729      1.166     2.71     4.111773     20.46476      54.1201         6     0.764     0.530 -54.38   0
       179    805.6831    567.7808 300.2376170 +22.7657687     809.0132     72.48107      1.382     3.19     4.367302     20.46476     89.38889        13     0.950     0.892 -47.72   0
       180    898.4363    565.7993 300.2671637 +22.7929863     146.2636     72.53652      1.146     4.07     4.432452     20.46476      31.4546         5     0.813     0.693  28.32   0
       181    308.1420    562.5273 300.0844833 +22.6151191      3443.24     72.57346      1.407     2.51     3.725748     20.46476     396.2875        28     1.132     1.062  36.11   0
       182    486.9891    560.3943 300.1407966 +22.6681343      406.736     72.40707      2.179     5.04     4.245031     20.46476     33.81035         7     1.509     0.477 -61.59   0
       183    874.0109    558.4424 300.2619412 +22.7835559     481.0473     72.53652      1.299     3.16     4.418752     20.46476     72.99426         9     0.929     0.726  50.50   0
       184    892.8388    556.8173 300.2683370 +22.7887289     342.8651     72.55499      1.739     4.02     4.424372     20.46476     28.08229         6     0.808     0.571  46.23   0
       185    653.7199    549.5784 300.1962015 +22.7150052     287.6331     72.49957      1.204     3.12     4.836941     20.46476     43.43775         6     0.877     0.449  89.21   0
       186    512.7225    543.1895 300.1543915 +22.6709096     2686.839     72.51804      1.423     2.37     4.512071     20.46476     363.9656        30     1.411     0.990 -89.14   0
       187    356.8311    545.1247 300.1052735 +22.6247261     454.2508     72.53652      1.417     3.47     3.749211     20.46476     60.36044        10     0.936     0.740   0.30   0
       188    962.3679    542.7750 300.2945717 +22.8055193     250.7567     72.53652      1.315     4.47     4.455647     20.46476      32.5816         5     0.826     0.688  16.53   0
       189    924.2692    539.6025 300.2837254 +22.7931969     301.6989     72.49957      1.126     2.91     4.417428     20.46476     53.12502         7     0.928     0.466  10.73   0
       190    909.7310    529.1984 300.2825732 +22.7858529     1690.401     72.48107      1.318     2.46     4.420796     20.46476     208.0343        20     1.162     0.950  63.91   0
       191    829.6658    531.3340 300.2569283 +22.7624834     443.3228     72.59193      1.581     4.19     4.410729     20.46476     63.14594         7     1.089     0.461  39.68   0
       192    780.8760    526.7640 300.2432121 +22.7465538     2466.496     72.49956      1.328     2.47     4.423045     20.46476     327.9423        23     1.055     0.990  -3.41   0
       193     39.6956    527.6819 300.0123967 +22.5245963     814.9088     72.68418      1.677     4.07     4.721457     20.46476     79.37505        16     1.189     0.915  19.41   0
       194    418.6598    526.4164 300.1305774 +22.6378953     86.71169     72.49957      0.952     3.50     4.171516     20.46476     35.92946         5     1.140     0.311  20.44   0
       195    990.7248    523.8134 300.3095719 +22.8085624      207.984     72.55499      1.078     3.54     4.287127     20.46476     39.21327         5     1.133     0.319 -11.87   0
       196    685.5103    523.0903 300.2147034 +22.7169247     448.8477     72.70261      1.355     3.58     4.700864     20.46476     64.34569         7     0.851     0.735  46.95   0
       197    567.9997    522.7911 300.1782185 +22.6816222     790.1008     72.35152      1.339     2.49     4.837662     20.46476     106.2126        11     0.875     0.740  25.83   0
       198    909.9358    519.1967 300.2858857 +22.7830402     2183.743     72.53652      1.589     3.62      4.42309     20.46476     227.8355        28     1.636     0.942  74.19   0
       199   1023.4829    520.2098 300.3209572 +22.8173363      458.408      57.3948      1.040     2.97     4.155437     20.46476     75.90291         5     0.731     0.462  70.46  24
       200    663.3303    517.4400 300.2096322 +22.7086555     598.6869     72.51804      1.458     4.44     4.755678     20.46476     66.52967        11     1.077     0.774  64.24   2
       201    662.9717    513.0000 300.2109626 +22.7072728     394.4611     72.48107      1.252     3.76     4.744152     20.46476      38.5384         5     0.815     0.498 -19.01   2
       202    449.4221    517.1912 300.1431420 +22.6444698     293.4713     72.53652      1.099     2.10     4.180628     20.46476     50.37929         5     0.688     0.453  67.62   0
       203    948.0300    514.3095 300.2993477 +22.7930450     4261.475     72.49956      1.413     2.71     4.344647     20.46476     473.8603        26     1.140     1.043  54.34   0
       204    501.6653    516.0668 300.1597602 +22.6598083     260.5272     72.59193      1.288     3.26     4.401478     20.46476     46.57495         7     0.737     0.664  86.44   0
       205    685.7292    510.9246 300.2187227 +22.7134961     350.8511     72.61039      1.577     4.49     4.669168     20.46476     32.78671         6     1.030     0.557   8.36   0
       206    608.7590    510.3771 300.1949368 +22.6902733      294.236     72.57346      1.232     3.46     4.841224     20.46476      49.0833         5     0.742     0.465 -13.51   0
       207    179.8430    504.3242 300.0635125 +22.5599391     953.6951     72.51804      1.517     3.62     3.915442     20.46476     93.32655        17     1.194     0.905  65.67   0
       208    979.8557    502.2113 300.3131991 +22.7990989     233.9124     72.51804      1.398     3.90      4.11744     20.46476     36.58014         5     0.987     0.442 -46.59   0
       209    446.2293    497.4105 300.1485727 +22.6378342     321.4156     72.53652      1.238     3.46     4.179717     20.46476     29.78379         5     0.746     0.465  16.11   0
       210    228.1736    497.3637 300.0807908 +22.5724376     364.5126     72.55499      1.955     3.47     3.755693     20.46476     27.71672         5     0.800     0.435  17.78   0
       211    199.8315    496.6111 300.0722279 +22.5637213     298.2209     72.53652      1.526     4.28     3.841429     20.46476     30.24383         5     0.944     0.553 -48.25   0
       212    172.8435    494.5667 300.0645063 +22.5550402     539.0151     72.59193      1.692     3.56     3.943095     20.46476     49.36428        10     0.954     0.728 -89.41   0
       213    826.6888    489.2349 300.2696735 +22.7494961     251.1329     72.51804      1.405     4.29     4.457407     20.46476     30.51016         7     1.437     0.365  65.55   0
       214    780.1343    488.9917 300.2552485 +22.7354804     457.3413     72.51804      1.436     2.39     4.462483     20.46476     71.94282         8     0.821     0.617  45.92   0
       215    669.6858    486.3507 300.2217076 +22.7016306     402.6172     72.51804      1.254     2.79     4.644483     20.46476     55.34392         6     0.717     0.622  73.33   0
       216    721.4550    484.6692 300.2383748 +22.7166589     820.9384     72.57346      1.301     2.58     4.516356     20.46476     123.5961        11     0.957     0.732  71.75   0
       217    782.3829    477.1411 300.2597973 +22.7327494     903.1307     72.48107      1.321     2.19     4.467236     20.46476     122.6178        12     0.899     0.742  25.53   0
       218    939.7250    473.2845 300.3100820 +22.7787676     1027.857     72.64729      1.358     2.72     4.311506     20.46476     109.1233        15     0.945     0.914 -89.51   0
       219    923.8380    469.4317 300.3063807 +22.7729026     645.4615     72.55499      1.347     2.63     4.418099     20.46476     79.16339         9     0.866     0.663  69.87   0
       220    904.3760    470.1469 300.3000821 +22.7672797     314.3557     72.55499      1.241     3.25     4.431811     20.46476     48.56831         7     0.834     0.637  14.29   0
       221    668.0952    467.5205 300.2273269 +22.6957454     3139.586     72.64729      1.277     2.33     4.596917     20.46476     459.6422        21     1.081     0.900  51.80   0
       222    144.1284    458.8278 300.0671894 +22.5361735     428.5362     72.51804      1.583     4.64     4.132549     20.46476     57.76414         9     1.136     0.715   1.77   0
       223    673.6959    455.6296 300.2329318 +22.6940080     282.3533     72.48107      1.319     3.42     4.550191     20.46476      42.5443         5     0.731     0.464  13.84   0
       224    439.9980    454.9512 300.1604213 +22.6237766     345.2085     72.51804      1.460     4.18     4.370832     20.46476     36.66862         7     0.906     0.550  49.55   0
       225    508.0607    454.4454 300.1817602 +22.6440323     335.6414     72.55499      1.235     2.85     4.601364     20.46476      50.3771         6     0.770     0.625  30.01   0
       226    951.4276    446.3874 300.3224641 +22.7745413     525.8068     72.53652      1.398     3.64     4.203984     20.46476     65.74969        13     1.026     0.979  44.19   0
       227    687.9077    443.2244 300.2413850 +22.6947025     208.7775     72.48107      1.078     2.96     4.506054     20.46476     42.27355         5     0.768     0.502  59.31   0
       228    778.7343    441.5621 300.2702134 +22.7214342     1025.771     72.51804      1.300     2.41     4.443423     20.46476      146.771        14     0.948     0.833  28.47   0
       229    574.4465    442.1433 300.2064134 +22.6603950     455.1266     72.57346      1.248     2.02     4.713292     20.46476     64.52168         6     0.670     0.592 -31.06   0
       230    282.5109    439.6654 300.1164131 +22.5721740     593.8757     72.64729      1.284     3.10     4.278182     20.46476     85.44395        11     0.981     0.780  17.08   0
       231    345.0645    435.3622 300.1372573 +22.5896938     3617.786     72.51804      1.328     2.37     4.081526     20.46476     458.1653        27     1.132     0.986  70.35   0
       232    292.1968    430.1042 300.1225280 +22.5723340     7599.173     72.44408      1.377     2.55     4.345681     20.46476     849.3379        38     1.218     1.123  70.53   0
       233    433.0710    424.3994 300.1681856 +22.6129285     4783.678     72.44408      1.313     2.33     4.579384     20.46476     627.1588        31     1.117     1.041 -61.31   0
       234    694.7021    421.0663 300.2506947 +22.6903726     955.8477     72.62885      2.176     6.23     4.461067     20.46476     65.35551        21     1.602     0.944 -38.88   0
       235    677.2263    421.0997 300.2452420 +22.6851466     18550.85     72.48107      1.303     2.28     4.458379     20.46476     2492.481        54     1.200     1.143  46.44   0
       236    524.5286    422.7433 300.1971769 +22.6398642     247.3709     72.55499      1.165     3.38     4.777626     20.46476     36.90685         5     0.770     0.429  66.54   0
       237    520.5782    421.1670 300.1964593 +22.6382277     259.7023     72.53652      1.252     2.94     4.780109     20.46476     43.26589         5     0.825     0.549  39.62   0
       238    920.6299    417.2706 300.3223169 +22.7569503     301.4125     72.53652      1.170     3.60     4.406161     20.46476      42.8857         6     0.714     0.648  -6.77   0
       239    873.9937    411.5040 300.3096534 +22.7413274     356.3804     72.42558      1.103     2.41     4.414522     20.46476      56.8291         6     0.749     0.494   8.17   0
       240    297.4718    407.9886 300.1313470 +22.5675676     412.1458     72.55499      1.518     2.53     4.433929     20.46476     48.28001         6     0.753     0.492  81.36   0
       241   1011.0573    403.7348 300.3549042 +22.7801342     838.0306     72.59193      1.505     3.58     3.848045     20.46476     94.04829        12     1.116     0.714 -70.99   0
       242    721.0201    402.6729 300.2648620 +22.6929723     212.5752     72.55499      1.068     3.77     4.458507     20.46476     39.96262         5     0.820     0.497 -52.98   0
       243    231.9427    401.1493 300.1131991 +22.5459569     2059.936     72.59193      1.414     2.62     4.484982     20.46476     243.0799        23     1.108     1.024 -58.24   0
       244    617.9406    390.5112 300.2367136 +22.6585975      6680.66     72.61039      1.302     2.18     4.567716     20.46476      1009.06        34     1.150     1.039 -77.50   0
       245    332.5783    390.1465 300.1480529 +22.5729707     686.9692     72.53652      1.438     3.40      4.49556     20.46476     102.8014        14     1.164     0.821 -39.14   0
       246    190.5675    383.2000 300.1061677 +22.5283990     434.6638     72.48107      1.250     3.03     4.528108     20.46476     69.64026         7     0.921     0.488  83.85   0
       247    877.9592    382.6111 300.3202687 +22.7342107     240.4191     72.53652      1.122     3.78     4.409276     20.46476     48.59205         7     0.899     0.650  -4.85   0
       248     37.5901    380.7910 300.0594318 +22.4818291     1290.911     72.42558      1.571     3.32       4.8447     20.46476     141.8802        17     1.152     0.941  29.92   0
       249    822.0736    379.4118 300.3038922 +22.7165555      861.456     72.55499      1.094     2.70     4.395578     20.46476     154.4362        18     1.237     0.904  89.63   0
       250    731.5453    380.6650 300.2752841 +22.6898017     589.2083     72.59193      1.355     2.61     4.454946     20.46476      79.0485         8     0.875     0.599  85.05   0
       251      6.6039    378.2936 300.0506212 +22.4718181     1405.863     72.44408      2.053     5.83     5.048357     20.46476      86.3555        26     1.625     1.247 -56.22  16
       252    524.5381    376.7169 300.2121205 +22.6266487     6251.643     72.62885      1.301     2.31     4.866559     20.46476     915.7335        37     1.186     1.027  62.90   0
       253    916.5053    371.2793 300.3359611 +22.7424954     1432.224     72.64729      1.371     2.49     4.405256     20.46476     156.5736        17     1.043     0.860 -84.12   0
       254   1013.8282    371.4684 300.3662426 +22.7716870     629.9098     72.51804      1.559     2.91      4.36729     20.46476     62.95244        11     0.954     0.750 -75.61   0
       255     15.2649    366.4618 300.0571502 +22.4710217     431.2653     72.57346      1.496     3.16     5.089367     20.46476     59.03331         7     0.981     0.580 -24.10   0
       256    509.2139    365.5814 300.2109664 +22.6188585     356.5878     72.49957      1.278     2.66     4.904228     20.46476     54.14552         7     0.801     0.603 -77.13   0
       257    591.8385    363.3969 300.2373893 +22.6429883     378.1641     72.57346      1.034     3.68     4.773389     20.46476     53.43721         7     0.923     0.633  48.00   0
       258     36.0303    362.1280 300.0650044 +22.4760068     1020.054     72.53652      1.592     3.48     4.999323     20.46476     99.42649        17     1.190     0.933  48.49   0
       259    572.1575    361.1744 300.2319848 +22.6364532     166.9928     72.57346      1.205     3.26     4.820487     20.46476     40.89361         6     0.751     0.560  56.35   0
       260    889.1717    358.7238 300.3315168 +22.7307021     537.9373     72.51804      1.330     2.73     4.405329     20.46476     85.04418        11     0.939     0.786 -53.78   0
       261    412.0792    356.0287 300.1838489 +22.5870052     2484.641     72.55499      1.318     2.33     4.951329     20.46476     351.3174        23     1.097     0.926  62.47   0
       262    130.4813    353.1024 300.0972680 +22.5017435     994.0797     72.68418      1.542     3.97     4.658051     20.46476     125.6029        18     1.253     0.969  71.37   0
       263    759.7244    350.5781 300.2938267 +22.6895963     348.5474     72.51804      1.328     4.27     4.419503     20.46476     40.79979         5     1.089     0.478  58.74   0
       264    381.4064    345.3730 300.1777676 +22.5747523      29538.5     72.53652      1.334     2.38     4.973322     20.46476     3815.598        67     1.300     1.187  64.99   0
       265    916.2416    342.9445 300.3450756 +22.7342713         1504     72.49956      1.439     2.65     4.400253     20.46476     188.5091        16     1.001     0.911 -89.53   0
       266    871.4768    340.7299 300.3318421 +22.7202316      330.434     72.64729      1.678     4.26     4.381349     20.46476     35.89378         7     0.949     0.545 -31.91   0
       267     77.7115    333.2547 300.0873180 +22.4802230     4831.877     72.57346      1.529     2.92      4.88442     20.46476     498.3443        36     1.305     1.148  37.15   0
       268    831.4032    332.0274 300.3221786 +22.7057307     601.4133     72.49957      1.332     2.32     4.359889     20.46476     96.21842         8     0.833     0.606  37.36   0
       269    255.6119    331.6571 300.1431091 +22.5331067     268.9253     72.51804      1.105     3.47     4.685991     20.46476     58.62513         9     1.003     0.748 -18.75   0
       270    479.9474    330.7174 300.2131751 +22.6000754     434.5082     72.57346      1.176     2.60     4.941232     20.46476     76.32909         9     0.860     0.702  30.25   0
       271    791.8210    325.2870 300.3120334 +22.6919403     1767.514     72.46258      1.252     2.25     4.360825     20.46476     247.0276        21     1.039     0.940  78.96   0
       272    599.9957    320.0994 300.2539800 +22.6329940     417.5658     72.42558      1.344     3.00     4.822863     20.46476     50.47932         7     0.862     0.531  45.77   0
       273   1006.9324    318.0553 300.3814279 +22.7542649     519.4905     72.57346      1.322     3.54     4.640454     20.46476     70.22049         8     0.860     0.713 -85.68   0
       274    453.6372    309.7843 300.2117827 +22.5861793     2005.586     72.53652      1.456     2.60     4.933197     20.46476     288.9104        21     1.250     0.874  60.99   0
       275    892.8470    302.6865 300.3508484 +22.7156937     720.2141     72.49957      1.341     2.34     4.344475     20.46476     92.56203         9     0.930     0.574  62.19   0
       276     26.9412    300.2922 300.0822471 +22.4555385     782.2938     72.61039      2.281     6.47     5.098869     20.46476     62.19146        11     1.456     0.807  -1.86   2
       277    775.4941    300.2827 300.3150611 +22.6798646     366.9138     72.70261      1.569     3.49     4.344466     20.46476     55.14589         7     0.966     0.599 -66.32   0
       278    792.1940    300.1716 300.3202997 +22.6848335     258.8721     72.53652      1.248     2.57     4.336966     20.46476     59.39283         6     0.948     0.623   2.91   0
       279    529.4642    288.9888 300.2421229 +22.6029261     988.2264     72.46258      1.291     2.59     5.064057     20.46476     150.4595        16     1.039     0.856  77.83   0
       280    102.1860    289.9378 300.1089744 +22.4751315     240.2096     72.51804      1.355     3.89     4.932951     20.46476     32.92674         5     0.860     0.504 -28.41   0
       281    336.4536    289.2727 300.1819932 +22.5451704      346.232     72.53652      1.526     4.64     4.957512     20.46476     39.93185         7     1.068     0.572 -27.42   0
       282    912.6004    282.2089 300.3636500 +22.7157202     135.8707     72.35152      0.979     3.50     4.374807     20.46476     35.41155         5     0.786     0.449 -72.29   0
       283    774.2768    280.9035 300.3209699 +22.6739301     2191.722     72.66574      1.318     2.48     4.330974     20.46476     309.3726        22     1.270     0.832  80.27   0
       284    582.2090    274.3636 300.2632836 +22.6145258      199.373     72.53652      1.346     4.41     4.977412     20.46476     27.53707         5     1.163     0.476  -3.83   0
       285      7.4770    266.3802 300.0872054 +22.4399704     73050.78     72.53652      1.692     3.10     5.121637     20.46476     8088.963       115     1.605     1.423  52.79  24
       286    482.7355    264.9509 300.2353818 +22.5820208     728.0588     72.55499      1.296     2.46      4.74159     20.46476      101.882        11     0.887     0.761 -51.05   0
       287    188.4720    259.0484 300.1458019 +22.4921354     495.0345     72.51804      1.365     3.54     4.906161     20.46476     81.59645        11     1.072     0.743  57.32   0
       288    157.3650    258.9858 300.1361570 +22.4827917     1362.684     72.53652      1.619     3.25     4.823668     20.46476     136.8182        23     1.189     1.132 -12.03   0
       289    904.9775    255.5843 300.3699123 +22.7057832     189.2628     72.53652      1.626     3.92      4.37149     20.46476     27.42522         5     1.311     0.335  48.79   0
       290    895.1273    252.9578 300.3676942 +22.7020794     294.1744     72.51804      1.273     4.29      4.34821     20.46476     55.91814         7     0.751     0.699   9.97   0
       291    241.2475    251.0392 300.1648008 +22.5056563     409.4798     72.57346      1.340     3.39     5.029758     20.46476     52.18557        10     0.887     0.761  -5.64   0
       292    917.7913    244.8621 300.3773850 +22.7065360     328.5349     72.48107      1.300     3.47     4.410997     20.46476     50.93306         8     0.980     0.687 -11.65   0
       293    845.9605    242.6612 300.3557117 +22.6844001     625.7643     72.53652      1.277     3.36     4.289435     20.46476     82.28675        13     1.138     0.783  59.21   0
       294    436.2611    241.9555 300.2283837 +22.5614909     416.8686     72.55499      1.456     3.56     4.845795     20.46476     50.43641        11     0.998     0.770  55.24   0
       295    937.1130    235.9217 300.3863085 +22.7097487     326.4375     72.68418      1.470     3.13     4.453329     20.46476     51.61915         6     0.967     0.646   0.39   0
       296    944.0367    231.6597 300.3898496 +22.7105955     2034.354     72.55499      1.349     2.40     4.460112     20.46476     286.9794        19     1.027     0.925  24.29   0
       297    362.7418    228.8048 300.2097838 +22.5356840     2087.677     72.49957      1.301     2.30      4.97478     20.46476     291.5032        19     1.029     0.908  57.69   0
       298    192.0684    224.4405 300.1581454 +22.4832782     355.6555     72.51804      1.512     3.43     5.035272     20.46476     46.91444         7     0.853     0.671 -68.70   0
       299    842.4373    223.3209 300.3608877 +22.6777850     606.2008     72.49957      1.504     3.15     4.298683     20.46476     65.81083         9     0.916     0.692 -44.42   0
       300    440.6103    223.8976 300.2355942 +22.5576069     953.4837     72.42558      1.333     2.83     4.770284     20.46476     117.9426        14     1.019     0.834 -11.81   0
       301    949.5271    220.0744 300.3953194 +22.7089073     286.3422     72.59193      1.159     2.75     4.464143     20.46476     46.11767         6     0.761     0.488  79.40   0
       302     38.8195    217.3592 300.1128382 +22.4353011     507.8119     72.57346      1.846     4.02      5.10212     20.46476     41.72247         6     1.536     0.301  68.85   0
       303    257.3683    215.9976 300.1811778 +22.5004269     664.2451     72.49956      1.266     3.21     5.039216     20.46476     86.38752         9     0.935     0.683  15.67   0
       304    795.1879    212.9660 300.3495245 +22.6606625     1678.271     72.51804      1.297     2.53     4.335068     20.46476     248.7197        19     1.066     0.882  79.19   0
       305    860.1500    212.5351 300.3699062 +22.6799864     570.3345     72.59193      1.357     2.87     4.313868     20.46476      76.6815        10     0.916     0.742  62.68   0
       306    278.7291    209.2791 300.1899966 +22.5048997     584.5641     72.64729      1.509     3.88      5.03744     20.46476     55.65509        10     1.029     0.678  47.74   0
       307    799.2361    204.5122 300.3535278 +22.6594441     764.0645     72.51804      1.254     2.71     4.343957     20.46476     104.9157        12     0.984     0.734  60.20   0
       308    719.7115    203.6019 300.3290508 +22.6353721     1207.396     72.46258      1.302     2.20     4.333048     20.46476     204.2911        16     0.991     0.845  65.60   0
       309    541.2147    200.3421 300.2745366 +22.5809782     354.7658     72.49957      1.347     2.44     4.843442     20.46476     52.21958         6     0.707     0.592 -52.69   0
       310    646.0227    195.5446 300.3087174 +22.6109901     1055.463     72.57346      1.300     2.15     4.560448     20.46476     162.9005        12     0.962     0.725 -88.14   0
       311    915.3997    195.1661 300.3927601 +22.6915299     1546.094     72.49956      1.380     2.43     4.436841     20.46476     197.2658        18     1.040     0.911  87.93   0
       312    927.2771    194.3970 300.3967120 +22.6948637      770.402     72.44408      1.317     2.64     4.454667     20.46476     89.26873        12     0.946     0.769  53.78   0
       313     17.0568    183.9498 300.1169156 +22.4191871      394.308     72.59193      1.440     4.28      5.10212     20.46476     40.01074         7     1.077     0.714  -6.01   0
       314     67.4710    181.5547 300.1333477 +22.4336149     467.8764     72.51804      1.479     5.45      5.10212     20.46476     58.29139        10     1.536     0.545 -53.24   0
       315    277.8512    177.4512 300.2000461 +22.4954966     743.6583     72.57346      1.364     2.81     5.036848     20.46476     101.5903        13     0.944     0.861  48.94   0
       316    139.9084    172.3017 300.1588487 +22.4526740     1965.221     72.72105      1.449     2.82     5.106919     20.46476     239.4895        22     1.143     1.001  49.01   0
       317    963.1827    169.3188 300.4160395 +22.6983971     856.5007     72.53652      1.657     3.14     4.471411     20.46476     96.54185        14     1.069     0.863  77.67   0
       318     89.6380    169.1021 300.1442705 +22.4366858     503.1054     72.53652      1.401     3.03      5.10212     20.46476     76.37775         9     0.925     0.755  31.88   0
       319    297.2892    165.6682 300.2099098 +22.4979377     5605.332     72.68418      1.405     2.52     5.022443     20.46476     683.6309        35     1.226     1.066  47.25   0
       320    279.2267    166.9023 300.2038945 +22.4928794     312.3977     72.48107      1.456     3.58     5.036166     20.46476     39.36499         6     0.903     0.456 -53.33   0
       321     81.4190    159.9583 300.1446828 +22.4315970     1251.958     72.55499      1.508     3.14     5.102341     20.46476     126.0304        19     1.216     0.976  62.95   0
       322     43.0064    161.2405 300.1323375 +22.4204492     360.3672     72.57346      1.857     3.19      5.10212     20.46476     39.50997         6     0.891     0.455  39.69   0
       323    280.8251    156.7317 300.2076894 +22.4904375     638.9144     72.51804      1.408     2.49     5.033439     20.46476      97.0547        11     0.877     0.775 -20.26   0
       324    941.4901    147.2405 300.4164365 +22.6855553     3645.781     72.53652      1.481     2.70     4.558879     20.46476     390.8733        28     1.165     1.093 -86.76   0
       325    491.0204    142.3352 300.2777289 +22.5492760     611.9232     72.51804      1.228     3.10     4.454362     20.46476     76.55683        12     1.015     0.793 -63.33   0
       326    243.9209    142.8327 300.2007251 +22.4753867     292.1169     72.51804      1.303     4.72     5.045321     20.46476     43.18455         9     1.010     0.759  71.22   0
       327    415.0567    134.4780 300.2566448 +22.5242635     756.4201     72.57346      1.986     3.06     4.701745     20.46476     66.38674        10     0.926     0.751   4.26   0
       328    181.0162    131.1159 300.1849754 +22.4531700     580.4286     72.49956      1.392     3.06      5.09986     20.46476     71.17244        11     0.984     0.727  87.28   0
       329    470.1343    130.3498 300.2751169 +22.5395762     477.0496     72.55499      1.297     2.71     4.497512     20.46476      59.6059         9     0.804     0.748  72.07   0
       330    603.8911    129.3213 300.3170765 +22.5793402     386.9752     72.68418      1.373     3.27     4.680737     20.46476     65.17308         6     0.953     0.544  70.04   0
       331    542.2823    129.6844 300.2977826 +22.5609943     1745.428     72.66574      1.274     2.37     4.547741     20.46476     252.0474        18     1.021     0.899  47.26   0
       332     79.1495    130.6004 300.1534969 +22.4224888     322.5219     72.49956      1.423     3.51     5.108467     20.46476     32.60841         5     0.778     0.458 -16.09   0
       333    286.1475    125.2649 300.2195469 +22.4829949     303.2455     72.57346      1.171     2.89      5.01903     20.46476     46.60868         8     0.803     0.666 -45.19   0
       334    830.3763    119.2759 300.3908727 +22.6442582      422.896     72.57346      1.335     3.43     4.592462     20.46476     56.05841         9     0.943     0.721 -44.33   0
       335    976.9019    113.4443 300.4384360 +22.6864309     280.1028     72.53652      1.040     2.31     4.791823     20.46476     57.56791         5     0.790     0.475 -57.25   0
       336    316.2525    109.5183 300.2340116 +22.4874923     5917.509     72.57346      1.431     2.59     5.005966     20.46476     735.7232        35     1.265     1.069  66.24   0
       337    167.3540    108.9563 300.1879147 +22.4427123      755.283     72.57346      1.435     3.26     5.113861     20.46476     84.33978        13     0.993     0.915 -78.41   0
       338     11.0905    105.9106 300.1403661 +22.3949985     712.8237     72.70261      1.577     3.58     5.096556     20.46476     90.96969        13     1.159     0.786  34.53   0
       339    287.9252    103.4802 300.2271624 +22.4772705     369.4755     72.64729      1.427     3.54     5.010073     20.46476     43.66176        10     0.933     0.752  84.37   0
       340    791.6711    100.5241 300.3848929 +22.6272808     275.9469     72.62885      1.818     5.91     4.662908     20.46476     31.83521         9     1.110     0.885  56.38   0
       341     77.6914    100.1348 300.1629210 +22.4133053     452.8968     72.66574      1.447     3.47     5.114744     20.46476     59.31219         9     0.863     0.770 -14.43   0
       342    562.4088     94.9119 300.3153205 +22.5570283     6159.925     72.46258      1.351     2.40     4.717162     20.46476     804.9341        35     1.184     1.065  80.37   0
       343    447.7083     94.8611 300.2796461 +22.5226617     728.4341     72.62885      1.251     2.23     4.758358     20.46476     109.7806         9     0.817     0.671 -21.32   0
       344    619.5309     89.9002 300.3347264 +22.5726925     242.6834     72.62885      1.254     3.45     4.910984     20.46476     46.28804         6     0.804     0.499 -88.72   0
       345    814.0907     88.1522 300.3958891 +22.6304336      330.225     72.53652      1.237     3.88     4.680677     20.46476     30.43394         5     0.977     0.441  46.76   0
       346    756.2903     86.5320 300.3784070 +22.6126670      280.808     72.68418      1.178     3.36     4.684167     20.46476     43.32321         5     0.745     0.440 -23.06   0
       347    814.8368     84.3808 300.3973443 +22.6295724     835.6798     72.55499      1.529     3.72     4.679867     20.46476     107.3636        13     1.267     0.752  69.48   0
       348    907.5306     83.3604 300.4265629 +22.6570194     524.2377     72.49957      1.502     2.86     4.824359     20.46476     72.43424        10     0.952     0.728  30.78   0
       349    255.3550     78.8845 300.2250113 +22.4604469      467.216     72.51804      1.501     3.26     5.003041     20.46476      64.5302         8     0.991     0.565  26.51   0
       350    613.4866     77.1912 300.3369647 +22.5672294     431.7304     72.46258      1.283     3.34     4.910984     20.46476     67.71128         8     0.993     0.599  54.72   0
       351    690.7108     74.9699 300.3617298 +22.5897112     6164.115     72.49956      1.346     2.59     4.848029     20.46476     809.5236        31     1.184     1.023  86.17   0
       352    465.5545     74.0969 300.2919294 +22.5220403     1410.588     72.55499      1.349     2.07     4.770532     20.46476     211.9438        21     1.124     1.005  48.87   0
       353    731.8511     72.3104 300.3754049 +22.6012621     914.9845     72.55499      1.385     2.39     4.705316     20.46476     132.1843        13     1.040     0.720 -87.64   0
       354    801.3516     70.2017 300.3977393 +22.6214587     411.4556     72.51804      1.307     3.36     4.688382     20.46476     51.19214         7     0.835     0.607 -56.89   0
       355    747.7654     68.4011 300.3816292 +22.6049018     733.3506     72.49957      1.853     4.43     4.688878     20.46476     75.96415        16     1.298     1.075 -57.32   0
       356    214.3842     66.3297 300.2163472 +22.4445645     666.8212     72.55499      1.406     3.59     5.017888     20.46476     77.45216        15     1.233     0.826  76.38   0
       357   1017.9519     65.9743 300.4666268 +22.6850561     553.1216     72.55499      1.422     3.95     5.048058     20.46476     70.13831        13     1.089     0.887 -77.68  16
       358     61.5744     66.8396 300.1687082 +22.3989151     319.0919     72.57346      1.286     3.38     5.073563     20.46476     39.45163         5     0.743     0.444  68.67   0
       359    786.2139     64.1229 300.3949936 +22.6151799     479.2762     72.55499      1.193     2.40      4.68987     20.46476      80.5193         8     0.771     0.669 -55.28   0
       360    734.9652     59.9210 300.3803911 +22.5986319     2881.812     72.48107      1.397     2.24     4.697741     20.46476     418.5616        30     1.241     1.036  81.16   0
       361    375.8951     60.8521 300.2683338 +22.4913793     524.9171     72.61039      1.430     2.89     5.022007     20.46476     65.45268         8     0.856     0.670 -89.62   0
       362    750.1991     58.8637 300.3854790 +22.6028878     921.2294     72.53652      1.765     5.25      4.69111     20.46476     73.64988        15     1.549     0.686  47.68   0
       363     28.4702     53.9336 300.1626110 +22.3852870     824.1089     72.57346      1.622     3.59     4.995836     20.46476     89.62293        13     1.087     0.957  36.90   0
       364    821.3959     51.5574 300.4100285 +22.6220958     1483.709       72.555      1.349     2.38     4.667905     20.46476     200.8161        21     1.062     1.045  84.49   0
       365    981.5012     49.9926 300.4604409 +22.6695531     313.0826     72.42558      1.745     3.76     5.043599     20.46476     24.99479         6     0.815     0.498  86.48   0
       366    759.2879     44.8303 300.3928591 +22.6015728     755.6671     72.51804      1.477     3.38     4.694582     20.46476     85.75397        11     1.083     0.653  39.49   0
       367    564.8990     43.9589 300.3326127 +22.5431287     1081.273     72.51804      1.316     2.37     4.878791     20.46476     164.4547        14     1.008     0.794  81.25   0
       368    137.6653     43.9600 300.1997593 +22.4151503     643.7712     72.49957      1.695     3.25     5.120956     20.46476     74.68768        11     1.068     0.903  63.96   0
       369    468.8575     42.0217 300.3033539 +22.5138120     667.3554     72.55499      1.271     2.90     5.007972     20.46476     104.9536        12     0.904     0.861 -51.90   0
       370    851.0924     41.1207 300.4226653 +22.6279811     348.7114     72.64729      1.314     2.66     4.617981     20.46476     60.64619         5     0.766     0.498 -48.40   0
       371    240.1974     32.1086 300.2354614 +22.4424696     3874.934     72.44408      1.494     2.75     4.958817     20.46476     380.1269        32     1.288     1.118  58.04   0
       372    808.3204     32.8599 300.4120148 +22.6128052     651.6092     72.59193      1.515     2.56     4.685142     20.46476     84.87679         8     0.823     0.697 -13.74   0
       373     32.8144     32.2049 300.1710022 +22.3803506     494.6828     72.40707      1.791     3.74     4.955163     20.46476     47.49443         5     0.913     0.441 -45.53   0
       374    801.4032     24.6452 300.4125222 +22.6083725     961.0651     72.53652      1.433     2.26     4.699541     20.46476      137.695        13     0.912     0.815  73.41   0
       375    767.3677     23.8761 300.4021678 +22.5979652     412.5122     72.53652      1.410     4.61     4.699789     20.46476     50.49081         8     1.165     0.599 -59.67   0
       376    356.1041     24.1475 300.2740757 +22.4749051     1166.187     72.61039      1.408     3.01     5.011335     20.46476     136.9037        17     1.140     0.881  52.96   0
       377    839.4167     19.6366 300.4259903 +22.6183077     722.1462     72.53652      1.689     3.58     4.619697     20.46476     71.12114        12     1.134     0.713  60.73   0
       378    762.6906     19.7655 300.4020431 +22.5953832     619.9686     72.51804      1.478     3.08      4.70078     20.46476     58.95039         7     0.814     0.609 -54.59   0
       379    616.1109   1019.8928 300.0315754 +22.8387112     2292.268     72.22175      1.922     4.49     2.744766     20.46476     151.0907        29     1.416     1.317  45.89  16
       380    242.7806   1018.8105 299.9158192 +22.7263579      3042.05     72.49956      7.021    23.61      60.0822     20.46476     63.60351       165     4.883     3.171 -53.48  27
       381    702.5778   1015.1588 300.0600352 +22.8632913     8573.896     72.57346      1.960     4.59     3.187392     20.46476      485.243        48     1.540     1.454  31.63  19
       382    708.1021   1012.6991 300.0625559 +22.8642426     9427.959      72.7579      1.938     4.21     3.262341     20.46476     552.8988        51     1.533     1.455  45.39   3
