#   1 NUMBER                 Running object number                                     
#   2 X_IMAGE                Object position along x                                    [pixel]
#   3 Y_IMAGE                Object position along y                                    [pixel]
#   4 ALPHA_J2000            Right ascension of barycenter (J2000)                      [deg]
#   5 DELTA_J2000            Declination of barycenter (J2000)                          [deg]
#   6 FLUX_APER              Flux vector within fixed circular aperture(s)              [count]
#   7 FLUXERR_APER           RMS error vector for aperture flux(es)                     [count]
#   8 FLUX_RADIUS            Fraction-of-light radii                                    [pixel]
#   9 FWHM_IMAGE             FWHM assuming a gaussian core                              [pixel]
#  10 BACKGROUND             Background at centroid position                            [count]
#  11 THRESHOLD              Detection threshold above background                       [count]
#  12 FLUX_MAX               Peak flux above background                                 [count]
#  13 ISOAREA_IMAGE          Isophotal area above Analysis threshold                    [pixel**2]
#  14 A_IMAGE                Profile RMS along major axis                               [pixel]
#  15 B_IMAGE                Profile RMS along minor axis                               [pixel]
#  16 THETA_IMAGE            Position angle (CCW/x)                                     [deg]
#  17 FLAGS                  Extraction flags                                          
         1    476.7923     15.8271 300.3326814 +22.5431054     1027.497     72.19554      1.497     3.61     7.330008     20.36856      122.069        15     1.143     0.893  48.61   0
         2    380.7054     14.3891 300.3032210 +22.5139413     779.1385     72.14035      1.277     2.94     7.715957     20.36856     94.03055        12     1.100     0.701 -12.63   0
         3    762.5743     12.9575 300.4226912 +22.6277562     363.1942     72.23231      1.584     3.18     7.886655     20.36856     54.57443         8     1.046     0.670  61.18   0
         4   1023.0192     11.1395 300.5045586 +22.7050873     1665.638     59.67118      1.480     4.58     7.349931     20.36856      225.108        20     1.489     0.827  80.01  24
         5    720.1806      4.9546 300.4120621 +22.6127760      740.758     71.43761      1.609     3.54     8.188462     20.36856     73.91538        11     1.191     0.748 -35.40  16
         6    151.8747      3.9002 300.2353995 +22.4424350     3614.816     68.45774      1.728     3.37      8.79677     20.36856     323.7788        35     1.376     1.324  17.16  24
         7    574.6393      1.6960 300.3677458 +22.5683106     166.4317     58.22985      1.062     4.17     7.306135     20.36856     38.78761         7     0.898     0.643 -18.66  24
         8    478.0104      1.4746 300.3377097 +22.5393408     283.7968     57.00867      1.393     3.79     7.336034     20.36856     36.92355         6     0.827     0.499   2.14  24
         9    151.1516    998.8090 299.9122702 +22.7279203     2886.899     72.21393      5.936    23.66     82.45447     20.36856      75.1326       125     5.992     2.594  20.33  18
        10     66.9668   1010.5231 299.8822829 +22.7060224     5536.402     72.19554     15.869    73.13     74.73866     20.36856     166.2894      1973    16.112    11.219  42.72  27
        11    129.4877   1008.5123 299.9023769 +22.7242042      622.772     72.36086      2.416     7.18     90.90231     20.36856     36.32095        11     1.482     0.975  -9.03   0
        12    151.6878    982.8171 299.9176378 +22.7234940     1336.612     72.12195      4.741     7.95     68.27684     20.36856     39.96933        11     1.929     0.916 -29.14   3
        13    144.4768    970.3239 299.9194579 +22.7177472     1182.285     72.28743      9.454    10.48     56.96411     20.36856     50.71375        24     2.833     1.081  83.08   3
        14    147.1977    978.0924 299.9177778 +22.7207918     1891.896     72.10354      3.969    12.97     63.93067     20.36856     54.67484        30     2.964     1.581 -57.18   3
        15    146.3307    974.3658 299.9187201 +22.7194627     1303.749     72.19554      4.042    10.23     60.42951     20.36856     51.63971        20     2.777     1.050 -60.32   3
        16    153.3702    991.5643 299.9153163 +22.7265078     2176.955     72.21393      9.041    14.79     76.25449     20.36856     61.79191        55     3.210     1.894 -56.46   3
        17    906.0102    971.3262 300.1563697 +22.9463079     811.1096     72.19554      2.145     7.24     5.157162     20.36856     42.69958        15     1.349     1.089  46.42   0
        18     58.8164    915.2216 299.9107386 +22.6762441     3025.231     72.17715     12.179    49.03     21.07714     20.36856     74.77056       705    10.564     6.313 -33.84  19
        19    210.9679   1000.5337 299.9303152 +22.7463587     1310.115     72.19554      2.571    11.89      71.8703     20.36856     58.17081        32     2.107     1.869 -26.82   0
        20    632.0740    954.2734 300.0764855 +22.8593379     6802.314     72.25069      2.108     5.07     5.323411     20.36856     351.4666        51     1.633     1.560  39.38   0
        21    527.0568    991.7979 300.0315582 +22.8386359     2279.169     72.15875      2.088     5.60     5.361876     20.36856     112.2576        35     1.614     1.431 -49.40   0
        22    512.9136    949.0623 300.0410507 +22.8221275     521.2151     72.30579      2.134     5.23     5.532593     20.36856     32.67464        10     1.230     0.629  60.32   0
        23    713.6766    987.8060 300.0910178 +22.8934213     747.4734     72.10354      2.178     7.40     5.187069     20.36856     37.67014        16     1.383     1.109  -4.47   0
        24    148.4902    947.8846 299.9280028 +22.7125142     743.6827     72.34251      3.410     3.86     37.45575     20.36856     29.50468         5     1.309     0.327  39.94   0
        25    540.4310    945.1438 300.0508974 +22.8292506     1605.773     72.21393      1.997     5.25     5.535549     20.36856     95.44505        30     1.478     1.374 -37.53   0
        26    614.6008    987.3358 300.0602871 +22.8635952     6268.641     72.19554      1.817     5.24     5.193308     20.36856     446.6978        30     1.680     1.025  74.75   3
        27    118.7926   1009.9409 299.8985864 +22.7214052      298.266     72.17715      1.550     4.81     91.56625     20.36856     40.42928         5     0.943     0.696  72.00   0
        28    612.0000    987.0681 300.0595637 +22.8627388     3361.443     72.14035      1.555     4.03     5.193308     20.36856      341.682        19     1.552     0.732 -87.69   3
        29    434.4507    941.0942 300.0192039 +22.7963192     1027.711     72.26906      1.989     5.78     5.691547     20.36856     61.17496        22     1.373     1.278  46.60   0
        30    364.9399    939.3463 299.9981296 +22.7749773     6626.878     72.25069      2.115     4.84      5.72901     20.36856     437.1235        49     1.613     1.553   6.30   0
        31    620.2812    984.8168 300.0628768 +22.8645743     6630.175     72.19554      1.935     5.66     5.201194     20.36856     447.4153        42     1.843     1.160  71.41   3
        32    111.9901    920.6265 299.9255144 +22.6937458     930.7412     72.19554      4.121     3.84     21.77426     20.36856     29.59436         5     1.243     0.341 -47.16   0
        33    911.3098    918.4138 300.1752309 +22.9326910     2072.542     72.14035      2.131     6.44     5.385712     20.36856     86.33801        32     1.576     1.354  52.81   0
        34    218.5297    973.7993 299.9413622 +22.7409572     7533.836     72.14035      7.406    30.52     47.97142     20.36856     160.3102       701    10.511     4.941  60.10  18
        35    560.7921    914.7988 300.0671083 +22.8266400     475.8665     72.01141      1.949     7.24     5.529626     20.36856     41.28718         8     1.335     1.099 -24.29   0
        36    410.0310    914.0713 300.0203864 +22.7812414     315.9974     72.19554      1.485     3.77     5.719549     20.36856     30.06835         5     1.017     0.402  60.16   0
        37    700.2504    907.2618 300.1130245 +22.8662647       812.48     72.25069      2.126     6.97     5.415361     20.36856     44.74983        19     1.532     1.092  78.06   0
        38    734.9843    901.4656 300.1257390 +22.8750058     1205.933     72.17715      2.085     6.03     5.414772     20.36856     69.28857        23     1.446     1.182 -46.45   0
        39    757.1998    894.9978 300.1347694 +22.8798030     11597.76     71.97453      2.024     4.90     5.423039     20.36856     693.9241        60     1.643     1.550  43.73   0
        40    949.1754    895.8950 300.1943703 +22.9375589     452.2709     72.12195      2.669     4.92     5.555655     20.36856      33.3308         7     1.259     0.545 -71.11   0
        41    803.3276    895.5217 300.1489854 +22.8937712      505.895     72.30579      1.756     5.62     5.418376     20.36856     41.96761         9     1.111     0.801 -10.88   0
        42    186.1525    895.4982 299.9567494 +22.7087810     715.9943     72.23231      4.350     4.34     12.40667     20.36856     30.96133         5     0.929     0.579 -44.10   0
        43    335.6682    998.5839 299.9697535 +22.7832000     744.3563     72.19554      3.010     8.03     5.799788     20.36856     42.58095        16     1.627     1.107 -42.39   0
        44    890.4271    888.0120 300.1785997 +22.9177004     344.3624     72.19554      1.650     3.86     5.397545     20.36856     31.27644         5     1.283     0.334  40.33   0
        45     68.4740    886.1990 299.9231761 +22.6708162     640.2665     72.08512      2.173     8.11     14.34003     20.36856     39.28687        12     1.789     1.027  61.99   0
        46    765.8579    877.0425 300.1433070 +22.8772382     1399.941     72.17715      2.020     5.82     5.455747     20.36856     82.24597        24     1.361     1.216 -49.70   0
        47    617.9668    873.6577 300.0983007 +22.8319585     542.2576     72.21393      2.217     6.01     5.399779     20.36856     41.79266        12     1.400     1.052   2.23   0
        48    803.5101    871.2300 300.1569399 +22.8868464      871.368     72.15875      2.891     9.17     5.476157     20.36856     49.58339        16     1.818     1.292  78.59   2
        49    852.2422    862.8294 300.1748728 +22.8990280     603.4307     72.23231      1.802     5.49      5.44085     20.36856     39.53545        13     1.143     1.008  -1.81   0
        50    703.4081    861.0712 300.1290261 +22.8539421     824.5498     72.17715      2.081     7.20     5.441664     20.36856     54.48189        16     1.462     0.994  41.72   0
        51    307.6041    860.3109 300.0059776 +22.7351020     137.4828     72.10354      1.124     4.07     6.219041     20.36856     30.05432         5     1.216     0.389  75.10   0
        52    715.0414    858.3783 300.1335286 +22.8566535     582.8196     72.23231      1.759     6.46     5.449539     20.36856     47.24605        13     1.639     0.714 -48.05   0
        53    416.1552    856.9707 300.0408564 +22.7666850     4260.459     72.23231      1.979     4.21     5.700537     20.36856     299.5261        44     1.520     1.468  41.92   0
        54    193.7442    846.1886 299.9751396 +22.6969085     328.7494     72.17715      1.688     5.10     8.033456     20.36856      40.6581         5     1.053     0.699 -13.77   0
        55    141.9032    842.0943 299.9603454 +22.6801870     715.8592      72.3792      1.969     6.15     9.210342     20.36856     51.86281        13     1.706     0.873  45.16   0
        56    118.4748    839.6512 299.9538534 +22.6724596     1578.668     72.21393      2.146     5.15     9.114998     20.36856     104.7761        30     1.468     1.418 -73.82   0
        57     59.6686    953.8696 299.8984377 +22.6875849     5429.374     72.25069     22.381    10.96     38.56644     20.36856     1245.883      3410    21.533    15.275  -9.50  19
        58    990.5556    829.1639 300.2289809 +22.9307676     2153.528     72.25069      2.103     5.23     5.935181     20.36856     110.7895        35     1.600     1.404 -37.91   0
        59    650.2112    828.0693 300.1231698 +22.8285247     657.7366     72.19554      2.651     6.78     5.411174     20.36856     33.70662         9     1.511     0.854 -78.26   0
        60    944.6497    827.6744 300.2151359 +22.9165954     2153.778     72.19554      2.020     5.00     5.856614     20.36856     116.6131        32     1.433     1.393  40.77   0
        61    728.4685    821.4341 300.1497240 +22.8500616      738.207     72.19554      1.999     4.70     5.458071     20.36856     50.25667        17     1.167     1.046  78.23   0
        62    151.7782    821.1188 299.9702338 +22.6771297     374.6385     72.15875      1.281     3.89     7.898778     20.36856     43.52229         6     0.938     0.462 -58.44   0
        63    596.2097    815.2118 300.1105181 +22.8086524     4758.117     72.08512      1.793     4.06     5.420287     20.36856     366.0292        39     1.421     1.352 -27.02   0
        64    398.1849    812.4233 300.0497400 +22.7485087     624.3842     72.19554      1.779     4.75     5.692846     20.36856     51.67155        13     1.318     0.949   0.88   0
        65    146.4424    808.7474 299.9725947 +22.6719795     1436.634     72.19554      2.058     4.95     7.158174     20.36856     103.9446        29     1.486     1.426 -38.04   0
        66    616.8638    807.6796 300.1194030 +22.8126769     772.0882     72.30579      1.907     6.97     5.395678     20.36856     56.14213        15     1.318     1.034 -15.19   0
        67    165.9906    805.2050 299.9798260 +22.6768249     483.8406     72.04828      2.005     6.78     6.893064     20.36856     40.85292         9     1.987     0.649  55.58   0
        68    533.3712    799.3862 300.0960815 +22.7852786     211.8887     72.21393      1.406     4.58     5.542738     20.36856     28.73473         6     1.195     0.499  28.93   0
        69    772.3230    795.0477 300.1719757 +22.8556149     4247.164     72.19554      1.856     4.12     5.773111     20.36856     311.4396        36     1.415     1.333  25.32   0
        70    989.1500    795.4290 300.2395069 +22.9206485     997.9091     72.21393      1.874     6.29     6.081841     20.36856      60.1093        20     1.258     1.188  48.66   0
        71    503.3453    791.8447 300.0891784 +22.7741155     215.6875     72.21393      1.176     2.59     5.576228     20.36856     42.15279         5     0.827     0.615 -47.49   0
        72    181.2032    789.5677 299.9896394 +22.6768988     483.2711     72.17715      1.705     4.30     6.667618     20.36856     35.96958         7     1.051     0.502 -47.99   0
        73    489.6952    787.5663 300.0863168 +22.7687964     680.8176     72.17715      1.798     3.65     5.576237     20.36856     56.40308        10     0.983     0.831 -74.33   0
        74    135.6662    785.3796 299.9768367 +22.6620422     1061.211     72.17715      2.020     4.97     6.622474     20.36856     69.89399        23     1.442     1.210 -19.37   0
        75    550.5417    781.4825 300.1072494 +22.7852812      550.656     72.26906      1.789     6.20     5.662702     20.36856     47.32303        12     1.162     0.929 -37.33   0
        76    285.2968    777.3338 300.0260024 +22.7045959     53949.12     72.30579      1.922     3.98     6.498823     20.36856     4562.451       102     1.646     1.541  38.22   0
        77    543.2066    776.5782 300.1065577 +22.7816748     1663.094     72.17715      1.804     4.21     5.703003     20.36856     145.2171        25     1.355     1.169 -29.57   0
        78    956.0326    775.9877 300.2354876 +22.9051450     808.5449     72.17715      1.730     4.63     6.172745     20.36856     64.35744        15     1.142     1.101 -18.69   0
        79    214.4362    776.0021 300.0043860 +22.6829698      268.169     72.19554      1.151     3.78     6.685581     20.36856     44.21878         6     0.830     0.495 -86.81   0
        80    572.1454    772.6503 300.1168510 +22.7892170     836.1207     72.23231      1.793     4.13     5.674276     20.36856     74.12382        17     1.217     1.045  55.23   0
        81    583.1729    770.9325 300.1208454 +22.7920273     640.3466     72.17715      1.758     4.80     5.662747     20.36856     58.16002         9     0.936     0.749 -81.15   0
        82    903.5864    769.7796 300.2211370 +22.8876589      429.398     72.15875      2.292     4.96     6.137733     20.36856     25.59397         5     1.073     0.648 -24.94   0
        83    245.5390    768.1382 300.0166183 +22.6900374     2603.553     72.23231      0.688     0.44     6.630023     20.36856     1210.227         8     0.551     0.450 -37.92   0
        84    688.7947    767.6152 300.1548448 +22.8227146     481.0742     72.08512      1.682     4.95     5.818442     20.36856     47.97268         8     1.397     0.496 -28.87   0
        85    725.9003    757.6907 300.1696388 +22.8309765     796.1419     72.36086      1.786     6.25     5.912621     20.36856     53.96587        16     1.201     1.017  39.08   0
        86    335.0775    754.6405 300.0488700 +22.7130030     31835.72     72.17715      1.825     3.76     6.315905     20.36856     2868.089        76     1.534     1.469  53.63   0
        87    349.3892    755.1401 300.0531628 +22.7174361     2039.784     72.15875      1.900     4.10     6.247261     20.36856     162.5617        27     1.411     1.201  50.85   0
        88    858.1997    750.8848 300.2131151 +22.8686385      2733.18      72.0667      1.862     4.06     6.227995     20.36856     180.3796        33     1.417     1.319  67.18   0
        89    346.2480    749.1401 300.0541344 +22.7147718     653.8491     72.25069      1.841     4.05     6.321201     20.36856     67.53182        12     1.169     0.867  -5.10   0
        90    616.2064    746.9694 300.1389265 +22.7950394     958.7525     72.19554      1.844     5.23     5.801409     20.36856     78.72723        20     1.417     1.046   2.87   0
        91    452.3499    745.9378 300.0882116 +22.7456501     563.4388     72.25069      2.120     4.62     5.751607     20.36856     63.12429         7     1.547     0.512  64.65   0
        92    218.3681    746.7144 300.0151252 +22.6757419     858.3087     72.17715      2.050     5.12     6.662647     20.36856     78.61504        11     1.398     0.690  77.05   2
        93     22.8281    742.1656 299.9557926 +22.6158029     514.5485     72.21393      2.031     4.57     6.326368     20.36856     44.78421         7     1.013     0.846 -49.44   0
        94    463.4604    741.7777 300.0930236 +22.7477846     846.5485     72.15875      1.698     3.43     5.689816     20.36856     88.05341        15     1.170     0.871  -0.65   0
        95    864.2336    739.2390 300.2187818 +22.8670975     475.7386     72.23231      1.833     4.15     6.411979     20.36856     39.44229         7     1.141     0.431  31.81   0
        96    365.3839    738.0100 300.0637077 +22.7173113     331.6758     72.12195      1.480     4.53     6.335938     20.36856     39.39647         6     0.859     0.680 -78.51   0
        97    409.2317    736.4487 300.0778671 +22.7300038     462.0229     72.23231      1.768     4.12     6.074961     20.36856     43.86802         6     0.741     0.653 -31.34   0
        98     51.2212    735.5582 299.9667658 +22.6224221     633.9676     72.23231      2.192     4.78     6.331363     20.36856     41.10937         9     1.058     0.667  66.84   0
        99    617.3445    735.4427 300.1430263 +22.7920687     543.1379     72.19554      1.736     4.61     5.896234     20.36856     49.48497         5     1.184     0.510  28.39   0
       100    841.5503    733.1261 300.2136910 +22.8585488     487.5229     72.19554      1.658     3.74     6.366614     20.36856     43.20533         6     0.807     0.497  89.26   0
       101    215.6612    730.8344 300.0194422 +22.6703721     412.5136     72.21393      1.792     4.48     6.645045     20.36856     51.45498         6     1.191     0.595 -46.07   0
       102    221.5980    722.6470 300.0239490 +22.6698016     2707.678     72.19554      0.818     3.07     6.642505     20.36856     1005.583         9     0.664     0.414 -46.01   0
       103    508.2829    719.4703 300.1142327 +22.7548075     633.2017     72.32415      1.717     4.00      5.93649     20.36856     60.37592        13     1.182     0.852 -15.11   0
       104    924.6565    716.2159 300.2451169 +22.8785680     4488.812     72.17715      1.864     4.13     6.478111     20.36856     322.9329        38     1.425     1.382  76.52   0
       105    530.0795    716.8820 300.1218640 +22.7605943     1358.698      72.3425      1.634     3.78     6.054476     20.36856     120.6094        23     1.219     1.121 -77.77   0
       106    450.0977    716.4667 300.0970850 +22.7365110     378.0171     72.28743      1.330     2.48     6.011709     20.36856     50.42241         5     0.723     0.445  23.33   0
       107    612.2886    711.9976 300.1490676 +22.7838181     423.5546     72.12195      1.960     4.13      6.03892     20.36856     47.29863         6     1.078     0.475 -37.66   0
       108    913.3120    707.6700 300.2443529 +22.8727149     1742.217     72.36086      1.852     4.38     6.480408     20.36856     118.5667        29     1.405     1.327  -8.97   0
       109    276.3180    701.3293 300.0479010 +22.6800843     845.6445     72.30579      1.716     4.12      6.59285     20.36856     81.89711        16     1.286     0.876  19.49   0
       110    739.6100    698.8425 300.1930336 +22.8181704     2543.481     72.19554      1.746     3.67     6.247327     20.36856      206.733        34     1.502     1.221   5.67   0
       111    944.2874    697.7784 300.2572338 +22.8791431     1638.347     72.12195      1.887     4.34     6.412237     20.36856     115.5527        28     1.354     1.318 -40.13   0
       112    957.5337    688.2285 300.2644707 +22.8803620     328.7762     72.17715      2.250     5.98     6.326301     20.36856     25.69471         8     1.519     0.661   3.19   0
       113    125.4379    684.8689 300.0063088 +22.6301288     517.4041     72.15875      1.697     5.89     6.599319     20.36856     42.92415        12     1.284     0.850 -49.29   0
       114    822.0886    685.2079 300.2231874 +22.8389475     571.1208     72.10354      1.892     5.87     6.417209     20.36856     38.14545        12     1.278     0.760  -5.97   0
       115    857.9744    675.7714 300.2374482 +22.8469782     148688.7     72.17715      1.776     3.73     6.448908     20.36856     9962.588       155     1.606     1.546 -85.67   0
       116    619.5671    679.3979 300.1619261 +22.7766315     497.9975     72.15875      1.988     5.63     6.287434     20.36856     30.13631         9     1.028     0.869 -44.12   0
       117   1004.8872    677.5528 300.2827209 +22.8914647     1291.848     72.17715      1.873     4.54       5.9935     20.36856     95.64181        24     1.329     1.207  54.67   0
       118    710.5665    675.7668 300.1914734 +22.8028411     912.0808     72.26906      1.831     4.68      6.31786     20.36856     69.86031        16     1.214     0.935 -63.39   0
       119    890.9661    669.0839 300.2499146 +22.8549317     374.9201     72.15875      1.444     4.14     6.483266     20.36856     48.53654         8     1.114     0.577  66.92   0
       120    544.2488    664.3603 300.1433396 +22.7497504     1609.569     72.23231      1.609     3.26     6.405732     20.36856     174.6689        25     1.265     1.113  12.68   0
       121    725.4280    661.7933 300.2006462 +22.8032752     9366.372     72.19554      1.675     3.57     6.346945     20.36856     804.9415        43     1.377     1.287  67.16   0
       122    207.6669    663.4706 300.0388365 +22.6486371      217.501     72.23231      1.214     3.98      6.58571     20.36856     36.96376         5     0.938     0.494  -4.90   0
       123    226.8115    656.6130 300.0470201 +22.6524068     4880.229     72.10354      1.769     3.70     6.586175     20.36856     420.6122        39     1.413     1.335  38.54   0
       124    308.8467    654.9464 300.0730903 +22.6765152     1188.896     72.23231      1.718     4.49     6.574538     20.36856     91.20575        20     1.337     1.063 -39.09   0
       125    184.6422    653.0933 300.0350439 +22.6387561     480.5115     72.21393      2.052     4.37     6.581191     20.36856     44.97343         8     1.099     0.790  16.25   0
       126    517.5992    650.6154 300.1395011 +22.7378184     721.7585     72.04828      1.718     4.62     6.507365     20.36856     75.07378        16     1.241     1.002  33.84   0
       127    508.8637    642.4141 300.1394433 +22.7328454     3233.199     72.15875      1.615     3.24     6.569014     20.36856     327.6779        30     1.281     1.187 -87.73   0
       128    499.1300    636.1861 300.1384337 +22.7281403     1459.123     72.21393      1.641     3.17     6.613818     20.36856     147.0581        22     1.202     1.095   5.29   0
       129    892.8857    634.9344 300.2616055 +22.8456872     471.0679     72.28743      1.785     5.29     6.450629     20.36856     50.91566         9     1.030     0.768  67.97   0
       130    162.3045    632.2139 300.0348760 +22.6260659     699.6203     72.12195      1.658     4.84     6.568635     20.36856     66.89194        17     1.285     0.967  17.85   0
       131    176.5062    630.5984 300.0398182 +22.6298592     571.7754     72.10354      1.737     4.87     6.572382     20.36856     57.65694        13     1.136     1.032  72.03   0
       132    233.3967    628.7435 300.0581197 +22.6463786     464.6931     72.15875      2.373     4.60     6.580974     20.36856     31.74509         5     0.815     0.737  19.84   0
       133    946.3370    628.0677 300.2805171 +22.8597107     428.2105     72.25069      1.509     3.40     6.385793     20.36856     51.76783         7     0.841     0.679 -30.16   0
       134    203.1618    627.5639 300.0490958 +22.6369778     298.2875     72.26906      1.261     3.18     6.579124     20.36856     58.20945         6     0.898     0.536  66.40   0
       135    423.8373    626.0351 300.1182796 +22.7026679     1722.597     72.26906      1.642     3.47     6.592453     20.36856     141.8207        22     1.183     1.095  49.62   0
       136    522.7385    626.2221 300.1490243 +22.7323495     432.2074     72.17715      1.446     4.95     6.650374     20.36856     57.82674         9     0.981     0.707  35.66   0
       137    999.6484    623.8807 300.2985185 +22.8744607     882.2109     72.23231      1.837     4.91     6.234212     20.36856     70.77238        19     1.335     1.054  19.02   0
       138    457.2229    625.1835 300.1289535 +22.7124252     324.1454     72.19554      1.415     3.91     6.652764     20.36856     33.60098         5     0.978     0.448  44.11   0
       139     77.8266    620.6223 300.0123679 +22.5974135     19822.06     72.17715      1.929     3.95     7.027384     20.36856     1746.589        68     1.607     1.517  37.69   0
       140    543.9944    620.5186 300.1574990 +22.7370776     495.0793     72.12195      1.568     3.62     6.660379     20.36856     48.51431         9     0.956     0.805 -25.60   0
       141    926.9865    607.5194 300.2811509 +22.8480101     1038.259     72.17715      1.743     6.14     6.396593     20.36856     78.86621        20     1.429     1.093 -86.05   0
       142     23.9165    604.8228 300.0007373 +22.5767157     1591.495     72.15875      2.100     4.51     7.115349     20.36856     128.6403        30     1.590     1.483  68.22   0
       143    793.6532    605.7569 300.2401225 +22.8075937     529.4617     72.21393      1.643     5.35     6.445057     20.36856     44.24953        10     0.952     0.848 -17.35   0
       144    508.6706    621.3073 300.1462377 +22.7267234     1101.062     72.32415      1.711     3.93     6.692953     20.36856     112.3913        17     1.229     0.918  63.81   0
       145    472.3201    601.8749 300.1412247 +22.7102515     421.8675     72.30579      1.499     4.07     6.784473     20.36856     53.18063        11     1.030     0.824 -85.31   0
       146    865.4594    600.4570 300.2642445 +22.8275642     1030.071     72.26906      2.706     8.97      6.43818     20.36856     60.24202        22     2.068     1.086   4.08   0
       147    612.7419    597.4622 300.1864093 +22.7510416     792.8449     72.25069      0.743    -0.31     6.687044     20.36856     477.3924         7     1.081     0.427 -50.72   0
       148    429.0737    594.2990 300.1302156 +22.6951199     716.7958     72.34251      1.467     3.23     6.679599     20.36856      77.5821        11     0.992     0.738  16.07   0
       149    577.0580    592.7025 300.1768341 +22.7389873     463.0219     72.28743      1.469     5.57     6.760291     20.36856     52.05256        11     1.150     0.768 -79.49   0
       150    624.3556    591.3126 300.1920258 +22.7527521     563.3416     72.17715      1.744     2.92     6.676273     20.36856      59.0025        10     0.916     0.738 -39.41   0
       151    594.5504    590.9602 300.1828510 +22.7437252     586.4708     72.21393      1.584     5.00     6.738459     20.36856     59.30415         9     0.880     0.805 -11.49   0
       152    473.1405    590.0350 300.1453247 +22.7070956     962.0549     72.21393      1.783     4.23     6.824681     20.36856       68.403        16     1.141     1.029 -23.35   0
       153    907.0801    585.8834 300.2819643 +22.8358303     3341.651      72.3425      1.699     3.51      6.38658     20.36856     237.8595        33     1.345     1.260  68.38   0
       154    438.7384    585.4820 300.1360883 +22.6954822     1710.307     72.28743      1.556     3.39     6.737023     20.36856     189.8139        20     1.114     1.052  80.74   0
       155   1005.0045    584.3130 300.3130400 +22.8646825     795.5028     72.12195      1.821     4.76     6.299381     20.36856     56.56795        15     1.211     1.068 -27.27   0
       156    804.0980    582.9042 300.2508012 +22.8041499     286.8886      72.3792      1.437     4.52     6.425271     20.36856     31.31493         8     0.857     0.677  42.49   0
       157      1.6889    578.9120 300.0022403 +22.5626145     2810.367     58.36649      1.246     2.93     7.213269     20.36856     380.2052        19     1.300     0.693 -88.83  24
       158    302.0869    572.1327 300.0978774 +22.6507063     9247.396     72.30579      1.625     3.13     6.533372     20.36856     925.7928        45     1.350     1.291  43.85   0
       159    424.5978    569.2137 300.1369665 +22.6865723     9215.754     72.02985      1.617     3.12     6.742559     20.36856     958.1375        44     1.363     1.248  70.68   0
       160    828.8825    567.6068 300.2634997 +22.8071701     325.3463     72.12195      1.649     3.88     6.413881     20.36856     29.06601         5     0.887     0.488   2.22   0
       161    836.3839    563.4380 300.2671934 +22.8082167     1904.614     72.19554      1.687     3.40     6.410084     20.36856     181.9725        27     1.270     1.182  24.58   0
       162    921.0033    560.9043 300.2944201 +22.8328132     12637.44     72.10354      1.720     3.52     6.340785     20.36856     1004.106        55     1.458     1.387  78.99   0
       163    485.1980    558.7933 300.1592239 +22.7017308     11555.04     72.01141      1.571     3.18     6.947814     20.36856     1139.717        48     1.332     1.290  45.38   0
       164    654.7343    554.6783 300.2133896 +22.7513190      540.905     72.28743      1.554     5.86     6.727303     20.36856      46.0486        11     1.299     0.744  58.83   0
       165    212.6512    554.2220 300.0758609 +22.6187622     1293.169     72.19554      1.566     3.26     6.560934     20.36856      135.245        20     1.165     1.108  23.74   0
       166    459.6166    552.0460 300.1534464 +22.6921297     378.7754     72.21393      1.507     3.38     6.902174     20.36856     44.92448         6     0.805     0.637 -58.96   0
       167    416.8610    546.9525 300.1417843 +22.6778591     4390.099     72.23231      1.555     3.24     6.783672     20.36856      411.738        33     1.249     1.203 -77.25   0
       168    759.8031    547.2742 300.2485539 +22.7806461     732.7381     72.10354      1.440     3.20     6.678896     20.36856     93.40973        13     1.057     0.877 -37.45   0
       169    395.0752    545.4271 300.1354957 +22.6708947     1300.553     72.17715      1.590     3.11     6.719335     20.36856     132.2621        19     1.119     0.985  44.93   0
       170    149.3183    545.1326 300.0591098 +22.5971715     817.4716     72.30579      1.748     4.10     6.577494     20.36856     88.26669        13     1.352     0.675  -1.91   0
       171    836.8345    542.6630 300.2740790 +22.8023774     1783.664     72.19554      1.758     3.97     6.396537     20.36856     131.8849        24     1.291     1.135 -62.73   0
       172    533.5182    534.6106 300.1821278 +22.7092535     206817.3     72.15875      1.590     2.95     7.034369     20.36856     24127.59       194     1.528     1.485 -31.30   0
       173    717.1306    539.6418 300.2377246 +22.7656774      771.691     72.15875      1.551     3.78     6.815402     20.36856      82.7131        14     1.175     0.811  66.23   0
       174    810.6185    538.1931 300.2673518 +22.7932455     271.2618     72.15875      1.165     5.53     6.397235     20.36856     68.59691         8     1.085     0.794  13.96   0
       175    785.7455    530.9086 300.2619581 +22.7837060     646.2811     72.25069      1.794     3.88     6.504296     20.36856     59.02649        10     1.020     0.888  18.46   0
       176    219.4833    534.4570 300.0844028 +22.6151335     3567.453     72.28743      1.700     2.99     6.535484     20.36856     420.9857        37     1.380     1.246  40.25   0
       177    565.2424    521.3165 300.1963282 +22.7149330     301.7808     72.15875      1.499     3.88     7.003127     20.36856     37.76846         5     0.905     0.476  46.58   0
       178    424.1102    514.7955 300.1544805 +22.6707913     2821.249     72.10354      1.592     3.00     6.763276     20.36856     301.8695        26     1.229     1.107  66.99   2
       179    268.4584    517.6734 300.1050903 +22.6249883     457.2687     72.23231      1.501     3.59      6.47481     20.36856      48.6564         7     0.972     0.704 -67.29   0
       180    741.3349    503.7848 300.2569121 +22.7626135      390.035     72.17715      1.394     3.80     6.824548     20.36856     45.54269        10     1.049     0.664  51.12   0
       181    821.0693    501.2807 300.2825944 +22.7857584     1784.089     72.30579      1.664     3.12     6.400613     20.36856     167.7904        27     1.285     1.133  84.30   0
       182    692.3483    498.8544 300.2432377 +22.7465320      2635.48     72.23231      1.563     3.19      6.82969     20.36856     237.3114        25     1.210     1.105 -78.17   0
       183    936.8135    497.0020 300.3200996 +22.8191635     453.4568     72.02985      1.735     4.21     6.317982     20.36856     36.89902         8     0.933     0.757  76.62   2
       184    934.9277    492.3850 300.3210097 +22.8172711     672.6551     72.19554      1.750     4.88     6.316495     20.36856     60.95627        12     1.099     0.898  40.67   2
       185    901.3744    495.5078 300.3095244 +22.8081297      306.699     72.14035      2.014     5.07     6.347431     20.36856     28.63734         5     1.341     0.542  46.72   0
       186    597.0151    495.8310 300.2145019 +22.7171214     340.6715     72.19554      1.333     3.46     6.961319     20.36856     48.19354         8     0.928     0.627 -63.94   0
       187    479.7986    494.5202 300.1784058 +22.6816442     698.0445     72.10354      1.467     3.28      6.76934     20.36856     95.49907        11     1.068     0.791  86.09   0
       188    949.6871    492.9331 300.3254385 +22.8218448     1489.694     72.30579      1.943     4.51     6.333933     20.36856     107.2866        24     1.420     1.082  57.52   0
       189    821.5973    491.3513 300.2859821 +22.7830608     2209.308     72.19554      1.875     4.15      6.40145     20.36856     201.8998        31     1.649     1.111  77.14   0
       190    574.8040    489.5270 300.2096262 +22.7086589     1019.269     72.14035      2.685     4.72      7.00527     20.36856      78.5325        15     1.329     1.115  82.78   2
       191    361.1772    489.3173 300.1431542 +22.6446200     286.5078     72.15875      1.234     2.62     6.586081     20.36856     43.06211         6     0.710     0.626 -61.85   0
       192    859.6620    486.4631 300.2994443 +22.7930463     4406.628     72.23231      1.693     3.21     6.397055     20.36856     419.1771        41     1.384     1.290  42.84   0
       193    413.3214    488.4152 300.1596831 +22.6599799     400.9319     72.21393      1.405     3.50     6.708101     20.36856      51.8408         5     0.750     0.471  14.50   0
       194    597.3723    483.0963 300.2187465 +22.7135677     365.3265     72.12195      1.581     4.33     6.980948     20.36856     44.09731         6     0.938     0.568 -21.77   0
       195    520.5400    482.7122 300.1949301 +22.6904515     425.1219     72.26906      1.584     3.44     6.927066     20.36856     48.67016         6     0.996     0.581 -29.98   0
       196    951.7866    477.3450 300.3311534 +22.8179886     843.2081     72.19554      1.813     4.66     6.348487     20.36856     62.16076        14     1.175     0.947 -14.81   0
       197     91.5527    476.3234 300.0634779 +22.5601008     1000.813     72.19554      1.742     4.01     6.554533     20.36856      97.1898        18     1.264     1.069  28.01   0
       198    752.1783    470.4355 300.2711179 +22.7562696      185.621     72.21393      1.425     4.01     6.761254     20.36856     39.79679         5     0.907     0.518 -52.24   0
       199     83.1219    466.2985 300.0641094 +22.5546955     402.5733     72.30579      1.778     6.28     6.535522     20.36856      30.1812         8     1.380     0.804  59.70   0
       200    691.4913    461.0060 300.2552545 +22.7353933      466.593     72.10354      1.369     2.28     6.885341     20.36856     63.17532         8     0.763     0.663   6.45   0
       201    580.2953    458.6388 300.2213621 +22.7014242     425.7593     72.17715      1.863     3.68     6.980438     20.36856     36.89313         5     1.006     0.702 -70.27   0
       202    632.9863    456.8437 300.2383667 +22.7166830     776.7943     72.21393      1.443     2.72     6.938026     20.36856     94.51875        12     0.932     0.807  59.42   0
       203    947.4897    449.7232 300.3387769 +22.8087565     481.4936     72.34251      1.385     4.26     6.381345     20.36856     76.33875        10     1.101     0.756 -26.82   0
       204    693.5757    449.1416 300.2597547 +22.7326058     685.7935     72.19554      1.353     3.00     6.903462     20.36856     84.91134        13     1.006     0.811  15.14   0
       205    851.0137    445.4763 300.3100481 +22.7786693     1019.674     72.21393      1.466     3.31      6.40226     20.36856     122.2821        14     1.070     0.841  64.07   0
       206    835.4102    441.7693 300.3063830 +22.7729339     838.1793     72.19554      1.571     2.97     6.403453     20.36856     93.00677        13     1.008     0.838  40.43   0
       207    815.9998    442.1649 300.3001992 +22.7672393      323.451     72.15875      1.212     2.44     6.404482     20.36856     50.13834         6     0.850     0.459  33.69   0
       208    579.5777    439.5182 300.2273433 +22.6957128     3261.524     72.15875      1.525     2.62     6.957942     20.36856     431.0607        29     1.206     1.121  86.20   0
       209    940.1769    438.9393 300.3399939 +22.8034662      520.658     72.19554      1.865     4.46     6.386879     20.36856     46.90561        12     1.276     0.838  44.66   0
       210     56.1926    430.8338 300.0672437 +22.5364412     331.3162     72.19554      1.287     2.74     6.478487     20.36856     41.76545         6     0.753     0.541 -38.89   0
       211    585.2507    427.6331 300.2329678 +22.6939944     274.9084     72.21393      1.430     3.47     6.946865     20.36856     29.11436         5     0.771     0.451 -15.66   0
       212    419.8053    427.0953 300.1816014 +22.6443008      383.537     72.08512      1.456     4.52     6.728508     20.36856     47.22332         7     1.133     0.600   5.76   0
       213    991.0477    418.8864 300.3623808 +22.8129143     1362.113     72.17715      1.672     3.87     6.497501     20.36856      105.616        19     1.220     1.064  47.57   0
       214    949.3506    417.8582 300.3496981 +22.8001453     999.3008     72.25069      1.622     3.65     6.432082     20.36856     100.2913        15     1.095     0.968   1.02   0
       215    863.0345    419.1254 300.3223497 +22.7746861     477.8278     72.17715      1.310     2.54     6.405026     20.36856     76.86539         6     0.750     0.516  24.55   0
       216    690.2490    413.5515 300.2702662 +22.7213761     1014.832     72.23231      1.454     3.18     6.950941     20.36856     111.4127        15     1.044     0.944  57.50   0
       217    485.9376    414.3208 300.2063439 +22.6604329     350.2061     72.28743      1.235     2.54      6.70672     20.36856     54.72216         7     0.811     0.577  25.72   0
       218    194.3911    411.4816 300.1165042 +22.5722942     696.5013     72.14035      1.589     4.04      6.51904     20.36856     67.31166        14     1.208     0.982 -53.13   0
       219    256.5771    407.1825 300.1372484 +22.5896890     3815.948     72.17715      1.621     2.98     6.663495     20.36856     423.5398        33     1.300     1.170  56.87   0
       220    989.6927    406.1913 300.3660771 +22.8088560     4323.245     72.12195      1.683     3.28     6.499135     20.36856     405.8909        40     1.353     1.349  63.19   0
       221    203.6400    401.9061 300.1224883 +22.5723145     7732.298     72.21393      1.680     3.55     6.552844     20.36856     722.0949        43     1.391     1.297  59.42   0
       222    344.5455    396.2751 300.1681676 +22.6129044     4836.366     72.23231      1.559     2.91     6.682981     20.36856     544.2715        31     1.245     1.121  59.15   0
       223    588.8343    393.1281 300.2452800 +22.6851471     18694.29     72.19554      1.487     2.82     6.917847     20.36856     2156.213        51     1.297     1.223  85.07   0
       224    435.6989    395.3559 300.1968490 +22.6399385      259.009     72.19554      1.234     3.46     6.694075     20.36856     43.37945         5     1.000     0.346  20.64   0
       225    606.1517    393.6996 300.2504918 +22.6904954     878.1171     72.23231      1.894     5.42     6.934177     20.36856     73.91109        17     1.480     0.826 -41.32   0
       226    833.0950    389.7353 300.3225446 +22.7572736     293.2467     72.30579      1.435     4.44     6.405295     20.36856     29.35894         6     1.209     0.463 -47.34   0
       227    786.1376    383.8528 300.3098049 +22.7415310     370.4012     72.25069      1.363     3.98     6.511281     20.36856     49.91378         9     1.003     0.685  -6.09   0
       228    969.8734    397.3331 300.3627642 +22.8003786     1775.163     72.25069      1.682     3.46     6.467755     20.36856      172.031        26     1.294     1.193 -73.16   0
       229    922.1942    376.0399 300.3547904 +22.7799894     820.9153     72.23231      1.716     3.56     6.405193     20.36856     79.03242        12     1.106     0.814  47.98   0
       230    778.1105    376.0010 300.3098485 +22.7368706     3464.617     72.10354      0.494     2.27     6.560189     20.36856     2379.789         8     0.397     0.394   1.06   0
       231    143.3418    372.8853 300.1131451 +22.5459129     2130.389     72.30579      1.759     3.16     6.655549     20.36856     230.7718        28     1.315     1.231  85.29   0
       232    529.4556    362.5240 300.2367055 +22.6585725      6605.67     72.23231      1.517     2.58     6.805514     20.36856     837.2064        39     1.269     1.196  77.42   0
       233    943.1848    363.0334 300.3655615 +22.7825257     1171.467     72.17715      1.560     3.22     6.427656     20.36856     136.2952        22     1.333     0.979 -76.76   0
       234    244.4247    361.8732 300.1481652 +22.5730312     610.2418     72.23231      1.436     3.14      6.83243     20.36856     93.02836        11     0.963     0.853  69.23   0
       235    102.2758    355.4783 300.1060192 +22.5286090     495.2178     72.30579      1.448     4.26     6.692553     20.36856     54.71938        11     1.230     0.638 -15.70   0
       236    789.7657    354.7131 300.3203898 +22.7342345     351.7501     72.15875      1.517     3.11     6.469813     20.36856     45.13387         5     0.898     0.415 -83.88   0
       237    733.7799    351.6303 300.3039287 +22.7165955     1188.416     72.19554      1.621     3.38     6.783995     20.36856     122.8596        19     1.215     1.098 -39.83   0
       238    643.1436    352.8803 300.2752642 +22.6898304     469.7193     72.23231      1.395     3.72     6.929677     20.36856     51.63368         8     0.853     0.638  38.49   0
       239    436.1082    348.6779 300.2121187 +22.6266445     6383.853     72.34251      1.512     2.91     6.646585     20.36856     686.0045        39     1.303     1.157  70.72   0
       240    925.6765    343.7826 300.3663417 +22.7717492     610.5085     72.19554      1.750     4.55     6.397619     20.36856     63.27516        14     1.287     0.824  46.67   0
       241    828.1577    343.4332 300.3360252 +22.7424762     1443.149     72.25069      1.547     2.85     6.403073     20.36856     160.3231        20     1.129     1.014  -7.71   0
       242    420.4335    337.7506 300.2107814 +22.6188102     556.1578     72.23231      1.610     3.36     6.662747     20.36856     77.81165        10     1.051     0.941  51.82   0
       243    503.3426    335.3827 300.2373738 +22.6429521     543.8671     72.19554      1.765     3.83      6.73019     20.36856     61.86878         8     0.960     0.727  61.44   0
       244    781.9323    334.3180 300.3245622 +22.7260238      209.824     72.30579      1.387     4.00      6.50974     20.36856     32.92967         5     1.012     0.510 -37.37   0
       245    483.9091    333.3416 300.2319820 +22.6365474     323.1482     72.26906      1.591     4.84     6.678382     20.36856     35.24483         7     0.951     0.697  -9.09   0
       246    800.7557    330.9793 300.3315166 +22.7306951     449.1266     72.25069      1.427     3.95     6.396367     20.36856     60.62921        10     1.030     0.732 -44.79   0
       247    323.6129    327.9304 300.1838209 +22.5869950     2606.368     72.21393      1.563     2.93     6.756254     20.36856     266.6873        28     1.294     1.098  55.64   0
       248     82.1092    330.5151 300.1078445 +22.5153965     180.0855     72.36086      1.307     4.47     6.869396     20.36856     33.21821         5     0.830     0.686 -43.35   0
       249     41.9490    325.4950 300.0969854 +22.5019215     1140.347     72.26906      1.766     3.59     7.027091     20.36856     113.0891        19     1.246     1.018   3.69   0
       250    670.7507    322.7094 300.2936569 +22.6894157     361.1559     72.19554      1.642     4.91     6.920402     20.36856      30.4831         7     1.309     0.523  43.53   0
       251    292.9596    317.2856 300.1777318 +22.5747559     30214.65     72.17715      1.590     2.98     6.917309     20.36856     3175.074        68     1.453     1.294  62.11   0
       252    827.9439    315.2074 300.3451138 +22.7342915     1317.177     72.17715      1.393     2.79     6.396852     20.36856     162.0016        19     1.137     0.981 -43.09   0
       253    783.1635    313.1284 300.3318190 +22.7202963     210.9174     72.17715      1.059     1.98     6.497712     20.36856     59.95131         6     0.693     0.539  59.13   0
       254    743.1626    304.1411 300.3222581 +22.7057428     483.0052     72.21393      1.323     3.99     6.738813     20.36856     53.14996         9     0.912     0.771 -12.46   0
       255    167.6713    303.9367 300.1430756 +22.5333943     371.1826     72.23231      1.315     2.25     7.009768     20.36856     62.63562         6     0.758     0.557  -4.53   0
       256    391.6521    302.7316 300.2131764 +22.6001265      460.751     72.19554      1.359     3.42     6.710149     20.36856     71.90454         9     1.107     0.633 -50.42   0
       257    703.3961    297.2335 300.3120977 +22.6918571     1979.463     72.19554      1.539     2.92     6.835257     20.36856     220.3822        22     1.212     0.995 -75.28   0
       258    511.5784    292.0148 300.2540049 +22.6329488     414.1748     72.17715      1.400     3.87     6.788394     20.36856     52.62916         9     0.920     0.741  14.67   0
       259    918.5239    290.3307 300.3814463 +22.7542280     605.3343     72.26906      1.478     3.84     6.348393     20.36856     77.96091        15     1.368     0.755  43.90   0
       260    365.1723    281.7221 300.2117446 +22.5861589     2181.147     72.21393      1.623     3.50     6.743608     20.36856     212.4075        25     1.351     1.028  67.99   0
       261    578.0866    280.6697 300.2784074 +22.6495933      250.014     72.30579      1.359     3.47     6.856871     20.36856     46.45124         5     0.832     0.417 -17.54   0
       262    804.2775    275.0245 300.3507626 +22.7156503     634.7456     72.21393      1.324     2.59     6.473648     20.36856     80.74876        10     0.889     0.689  12.43   0
       263    686.7441    272.4482 300.3149434 +22.6797449     408.0453     72.23231      1.310     3.05     6.858024     20.36856     72.85835         7     0.901     0.571  24.87   0
       264    155.5712    262.6809 300.1526893 +22.5179165     381.8994     72.21393      1.499     4.66     7.068546     20.36856     31.53795         6     1.490     0.414  35.59   0
       265    441.3182    261.2571 300.2420925 +22.6030731      1157.69     72.25069      1.463     3.01       6.7854     20.36856     135.2236        16     1.109     0.839 -32.12   0
       266    248.2504    261.8339 300.1817991 +22.5454309     174.7136     72.21393      1.263     2.50     7.049892     20.36856     48.85675         5     0.835     0.613 -24.75   0
       267    951.9396    257.6283 300.4024811 +22.7548096     280.9277     72.21393      1.518     4.30     6.336406     20.36856     45.70993         6     1.052     0.669 -13.17   0
       268    825.1442    254.3985 300.3639606 +22.7159574     348.1401     72.12195      1.557     4.24      6.55746     20.36856     28.39508         5     1.169     0.438 -11.66   0
       269    686.0744    253.0529 300.3210237 +22.6739654      2200.04     72.21393      1.469     3.20     6.862214     20.36856     253.0451        25     1.233     1.043 -76.86   0
       270    947.3030    247.6366 300.4042737 +22.7505471      3262.53     72.19554      1.699     3.59     6.336406     20.36856     305.5144        33     1.380     1.212  89.79   0
       271   1008.5515    243.0139 300.4248933 +22.7675312     365.5833     72.21393      1.451     4.85     6.336406     20.36856     43.00396         7     1.467     0.455  -6.21   0
       272   1016.9128    235.6715 300.4298846 +22.7679175     1616.164     72.34251      1.745     3.76     6.336406     20.36856     148.6195        24     1.274     1.150  74.17  16
       273    394.4676    236.7910 300.2354348 +22.5820136     686.1742     72.19554      1.538     3.37     6.798051     20.36856      86.2469        12     1.100     0.761  60.92   0
       274     68.7568    230.8552 300.1360075 +22.4827679     1375.794     72.19554      1.844     3.98     7.068982     20.36856     102.2377        25     1.310     1.261  -0.10   0
       275    100.1290    231.0016 300.1457160 +22.4922076     534.9861     72.12195      1.581     3.06     7.032242     20.36856     66.91607         7     0.851     0.641 -45.14   0
       276    962.7660    228.3778 300.4153449 +22.7496276     574.4546     72.21393      1.788     5.88     6.336406     20.36856      49.2713         8     1.199     0.813  54.68   0
       277    816.9200    228.9933 300.3696322 +22.7061869     133.8679     72.12195      1.099     3.79     6.716114     20.36856     34.40935         5     0.823     0.502 -24.25   0
       278    153.1184    223.1017 300.1647582 +22.5058094     497.1635      72.3425      1.402     3.77      7.03605     20.36856     57.77951        10     1.079     0.646 -25.55   0
       279    948.2933    221.0593 300.4132001 +22.7431932     314.0287     72.26906      1.311     4.29     6.352368     20.36856     35.04048         6     1.112     0.472  20.84   0
       280    830.1724    216.8843 300.3776925 +22.7066662     420.8137     72.19554      1.709     4.24     6.680822     20.36856     49.45622         5     1.147     0.477 -25.51   0
       281    757.6297    214.6972 300.3557731 +22.6843380     638.3512     72.14035      1.357     2.59     6.818046     20.36856     94.01446        10     0.894     0.736  36.88   0
       282    348.4536    214.4758 300.2283424 +22.5618227     399.1343     72.23231      1.516     2.76     6.808599     20.36856     44.00447         5     0.715     0.464  72.28   2
       283    848.7814    208.0444 300.3863644 +22.7096879     257.5089     72.21393      1.360     3.13     6.619884     20.36856     36.59369         5     0.785     0.497  35.76   0
       284    855.9330    203.7052 300.3900025 +22.7105780     2068.038     72.34251      1.590     3.02     6.606799     20.36856     234.1944        28     1.288     1.183 -69.84   0
       285    274.3566    200.5410 300.2097946 +22.5356322     2159.596     72.17715      1.722     3.13      7.05888     20.36856     250.4669        29     1.429     1.154  64.69   0
       286    352.1164    196.0789 300.2354464 +22.5576305     1122.344     72.32415      1.528     3.73     6.868515     20.36856     116.6118        20     1.253     1.088 -17.72   0
       287    754.2896    195.2772 300.3610270 +22.6777509     576.4216     72.32415      1.525     4.68     6.813116     20.36856     67.74339        12     1.142     1.010   6.07   0
       288    861.2719    192.6419 300.3952548 +22.7089906     347.3482     72.17715      1.306     3.02     6.631469     20.36856     52.69897         7     0.831     0.816   8.45   0
       289    169.3199    188.3728 300.1810557 +22.5006818     600.2687     72.21393      1.346     2.47     7.095397     20.36856     78.12669         7     0.884     0.472  -8.05   0
       290    706.9219    185.0085 300.3495842 +22.6606267     1789.705     72.15875      1.620     3.38     6.847859     20.36856     166.8966        23     1.210     1.055  73.01   0
       291    771.7455    184.7548 300.3698824 +22.6799446     513.3223     72.23231      1.310     3.30     6.798487     20.36856     66.55513        11     1.043     0.742  41.04   0
       292     21.8982    185.6246 300.1361000 +22.4557367     240.9665     72.12195      1.491     3.45     7.359631     20.36856     34.72484         5     0.835     0.412  20.52   0
       293    190.2970    180.8782 300.1900110 +22.5048099     604.4195     72.30579      1.780     5.54     7.079106     20.36856     56.96001        12     1.266     0.847  36.16   0
       294    978.4113    178.2353 300.4364848 +22.7398708     836.5602     72.19554      1.508     3.26     6.666837     20.36856     83.87529        14     1.014     0.855  29.38   0
       295    710.7867    176.4099 300.3535766 +22.6593088     864.4107     72.10354      1.743     4.02     6.844345     20.36856     111.9558        14     1.298     0.805 -69.29   0
       296    631.4205    175.7562 300.3290445 +22.6353769     1270.318     72.25069      1.511     2.74     6.915654     20.36856      178.454        20     1.196     1.002  74.24   0
       297    480.3622    177.4083 300.2814371 +22.5906497     262.9474     72.21393      1.228     4.82     6.771914     20.36856     37.68957         8     0.946     0.696  -2.53   0
       298    452.9046    172.0982 300.2746055 +22.5809048     401.0627      72.3792      1.526     4.30     6.818546     20.36856     49.13709         9     0.941     0.771  27.58   0
       299    839.0613    166.7968 300.3967027 +22.6949097     822.4297     72.17715      1.528     3.42     6.741918     20.36856     107.5671        15     1.070     1.012   4.91   0
       300    826.9595    167.2551 300.3927786 +22.6914224     1487.365     72.17715      1.583     3.02     6.747782     20.36856      174.003        21     1.182     1.044 -88.61   0
       301    557.7244    167.6641 300.3086988 +22.6109984     879.2382     72.26906      1.279     2.53     6.907914     20.36856     121.6895        13     0.929     0.834  13.62   0
       302    999.7980    157.3413 300.4499344 +22.7402492     1675.551     72.14035      1.764     3.64     6.954614     20.36856      174.491        26     1.333     1.178  79.88   0
       303    955.6353    156.7268 300.4363467 +22.7268690     1073.751     72.15875      1.655     3.78     6.685704     20.36856     106.8344        18     1.314     0.962  71.17   0
       304    189.8332    149.5373 300.2000244 +22.4956634     727.2327     72.19554      1.556     3.55     7.156488     20.36856      83.6308        12     0.991     0.961 -10.62   0
       305     51.4275    144.0869 300.1587431 +22.4526477     2259.016     72.19554      1.865     3.59     7.558886     20.36856     205.4026        29     1.345     1.333  39.41   0
       306    874.6773    141.5773 300.4159898 +22.6983013     829.7292     72.17715      1.727     3.20     6.765097     20.36856     85.76279        14     1.076     0.853  73.42   0
       307      1.7058    141.3474 300.1441725 +22.4369674     235.2539     58.34373      1.295     3.25     7.835448     20.36856     45.12223         5     0.898     0.436  80.31  24
       308    208.9916    137.3904 300.2099217 +22.4979087     5650.282      72.0667      1.704     3.21     7.183074     20.36856     586.1205        40     1.441     1.235  65.34   0
       309   1007.9879    125.4534 300.4628266 +22.7335158     18369.87     72.21393      1.789     3.49      7.18423     20.36856     1800.673        62     1.554     1.420  89.64   0
       310    192.2472    128.6196 300.2075542 +22.4903740     686.9965     72.23231      1.721     3.88     7.259053     20.36856     61.28697        11     1.087     0.703 -18.49   0
       311    853.2102    119.4513 300.4164622 +22.6855131     3679.956     72.21393      1.661     2.99     6.810631     20.36856     418.8538        34     1.308     1.228 -82.96   0
       312    956.7900    118.3398 300.4491484 +22.7161623     2807.815     72.15875      1.686     3.00     7.097947     20.36856     316.7388        28     1.245     1.219 -65.98   0
       313    402.6590    114.6125 300.2775872 +22.5493354     499.5943     72.17715      1.229     2.80     7.206514     20.36856     77.12188        10     0.947     0.722  -8.27   0
       314    155.8271    115.2004 300.2005724 +22.4756117     434.9862     72.15875      1.478     4.76     7.410616     20.36856     48.65512         7     0.990     0.649 -17.11   0
       315    516.7501    112.6374 300.3137651 +22.5829098     279.5127     72.19554      1.388     3.75     7.164823     20.36856     45.04222         6     0.889     0.701  88.52   0
       316    326.8512    106.5646 300.2565917 +22.5243311     493.6264     72.21393      1.283     3.71     7.349145     20.36856     68.78919         6     0.960     0.486   6.66   3
       317    330.8294    105.0638 300.2583165 +22.5250903     438.9292     72.21393      1.494     3.28     7.358294     20.36856     53.64629         8     0.938     0.664 -14.39   2
       318     93.0371    103.6995 300.1847692 +22.4535037     637.5547     72.19554      1.803     4.02     7.671618     20.36856     49.35075         6     1.033     0.447 -27.37   0
       319    453.9621    101.8017 300.2977165 +22.5610046     1832.196     72.21393      1.560     3.12     7.234357     20.36856     205.0294        23     1.141     1.063  50.67   0
       320    515.4023    101.6452 300.3169071 +22.5793446     362.5951     72.17715      1.637     3.78     7.239692     20.36856     48.81341         5     0.894     0.458 -44.44   0
       321    382.2167    102.5141 300.2751419 +22.5397380     480.7403     72.15875      1.083     3.98     7.315361     20.36856     55.58197         7     0.955     0.474 -11.09   0
       322    278.4726     97.6722 300.2444140 +22.5072926      279.543     72.25069      1.349     5.01     7.387201     20.36856     26.67764         6     1.009     0.704 -19.75   0
       323    197.7368     97.3406 300.2193976 +22.4830267     414.1125     72.23231      1.561     1.91     7.407792     20.36856     56.17748         5     0.694     0.434 -20.55   0
       324    742.9683     91.5129 300.3911263 +22.6445042     527.8963     72.15875      1.942     5.47     6.989435     20.36856     45.67062         9     1.148     0.736 -20.55   0
       325    887.8230     86.2450 300.4380233 +22.6863030     389.2996     72.23231      1.600     4.46     7.047323     20.36856     34.87792         6     0.949     0.596  64.34   0
       326   1018.5284     82.7422 300.4799586 +22.7243672     3714.485     72.23231      1.840     3.58     7.347913     20.36856     329.4431        37     1.434     1.363 -75.63  16
       327    228.0015     81.2955 300.2340132 +22.4874751     5987.935     72.10354      1.702     3.22     7.380119     20.36856     638.4648        44     1.476     1.283  71.80   0
       328     79.2887     80.8002 300.1879130 +22.4428056     733.5216     72.10354      1.755     4.51     7.965717     20.36856     81.17079        13     1.167     0.895  57.08   0
       329    857.0104     79.7984 300.4304973 +22.6752346     385.9859     72.01141      1.787     2.12     6.961535     20.36856     49.03411         5     0.746     0.462  63.09   0
       330    199.4395     75.7231 300.2269313 +22.4773223      390.518     72.17715      1.940     3.33     7.551346     20.36856     41.69843         5     0.962     0.352  67.01   0
       331    243.7227     72.9616 300.2416054 +22.4897856      387.351     72.17715      1.628     4.11     7.404313     20.36856      43.3551         6     0.938     0.513  -0.99   0
       332    474.1323     66.7977 300.3153409 +22.5569720     6277.504     72.17715      1.605     3.12     7.291948     20.36856     591.1949        40     1.449     1.180  72.25   0
       333    359.6232     66.7264 300.2797024 +22.5226844     670.1372     72.25069      1.588     4.09     7.503275     20.36856     86.38235        12     1.224     0.861  -2.31   0
       334    530.6276     61.7945 300.3345628 +22.5724361     363.3297     72.17715      1.477     3.84     7.289344     20.36856     42.43524         7     0.927     0.557  35.45   0
       335    668.1982     58.8984 300.3783787 +22.6127556     241.6922     72.10354      1.322     2.90     7.602262     20.36856     36.53708         5     0.770     0.498  39.91   0
       336    726.6686     56.9361 300.3972462 +22.6296780     919.1219     72.25069      1.772     3.51     7.515804     20.36856      81.8163        16     1.130     0.967 -88.87   0
       337    819.5673     56.0113 300.4265221 +22.6571914     451.3976     72.17715      1.551     4.48     7.197067     20.36856     47.11163         8     0.865     0.841 -10.73   0
       338    167.4443     50.8318 300.2250411 +22.4605879     447.0815     72.25069      1.461     3.00     8.077806     20.36856     51.78883         8     0.837     0.675 -31.88   0
       339    602.5776     47.0223 300.3617706 +22.5897101     6345.694     72.19554      1.548     2.93     7.318141     20.36856     732.5847        39     1.367     1.200  73.93   0
       340    525.2844     49.1971 300.3369791 +22.5672134     405.9067     72.12195      1.329     3.82     7.290176     20.36856     57.40958         6     0.935     0.447  50.97   0
       341    377.3178     45.8292 300.2919818 +22.5219701     1586.009     72.21393      1.645     3.31     7.577618     20.36856     154.6159        23     1.355     1.045  63.42   0
       342    643.8865     44.6724 300.3754083 +22.6013900     837.0563     72.32415      1.449     3.00     7.549267     20.36856     114.9353        15     1.042     0.938  -2.19   0
       343    659.8337     40.8033 300.3816332 +22.6050464     703.5228     72.19554      1.895     2.57     7.679367     20.36856     79.33473         8     0.834     0.668 -62.07   0
       344    929.3732     38.6665 300.4664062 +22.6850254     583.2579     72.17715      1.647     4.10     7.302507     20.36856     55.96007        12     1.074     1.025  44.41   0
       345    126.4878     38.5127 300.2162915 +22.4447844     538.2141     72.36086      1.460     4.05     8.324516     20.36856     54.54194        10     1.211     0.643 -65.16   0
       346    968.1747     36.8555 300.4791048 +22.6961021     282.3856     72.19554      1.990     5.53     7.322183     20.36856     27.75122         5     1.136     0.760 -10.45   0
       347    698.0824     36.0753 300.3950903 +22.6151250     395.0903     72.30579      1.368     4.02     7.803658     20.36856     54.01329        10     1.093     0.758  43.85   0
       348    661.9297     31.0429 300.3854486 +22.6028643     849.4656     72.15875      1.887     4.55     7.759988     20.36856      79.5596        18     1.480     1.035  57.34   0
       349    646.7792     31.9647 300.3804267 +22.5985983     2828.819     72.21393      1.543     2.90     7.630893     20.36856     305.7352        28     1.253     1.112  89.64   0
       350    287.6596     32.7787 300.2682972 +22.4913837     240.9543     72.15875      1.073     2.72     7.474315     20.36856     43.59973         5     0.724     0.449  74.58   0
       351    733.2867     23.6347 300.4100983 +22.6220721     1609.879     72.17715      1.627     3.08      7.96008     20.36856     178.9469        19     1.146     1.027 -68.47   0
       352    670.9535     16.7932 300.3928779 +22.6014621     683.1385     72.21393      1.485     4.28     7.943584     20.36856     86.18605        10     1.042     0.675  74.90   0
       353     49.6193     16.2133 300.1996094 +22.4153588     460.0933     72.15875      1.580     6.20     8.407679     20.36856     43.65448        10     1.331     0.812   6.17   0
       354    712.1824   1014.9461 300.0817240 +22.9007678     473.5144     72.17715      1.790     5.64      5.09253     20.36856     34.24044         9     1.101     0.815  15.00   0
       355    276.6052   1012.7914 299.9467506 +22.7695630      277.376     72.04828      1.316     4.65     19.45032     20.36856     50.29616         9     1.269     0.483  86.24   0
       356    617.5154    985.5124 300.0617885 +22.8639451     3908.559     72.32415      1.457     4.16     5.197251     20.36856     370.0596        16     1.230     0.818  75.73   3
       357    179.6159   1003.6873 299.9195369 +22.7378586     2045.232     72.14035      4.977    23.61     82.19424     20.36856     68.75282       101     4.721     3.279  17.44  19
       358    180.1611    986.7100 299.9252279 +22.7331521     4222.137     72.17715      8.883    24.63     67.42303     20.36856     88.75684       334     5.873     5.042  43.50   3
       359    200.2519    984.3181 299.9322553 +22.7384925     4918.188     72.23231      8.691    29.33     60.33886     20.36856     124.0137       415     6.340     5.128 -63.44   3
       360    112.5389   1007.1849 299.8975382 +22.7187385     1653.178     72.15875      3.092    12.44     88.92395     20.36856     55.12396        43     2.373     1.871 -70.87   0
