#   1 NUMBER                 Running object number                                     
#   2 X_IMAGE                Object position along x                                    [pixel]
#   3 Y_IMAGE                Object position along y                                    [pixel]
#   4 ALPHA_J2000            Right ascension of barycenter (J2000)                      [deg]
#   5 DELTA_J2000            Declination of barycenter (J2000)                          [deg]
#   6 FLUX_APER              Flux vector within fixed circular aperture(s)              [count]
#   7 FLUXERR_APER           RMS error vector for aperture flux(es)                     [count]
#   8 FLUX_RADIUS            Fraction-of-light radii                                    [pixel]
#   9 FWHM_IMAGE             FWHM assuming a gaussian core                              [pixel]
#  10 BACKGROUND             Background at centroid position                            [count]
#  11 THRESHOLD              Detection threshold above background                       [count]
#  12 FLUX_MAX               Peak flux above background                                 [count]
#  13 ISOAREA_IMAGE          Isophotal area above Analysis threshold                    [pixel**2]
#  14 A_IMAGE                Profile RMS along major axis                               [pixel]
#  15 B_IMAGE                Profile RMS along minor axis                               [pixel]
#  16 THETA_IMAGE            Position angle (CCW/x)                                     [deg]
#  17 FLAGS                  Extraction flags                                          
         1    229.5199     19.6900 300.2354689 +22.4424604     3849.307     72.62567      1.512     2.57     5.062481     20.45347     488.8382        31     1.287     1.076  57.09   0
         2    790.8605     12.2563 300.4125762 +22.6083903     824.1934     72.57035      1.291     3.22     5.002433     20.45347     118.4024        14     1.000     0.941  78.16   0
         3    345.3931     11.7937 300.2740542 +22.4748996     1285.054     72.34865      1.414     2.61      5.16292     20.45347     163.7978        20     1.282     0.874  71.47   0
         4    828.5619      7.5278 300.4258569 +22.6183109     717.1149     72.45959      1.635     4.14      4.97758     20.45347     71.56115        10     1.107     0.685  78.39  16
         5    751.9822      7.2267 300.4020926 +22.5953095     589.1254     72.51499      1.593     3.56     5.160105     20.45347     64.49886         9     0.961     0.713 -24.36   0
         6    848.6166      3.5750 300.4333879 +22.6231741     2137.269     67.38605      1.390     2.39     4.996257     20.45347      317.462        22     1.091     0.999  79.23  24
         7    554.2682      1.9013 300.3422480 +22.5346002     436.2177     59.67369      1.284     3.09      4.70812     20.45347     60.50139         8     0.801     0.739  55.35  24
         8    791.7715   1003.3228 300.0910516 +22.8934347      593.989     72.49653      1.916     7.07     2.475077     20.45347     46.61658        15     1.353     1.036 -87.40   0
         9    303.8925   1011.8759 299.9364355 +22.7495236     1679.097      72.6441      3.568    17.89     52.11349     20.45347     50.09079        62     3.771     2.358 -49.37  19
        10    258.9848   1018.5132 299.9203166 +22.7379465     2254.688     72.44111      5.756    24.33     73.47818     20.45347     66.21283       132     4.958     3.315  -2.93  27
        11    258.3565   1001.7148 299.9255868 +22.7329423     4067.489     72.45959      8.071    19.48     61.80953     20.45347     91.59341       214     4.913     3.632 -29.11  19
        12    276.8204   1001.9360 299.9312539 +22.7385480     4554.185     72.47806      9.260    29.63     60.33883     20.45347     87.11136       432     7.218     4.868 -44.96  19
        13    296.3877    989.5898 299.9413532 +22.7408814     7362.734     72.38565      7.871    28.83     45.83231     20.45347      166.836       578     9.131     4.412  61.26  19
        14    230.9326   1013.7609 299.9131443 +22.7281633     3534.122     72.45959      7.703    28.91     71.95139     20.45347     74.00443       307     5.657     5.275  30.25  25
        15    207.1049   1023.1211 299.9026942 +22.7236931     905.6882     59.60635      4.383     8.40     76.48911     20.45347      59.3366        17     2.005     0.982  -0.15  26
        16    190.2724   1022.0646 299.8978075 +22.7183368     1817.639     64.75196      3.223    12.69     74.07453     20.45347     67.18801        54     3.079     1.563 -18.80  26
        17    134.7186    932.4972 299.9096846 +22.6759856     3950.999      72.6441     18.055    47.32     11.09975     20.45347     85.18421       757     9.970     6.233 -44.51   3
        18    138.4238   1014.3829 299.8841983 +22.7005682     5977.794     72.49653     14.141    51.21     48.00092     20.45347     119.9368      1308    13.357     8.176  12.79  27
        19    134.2249    971.0311 299.8969973 +22.6868826     5248.174     72.49653     26.602    90.44     27.07604     20.45347      123.048      4016    21.352    16.265 -29.62  27
        20    442.9044    954.9958 299.9981692 +22.7749289     6743.766     72.40414      1.767     3.76     3.040666     20.45347     550.1467        48     1.485     1.379  77.74   0
        21    222.8721    983.0706 299.9206241 +22.7169459     1135.666     72.57035      4.566     9.63     51.54221     20.45347     41.72173        23     2.117     1.687  86.94   3
        22    225.4503    994.2128 299.9178005 +22.7209139     2153.581      72.5519      5.231    16.63     59.03015     20.45347     55.75961        69     3.516     2.186  77.91   3
        23    555.6521    991.6284 300.0213328 +22.8192623     418.9688     72.51499      1.870     5.91     2.348694     20.45347     40.52337         7     1.212     0.811 -12.13   0
        24    176.7624    938.4925 299.9207968 +22.6903254     1378.249     72.49653     13.406    14.92     19.46562     20.45347     43.45488        23     4.298     1.440 -74.12   3
        25    257.8250    989.6628 299.9293425 +22.7293277     705.3427     72.47806      3.017     4.97     53.52674     20.45347     54.86843         7     1.036     0.674 -10.59   1
        26    475.3232    941.7819 300.0125529 +22.7808648     644.4426     72.49653      1.963     6.01     2.917809     20.45347      46.0559        11     1.266     0.803  -5.28   0
        27    989.2551    933.8033 300.1752215 +22.9326753     2209.677     72.44111      2.030     4.59     3.018411     20.45347      106.451        33     1.454     1.383  25.08   0
        28    984.4422    986.7980 300.1564796 +22.9464508     834.3048     72.49653      2.362     5.95     2.449474     20.45347     41.67058        18     1.423     1.191  12.68   0
        29    778.0421    922.9191 300.1129321 +22.8662397     881.9177     72.45959      2.115     6.05     2.996199     20.45347     62.16376        13     1.530     0.838  59.83   0
        30    812.7006    917.1130 300.1256187 +22.8749634     961.8558     72.66253      1.727     5.05     3.152954     20.45347     68.07961        19     1.231     1.119   0.97   0
        31    591.0997    917.0333 300.0566320 +22.8084931     519.0198     72.47806      1.787     7.49     2.889445     20.45347     41.55456        13     1.870     0.840 -51.11   0
        32     22.8674    913.8138 299.8810229 +22.6370497     605.9063     72.49653      2.188     5.47     3.317663     20.45347     44.72433        11     1.098     0.977  67.20   0
        33    835.1585    910.5764 300.1347427 +22.8798192     11343.96     72.53345      1.813     4.02      3.19129     20.45347     687.1042        53     1.449     1.406 -42.15   0
        34    691.5494   1002.6732 300.0600462 +22.8631935     8717.624     72.51499      1.930     4.45     3.179239     20.45347     486.5596        46     1.514     1.443  38.98   3
        35    879.9640    911.0844 300.1485406 +22.8933956     357.6977     72.47806      1.763     3.81     3.240849     20.45347     32.50238         5     0.808     0.515  61.90   0
        36    202.7546    972.0574 299.9179552 +22.7077498     1859.088     72.53345      6.507    12.10     42.83247     20.45347      63.4694        54     2.711     2.099  35.31   0
        37     12.5301    975.7532 299.8576674 +22.6516954     505.8081     72.47806      2.158     6.14     1.881875     20.45347     39.21618         8     1.403     0.754 -28.49   0
        38    147.5524    902.2603 299.9235053 +22.6711704      1061.12      72.5519      4.027     6.68     8.651728     20.45347     48.60601        11     1.263     1.051 -27.65   2
        39    887.2927    898.6439 300.1548712 +22.8920201     411.1007     72.49653      1.598     4.08     3.318524     20.45347     38.46585         7     1.102     0.432 -59.49   0
        40    270.4286    899.3171 299.9626468 +22.7072064     576.5637     72.49653      5.058     5.30     7.429669     20.45347     27.82385         7     1.183     0.672  11.20   0
        41    710.0273    969.8544 300.0764784 +22.8593171     6968.869     72.49653      1.858     4.06     2.993294     20.45347     445.4714        45     1.476     1.397  -7.61   0
        42    245.8606    895.4200 299.9562778 +22.6987159     458.7091     72.44111      3.958     4.49     8.668168     20.45347     30.25273         5     1.199     0.478  -6.43   0
        43    843.7350    892.7636 300.1432088 +22.8772759     1314.347     72.49653      1.707     4.97      3.29564     20.45347     88.50717        23     1.355     1.165  54.29   0
        44    695.6063    889.2565 300.0982041 +22.8318609     491.2246     72.47806      1.717     6.91     3.064518     20.45347     46.06888        14     1.284     1.121 -41.74   0
        45    881.7740    886.1379 300.1572185 +22.8867751     739.4563     72.49653      1.859     6.11      3.37736     20.45347     51.71835        13     1.102     0.951  68.44   0
        46    221.1610    886.3167 299.9515618 +22.6886929     598.8707     72.45959      4.339     6.31      8.48618     20.45347     28.88832         9     1.191     0.938  17.91   0
        47    989.9667    883.2100 300.1918998 +22.9183582     399.9009     72.49653      1.987     4.10     3.379851     20.45347     31.69657         6     1.014     0.803  88.77   0
        48    930.4650    877.1624 300.1753150 +22.8987905     579.3046     72.47806      1.807     7.36     3.464707     20.45347     40.05944        14     1.444     1.051  67.73   0
        49    781.4055    876.3342 300.1291314 +22.8538747     710.3806     72.49653      1.680     5.41     3.243302     20.45347     56.78223        13     1.075     0.905 -53.34   0
        50     41.4853    874.9459 299.8994432 +22.6314996     387.3223     72.57035      1.554     3.76     3.517815     20.45347     31.45661         6     0.812     0.500  89.43   0
        51    793.2292    873.4261 300.1337608 +22.8565843     592.7933     72.49653      1.803     5.73     3.314802     20.45347     45.58901        13     1.176     0.911 -26.62   0
        52    494.2053    872.7400 300.0408825 +22.7667220     4124.105     72.45959      1.623     3.41     3.301272     20.45347     399.4507        33     1.302     1.205  13.84   0
        53    272.9380    861.6639 299.9756710 +22.6971617     431.6287     72.53345      1.577     4.04     4.616465     20.45347     40.14331         7     0.875     0.575 -31.29   0
        54    588.9613    964.2654 300.0406024 +22.8214038     428.5092     72.47806      2.096     6.75     2.544066     20.45347     31.34359        10     1.245     1.027  25.87   0
        55    137.1685    860.4043 299.9338899 +22.6560540     255.5603     72.47806      1.339     3.49      4.51686     20.45347     26.97355         5     1.255     0.280 -54.89   0
        56    537.6786    860.6799 300.0583321 +22.7763008     416.5896     72.62567      1.751     3.67     3.349268     20.45347     36.59053         6     1.028     0.460  -4.87   0
        57    219.4707    858.4263 299.9601056 +22.6801882     942.0455     72.49653      2.268     3.83     4.959868     20.45347     88.24036        19     1.215     1.123  54.23   0
        58    196.4902    855.4358 299.9539367 +22.6724341     1629.821     72.47806      1.882     4.10     4.917973     20.45347     147.8447        26     1.440     1.183  45.22   0
        59    697.2776   1000.5815 300.0625106 +22.8643113     9422.355     72.49653      1.936     5.59     3.168759     20.45347     559.8858        52     1.583     1.467  -2.36   3
        60    823.7313    852.5528 300.1500524 +22.8597343      407.433     72.47806      1.989     4.41     3.424382     20.45347     36.69845         6     1.118     0.682  12.85   0
        61     72.1914    844.9406 299.9187349 +22.6321167     368.9269     72.45959      1.329     3.98     3.625007     20.45347     42.80855         6     1.132     0.400  62.04   0
        62   1022.3946    842.9398 300.2151084 +22.9165075     1887.147     63.18237      1.747     4.62     3.533835     20.45347     120.5458        23     1.371     1.086  71.89  24
        63    727.7125    842.9478 300.1232627 +22.8281937     565.4141     72.53345      1.946     5.79     3.216105     20.45347     41.88139         9     1.211     0.778  37.72   0
        64    806.3635    836.6088 300.1498253 +22.8499505        647.1     72.49653      1.607     6.21     3.401227     20.45347      46.9391        14     1.136     0.955 -41.92   0
        65    228.9910    836.9485 299.9700475 +22.6768863     354.8531     72.49653      1.616     2.03     4.684816     20.45347     50.72382         5     0.612     0.555 -89.60   0
        66    553.5300    834.5128 300.0717738 +22.7735457     251.2015     72.62567      1.415     4.84     3.393007     20.45347      27.5359         5     1.159     0.572  59.33   0
        67    674.1661    830.8250 300.1105284 +22.8086604      4803.38     72.51499      1.567     3.28     3.347844     20.45347     458.5609        28     1.179     1.151  49.34   0
        68    163.9035    831.2222 299.9516839 +22.6557112     415.3197     72.40414      1.601     5.43     4.587479     20.45347     36.95628         9     1.050     0.792 -23.18   0
        69    476.6463    827.9442 300.0499849 +22.7486024     532.1124     72.53345      1.378     3.13     3.384824     20.45347     79.98007         9     0.946     0.652  36.54   0
        70    224.1843    824.5254 299.9725926 +22.6718812     1324.253     72.49653      1.704     3.87     4.562845     20.45347     140.2165        20     1.301     1.051  23.51   0
        71    694.7886    823.2548 300.1194118 +22.8126700     791.6238     72.49653      1.635     4.63     3.332339     20.45347     63.47316        16     1.200     1.010  29.52   0
        72    492.6847    823.1276 300.0565411 +22.7520307     297.1073     72.60724      1.586     4.77     3.389082     20.45347      33.8343         6     0.918     0.701 -20.73   0
        73    243.5346    821.4545 299.9796049 +22.6768071     501.0819      72.5519      1.827     6.81     4.433168     20.45347     37.09663        13     1.300     0.999  40.99   0
        74    850.2625    810.5941 300.1719630 +22.8556375     4153.988     72.47806      1.611     3.35     3.463117     20.45347      356.979        32     1.233     1.209 -87.71   0
        75    258.6814    804.4141 299.9898525 +22.6764649     445.3065     72.47806      1.535     4.88     4.217581     20.45347      45.0131         9     1.020     0.774  38.96   0
        76    567.1553    802.9279 300.0862834 +22.7685671     599.2828     72.47806      1.484     3.47     3.425669     20.45347     67.43979        14     1.020     0.960 -74.79   0
        77    213.5639    801.0035 299.9769388 +22.6619487     889.6095     72.51499      1.621     3.99      4.25854     20.45347      99.9207        20     1.248     1.107  55.52   0
        78    629.0836    796.7074 300.1075835 +22.7853503     443.9968     72.68095      1.381     5.47      3.36666     20.45347     49.82939        11     1.315     0.642  56.64   0
        79    363.2401    793.0770 300.0260453 +22.7045819     53776.84     72.47806      1.571     3.03     3.502543     20.45347     5728.172       101     1.420     1.412  32.05   0
        80    621.1458    792.1028 300.1066092 +22.7816486     1671.463      72.5888      1.534     3.28     3.380746     20.45347     153.3822        22     1.157     1.075  14.82   0
        81    292.0061    791.3045 300.0044731 +22.6827032     516.1662     72.38565      1.456     3.62     4.047402     20.45347      53.4937         9     0.976     0.633  54.03   0
        82    649.9861    788.2608 300.1168374 +22.7891925     841.6136     72.45959      1.536     4.04     3.426168     20.45347     90.29399        15     1.160     0.950 -83.85   0
        83     49.4556    787.6720 299.9302911 +22.6088744     784.6943     72.51499      1.734     3.98     3.534538     20.45347     75.45322        17     1.219     1.013 -11.95   0
        84     16.7451    787.7861 299.9200967 +22.5990884     729.4662     72.49653      1.986     5.03     3.419091     20.45347     57.38096        13     1.279     1.196  21.76   0
        85    660.9146    786.7186 300.1207416 +22.7920261     661.9703      72.6441      1.477     3.82     3.442968     20.45347     57.81176        11     1.012     0.740  75.81   0
        86    766.4890    782.9661 300.1548428 +22.8225960     390.4668     72.45959      1.271     3.85     3.435539     20.45347     56.36322        10     1.034     0.750   9.34   0
        87    412.9529    770.3203 300.0489036 +22.7129645     31471.32     72.51499      1.520     2.97     3.588352     20.45347     2980.853        73     1.359     1.333  56.43   0
        88    804.0801    773.1704 300.1697387 +22.8310497     775.6926     72.49653      1.467     3.64     3.459233     20.45347     75.63686        14     1.080     0.856  58.81   0
        89    427.1632    770.8978 300.0531361 +22.7173924     2072.865     72.49653      1.513     3.09     3.568887     20.45347     245.4093        24     1.266     1.069  48.32   2
        90    424.0683    764.7226 300.0541806 +22.7146922     641.5864     72.60724      1.596     3.65     3.580675     20.45347     71.85364        10     1.006     0.780 -86.26   2
        91    936.1379    766.4547 300.2130797 +22.8686929     2864.552      72.5519      1.691     3.19     3.713031     20.45347     245.3828        28     1.274     1.137  -3.51   0
        92    965.3079    764.4437 300.2228279 +22.8768547     391.0654     72.47806      1.799     4.83     3.777987     20.45347     37.42653         6     1.446     0.456  45.88   0
        93    693.9228    762.2260 300.1389822 +22.7948896     981.2044     72.49653      1.455     3.16     3.567804     20.45347     111.6456        15     1.149     0.829  78.34   0
        94    295.3096    762.2719 300.0149370 +22.6753663     786.9656     72.66253      1.569     4.05     3.909457     20.45347     85.48811        13     1.105     0.837   0.21   0
        95    530.2699    761.9929 300.0881104 +22.7457579     453.4099     72.45959      1.456     5.20     3.532945     20.45347     51.70731         8     1.038     0.737  75.77   0
        96    541.1801    757.2826 300.0930368 +22.7476774     812.6985     72.45959      1.302     2.97     3.563862     20.45347     90.91546        11     0.907     0.791  47.91   0
        97    100.6727    757.9660 299.9558533 +22.6157293     491.1985     72.49653      1.649     3.44     3.748662     20.45347     62.64471         9     1.080     0.672 -24.49   0
        98    941.9902    753.9000 300.2189853 +22.8668398     595.8154     72.40414      1.541     4.19      3.76877     20.45347     58.42029        12     1.098     0.806  83.18   0
        99    443.3661    753.6126 300.0637946 +22.7172919     260.1871     72.47806      1.091     3.35     3.543202     20.45347     40.76234         5     0.737     0.465 -14.77   0
       100    398.9153    752.9495 300.0501835 +22.7037700     351.5024     72.47806      1.436     4.89     3.572419     20.45347     42.23133         8     1.013     0.669  65.70   0
       101    486.8065    751.8906 300.0778693 +22.7298252     410.7707     72.40414      1.458     3.52     3.467614     20.45347     58.76159        10     0.992     0.761  56.36   0
       102    128.8443    751.8541 299.9665908 +22.6224310     441.8255     72.51499      1.585     4.03     3.832922     20.45347     44.79885         7     1.196     0.526 -26.21   0
       103    920.1748    749.3231 300.2136721 +22.8589889     446.3559     72.51499      1.366     4.02     3.743687     20.45347     49.91254         7     1.015     0.456  -6.51   0
       104    293.1817    746.3032 300.0194656 +22.6701470     502.4831     72.40414      1.606     5.69     3.860959     20.45347     56.28511        11     1.327     0.688  79.51   0
       105    616.2332    736.6674 300.1230990 +22.7642624     520.9304     72.49653      1.499     3.37     3.579639     20.45347     60.17701         7     0.862     0.620  82.64   0
       106    585.8578    735.1443 300.1141381 +22.7547186      510.206     72.57035      1.436     4.01     3.595508     20.45347     52.82896        10     1.055     0.673  68.07   0
       107    607.8500    732.6637 300.1217904 +22.7605998     1287.728      72.5519      1.481     2.81     3.593304     20.45347     142.1334        20     1.140     1.018 -75.61   0
       108    495.6882    734.5547 300.0862672 +22.7275132     396.9716     72.49653      1.524     4.06     3.518777     20.45347     36.40009         7     0.985     0.479  -8.89   0
       109   1002.5324    731.6461 300.2450962 +22.8785833     4385.199     72.47806      1.689     3.69     4.075857     20.45347     346.4609        36     1.327     1.251  49.80   0
       110    991.0665    723.0261 300.2443223 +22.8726719     1611.597     72.47806      1.625     3.65     4.085751     20.45347     124.7679        26     1.314     1.179  78.58   0
       111    353.7719    716.7887 300.0478962 +22.6798542     1069.641     72.49653      1.585     3.44     3.652244     20.45347     105.0305        14     0.996     0.978  89.08   0
       112   1022.0619    713.2273 300.2571731 +22.8791407      1593.71      64.7106      1.696     3.87     4.283749     20.45347     123.0652        26     1.443     1.092  53.86  24
       113    817.5384    714.3224 300.1930596 +22.8181819     2688.359      72.5519      1.656     3.30     3.673238     20.45347     235.4121        33     1.676     1.050   6.92   0
       114     39.6459    704.4890 299.9542781 +22.5820803     772.4589     72.49653      1.651     4.71     3.803049     20.45347     86.86905        14     1.319     0.916  50.77   0
       115    202.6743    700.8538 300.0061038 +22.6299569     693.5087     72.51499      1.730     4.02     4.015391     20.45347     76.70863        15     1.283     0.938 -13.47   0
       116    899.8054    700.3847 300.2232281 +22.8388276     719.5649     72.40414      1.936     4.13     3.863617     20.45347     58.80544        10     1.060     0.753  22.85   0
       117    482.6170    700.3210 300.0933253 +22.7137682     346.0371     72.49653      1.994     3.78     3.650331     20.45347     34.92354         5     1.004     0.408 -14.32   0
       118    935.7795    691.2707 300.2374042 +22.8469863     148437.9     72.49653      1.586     3.06     3.983618     20.45347     13862.22       152     1.466     1.460  65.14   0
       119    698.2299    695.0607 300.1621526 +22.7768951     332.8036     72.53345      1.352     3.93     3.884282     20.45347     50.89488         8     0.938     0.729 -63.87   0
       120    787.9535    691.8114 300.1911572 +22.8028510     711.4244     72.51499      1.925     3.51     3.749346     20.45347     70.42212        15     1.097     0.951   5.34   0
       121    969.0992    684.2134 300.2500861 +22.8549397     412.4113     72.40414      1.584     5.00     4.195844     20.45347     53.64859        10     1.241     0.678 -17.42   0
       122    622.0016    680.0128 300.1433061 +22.7497260     1707.056     72.31163      1.376     2.77     4.043926     20.45347     207.9078        20     1.093     0.987 -36.81   0
       123    803.2606    677.3628 300.2006215 +22.8032878     9444.433     72.51499      1.486     2.83     3.818389     20.45347     949.0511        42     1.255     1.180  54.38   0
       124    304.6884    672.3893 300.0470615 +22.6523928     4928.406     72.44111      1.516     2.88     4.059947     20.45347     533.1196        33     1.214     1.157 -47.32   0
       125     18.5266    670.7427 299.9586844 +22.5660656     1717.729     72.53345      1.743     3.55     4.045714     20.45347     167.4717        25     1.318     1.185  58.90   0
       126    386.6990    670.4554 300.0731916 +22.6764340     1120.358      72.5888      1.346     2.55     3.909543     20.45347      150.869        15     0.982     0.875  37.49   0
       127    262.6329    668.1640 300.0353604 +22.6385660     411.4956     72.51499      1.282     3.33     4.070675     20.45347     61.31071         7     0.847     0.616 -17.23   0
       128    594.9838    666.0616 300.1394281 +22.7376216     590.1876     72.44111      1.254     3.10     4.116124     20.45347      93.5545        11     0.899     0.836  33.94   0
       129    586.7751    658.1802 300.1394336 +22.7328982      3140.66     72.51499      1.339     2.47     4.124799     20.45347     392.0597        24     1.076     1.011  68.39   0
       130    576.8859    651.7164 300.1384553 +22.7280779     1536.424     72.60724      1.378     2.70     4.131909     20.45347      216.726        19     1.231     0.876  62.04   0
       131    970.4376    649.8746 300.2616613 +22.8454734     500.7319     72.44111      1.465     5.19     4.258641     20.45347     46.16247        11     1.057     0.874 -65.00   0
       132    505.5164    651.0370 300.1164641 +22.7064875     345.9241     72.47806      1.627     4.61     3.927817     20.45347      34.0794         5     1.040     0.580  15.86   0
       133    488.1179    648.9963 300.1117133 +22.7006854      200.532     72.42262      1.128     2.01     3.831371     20.45347      54.5342         5     0.745     0.458 -30.43   0
       134    240.2327    647.8179 300.0350079 +22.6260095     725.3707     72.47806      1.435     3.48     4.048232     20.45347     94.88218        12     1.034     0.797  55.02   0
       135    254.4132    646.4960 300.0398450 +22.6298837     526.3704     72.42263      1.531     4.01     4.041909     20.45347      63.1843        12     1.128     0.808 -30.06   0
       136    280.0368    643.4680 300.0487938 +22.6367005     473.1946     72.47806      1.374     3.42     4.029756     20.45347     69.58831        10     0.888     0.784 -78.48   0
       137   1023.6119    643.2485 300.2803964 +22.8594950     357.4319     56.75314      1.217     3.50     4.585523     20.45347       47.595         5     0.776     0.455 -73.82  24
       138    501.7426    641.5268 300.1183795 +22.7026259     1713.776     72.53345      1.363     2.43     3.914582     20.45347     248.4776        22     1.108     1.037  74.89   0
       139    600.9335    642.0844 300.1490704 +22.7325207     350.1139     72.60724      1.250     4.65     4.132703     20.45347     60.25524         9     0.871     0.720 -39.19   0
       140    155.6605    636.4685 300.0124134 +22.5973833      19851.2     72.53345      1.611     3.12     4.276905     20.45347     2145.815        67     1.431     1.332   4.03   0
       141     76.7397    638.2435 299.9873203 +22.5742141     748.3059     72.49653      1.785     2.58     4.228767     20.45347     79.38916         9     0.820     0.725 -22.40   0
       142    586.5379    637.0106 300.1462375 +22.7267488     1091.527     72.42262      1.415     2.97     4.139341     20.45347     142.6437        13     0.985     0.849  14.71   0
       143    621.7944    636.0593 300.1575223 +22.7370433     394.9846     72.45959      1.257     2.92     4.127063     20.45347     53.47496         7     0.730     0.664 -43.61   0
       144    311.2189    643.6298 300.0584354 +22.6460993     324.3065     72.49653      1.361     3.50     4.016288     20.45347     38.53667         5     0.757     0.468 -11.42   0
       145   1004.7105    623.3400 300.2809698 +22.8481127     1165.314      72.5888      1.590     3.56      4.47031     20.45347      103.229        18     1.111     1.055  74.58   0
       146    101.5867    620.7482 300.0007211 +22.5766511      1456.09     72.53345      1.897     5.46     4.311386     20.45347     105.8721        27     1.605     1.226 -77.54   0
       147    425.1741    623.2505 300.1004947 +22.6744230     191.9275     72.51499      1.184     4.34     3.836261     20.45347     28.72327         5     0.757     0.708 -51.81   0
       148    871.5870    621.4655 300.2400753 +22.8077005     670.8672     72.44111      1.761     3.82     3.856943     20.45347     52.56715        11     1.174     0.642  42.58   0
       149    167.9288    621.1749 300.0211932 +22.5966765     375.8152     72.49653      1.475     3.40     4.249937     20.45347     54.94988         6     1.007     0.565 -23.88   0
       150    944.9926    615.9275 300.2647568 +22.8280971     681.8293     72.47806      1.409     3.70     4.108963     20.45347     67.22563        13     1.060     0.841  86.79   0
       151    550.2807    617.5053 300.1412884 +22.7102803     423.5721      72.6441      1.187     2.79     4.154788     20.45347     69.09185         7     0.840     0.603 -20.74   0
       152    940.9072    615.4645 300.2636335 +22.8267404     542.3635     72.60724      1.997     5.76     4.084936     20.45347     44.92332        10     1.318     0.785  87.26   0
       153    342.9467    616.4887 300.0771175 +22.6478258     322.3324     72.51499      1.558     4.14     3.975097     20.45347     31.10141         5     0.764     0.640 -80.85   0
       154    506.8511    609.8475 300.1302603 +22.6950629     787.7313     72.53345      1.354     2.76     3.970291     20.45347     95.39882        10     0.880     0.747  62.83   0
       155    654.4313    608.6225 300.1765971 +22.7389458     522.2965     72.49653      1.255     4.74     4.120763     20.45347      62.1279        10     1.161     0.649 -14.28   0
       156    702.1583    606.8030 300.1920510 +22.7527258     585.1689     72.51499      1.747     2.81      4.09142     20.45347     69.25919         9     0.931     0.709 -10.22   0
       157    672.3860    606.4175 300.1829044 +22.7436933     618.1521     72.45959      1.322     2.87     4.113438     20.45347     81.75909        11     0.969     0.785  40.11   0
       158    550.9911    605.5923 300.1453793 +22.7070728     921.2021     72.34865      1.456     2.92     4.163773     20.45347     129.1346        16     1.061     0.917  55.65   0
       159    737.9576    605.0197 300.2037808 +22.7629407     218.0249     72.53345      1.067     2.83     4.068049     20.45347     41.40035         5     0.614     0.604  86.09   0
       160    984.8297    601.2493 300.2819465 +22.8358100     3298.498     72.51499      1.510     2.93     4.347123     20.45347     348.7781        27     1.210     1.130 -81.14   0
       161    516.6263    601.2198 300.1361047 +22.6955162     1668.161     72.49653      1.303     2.54     4.043917     20.45347     211.4364        18     1.055     0.887  37.29   0
       162     78.4736    594.5901 300.0020381 +22.5622136     5078.081     72.49653      1.689     3.02     4.279267     20.45347     591.5107        38     1.357     1.258  73.71   0
       163    492.1911    596.5800 300.1300081 +22.6868591     315.2549     72.47806      1.390     2.57     3.945639     20.45347     40.30969         5     0.703     0.467 -17.54   0
       164   1023.4507    590.9244 300.2973447 +22.8444081     253.6242     57.68895      1.535     4.75     4.601473     20.45347      28.8245         7     1.363     0.469  65.16  24
       165    379.8680    587.8755 300.0978933 +22.6506848     9093.835     72.57035      1.412     2.72     3.896564     20.45347     1139.623        40     1.187     1.142  42.39   0
       166    141.2648    588.6511 300.0234725 +22.5793474     152.2829     72.53345      1.508     5.13     4.268418     20.45347     33.07624         5     1.049     0.710 -80.24   0
       167    502.3196    584.8796 300.1369601 +22.6865361     8981.317     72.62567      1.357     2.51     4.032731     20.45347      1175.36        37     1.143     1.096  59.46   0
       168    914.1284    578.9270 300.2671540 +22.8082202     1790.761      72.5519      1.458     2.96      3.90688     20.45347     207.7415        23     1.215     0.993 -74.26   0
       169    998.7570    576.3430 300.2943800 +22.8328224     12496.96     72.45959      1.554     2.88      4.44252     20.45347     1315.438        52     1.325     1.289   8.57   0
       170    562.9246    574.5316 300.1591824 +22.7017309     11732.76     72.57035      1.327     2.35     4.216637     20.45347     1690.913        42     1.132     1.108  77.82   0
       171    290.3889    569.7917 300.0759431 +22.6186632     1402.614     72.38565      1.496     2.62     3.968311     20.45347     195.2382        17     1.118     0.927  85.18   0
       172    732.1768    570.1951 300.2132916 +22.7512052     541.8928     72.45959      1.333     3.79     4.125977     20.45347     83.52946        13     1.240     0.723  31.33   0
       173    537.1116    567.7318 300.1533568 +22.6920414     491.4712      72.6441      1.412     2.23     4.202354     20.45347     77.31882         8     0.875     0.557 -62.77   0
       174    837.5592    562.8756 300.2485020 +22.7806730      865.396     72.45959      1.300     2.40     3.829296     20.45347     119.7966        13     1.028     0.747  42.46   0
       175    494.6457    562.7152 300.1417708 +22.6778721     4410.902     72.47806      1.332     2.30     4.091614     20.45347     653.8742        26     1.093     0.975  40.09   0
       176    472.9511    561.0772 300.1355525 +22.6708986     1193.547     72.49653      1.307     2.61     4.033197     20.45347     166.7483        17     1.053     0.899 -38.37   0
       177    227.1905    560.2985 300.0593812 +22.5969859      681.746     72.38565      1.358     3.72     4.037184     20.45347     80.87967        15     1.133     0.946  35.04   0
       178    914.4614    558.2531 300.2739727 +22.8023787     1641.274      72.5519      1.534     3.31     3.861268     20.45347     146.2847        23     1.236     1.045 -62.35   0
       179    794.7315    555.3745 300.2375930 +22.7656884     847.1367     72.47806      1.369     2.46     3.866133     20.45347     112.2946        10     0.849     0.758 -34.80   0
       180    611.2495    550.2418 300.1821143 +22.7092384     200426.8     72.51499      1.319     2.39     4.264201     20.45347     23461.05       190     1.428     1.348  -9.69   0
       181    434.9722    556.4224 300.1252485 +22.6581769     335.5692     72.49653      1.093     2.39     3.910424     20.45347     56.19437         6     0.755     0.490  -6.09   0
       182    297.2839    550.1634 300.0844611 +22.6150976     3455.344     72.47806      1.363     2.56     3.957504     20.45347     434.4819        24     1.098     0.995  37.20   0
       183    863.2939    546.5008 300.2618404 +22.7836763     536.3337     72.68095      1.657     3.44      3.81851     20.45347     52.24889         8     0.921     0.626  -2.94   0
       184    476.7543    546.5994 300.1414376 +22.6678819     256.3412     72.49653      1.160     3.19     4.106266     20.45347     33.08122         5     0.737     0.443  20.75   0
       185    642.9637    537.1467 300.1962411 +22.7149809     229.8823     72.51499      1.245     2.57     4.266332     20.45347     53.93449         6     0.871     0.447  39.11   0
       186    501.8377    530.9501 300.1543244 +22.6709071     2838.306     72.49653      1.507     2.99     4.180943     20.45347     320.6192        34     1.706     0.977 -88.66   0
       187    346.2529    532.9078 300.1052906 +22.6248280     385.5335      72.5519      1.262     2.59     3.876588     20.45347      53.2422         7     0.693     0.672 -67.05   0
       188    913.0489    526.5113 300.2838409 +22.7928332     304.6944     72.49653      1.452     4.91     3.833691     20.45347     49.87118         7     1.310     0.520  23.24   0
       189    819.1359    519.5292 300.2568380 +22.7626993     330.7556     72.53345      1.418     3.60     3.863855     20.45347     48.71022         7     0.963     0.464 -12.61   0
       190    898.7120    516.9106 300.2824893 +22.7857804     1667.534     72.66253      1.350     2.66     3.831697     20.45347     232.7161        17     0.972     0.936 -63.99   0
       191    785.5684    517.2266 300.2471265 +22.7519828     321.1902     72.49653      1.302     2.66     3.959489     20.45347     36.49452         5     0.704     0.468 -72.14   0
       192    770.1016    514.3816 300.2432315 +22.7465322      2718.75     72.42262      1.341     2.50     4.045133     20.45347     373.8159        25     1.147     0.993 -57.03   0
       193     28.9040    515.3409 300.0123780 +22.5246097     804.2885     72.57035      1.658     3.86     4.022737     20.45347     86.90311        11     1.056     0.889  39.73   0
       194   1014.7527    511.9902 300.3202683 +22.8191138     396.3837     72.51499      1.490     5.33      4.40884     20.45347     42.80682        11     1.312     0.764  15.90   2
       195   1013.0010    507.7222 300.3211079 +22.8173623      828.619     72.38565      1.682     4.17     4.374031     20.45347      81.8865        17     1.333     0.907  38.45   3
       196    979.6473    511.3052 300.3095430 +22.8084057     374.0679     72.51499      1.406     2.86     4.172842     20.45347     41.57899         5     0.729     0.447 -72.86   0
       197    674.7261    511.1122 300.2145857 +22.7170197     462.5626      72.6441      1.224     2.52     4.217652     20.45347     62.58377         7     0.697     0.667 -78.31   0
       198    557.4899    510.3184 300.1783437 +22.6816618     782.4036     72.60724      1.337     2.52     4.271493     20.45347     85.32692        11     0.858     0.748  28.86   0
       199    899.1506    506.8617 300.2858891 +22.7830236     2279.103      72.5519      1.595     3.91     3.832947     20.45347      246.561        26     1.557     0.971  78.48   0
       200    652.2687    504.9838 300.2095824 +22.7085305     783.5995     72.51499      2.444     2.65      4.22933     20.45347     85.41818         9     0.878     0.691  67.39   2
       201    438.2156    504.4503 300.1431339 +22.6442279     316.4751     72.51499      1.313     4.11      3.94347     20.45347      42.0075         8     0.924     0.745 -85.10   0
       202    490.9510    503.8511 300.1597360 +22.6598626      301.253     72.53345      1.163     2.17     4.168597     20.45347     72.09882         8     0.766     0.628 -26.63   0
       203    937.2835    501.9336 300.2993771 +22.7930265     4179.947     72.60724      1.415     2.82     3.884842     20.45347     482.2721        32     1.175     1.094 -81.74   0
       204    597.8951    497.8147 300.1949810 +22.6901788     403.0184     72.42262      1.244     2.25     4.273229     20.45347     76.07993         7     0.800     0.581 -22.19   0
       205    169.4353    492.2021 300.0635438 +22.5601239     1035.594     72.45959      1.378     2.87     4.152096     20.45347     134.8352        15     1.021     0.866  51.09   0
       206    830.2709    486.4305 300.2710552 +22.7565231     317.1593     72.49653      1.066     2.52     3.889782     20.45347     42.60535         5     0.688     0.475  16.41   0
       207    216.2370    484.4022 300.0806201 +22.5719208     166.5374     72.51499      1.188     3.40      4.06448     20.45347     28.82688         5     0.772     0.432  21.22   0
       208    161.8347    482.3312 300.0643866 +22.5550119     352.8068     72.49653      1.210     4.94     4.165145     20.45347     51.46806         9     0.919     0.754  11.23   0
       209    769.6134    476.5681 300.2553572 +22.7355208     440.2399     72.47806      1.248     2.96     4.131733     20.45347     64.83261         9     0.849     0.744  48.34   0
       210    815.7342    476.2566 300.2698285 +22.7492455     190.8014      72.5519      1.652     4.23     3.957039     20.45347      36.3133         5     1.031     0.658 -25.92   0
       211    658.5439    474.0367 300.2215842 +22.7015206     300.5566     72.49653      1.122     2.84     4.210359     20.45347     52.29605         6     0.786     0.497  87.46   0
       212    710.6502    472.3453 300.2383608 +22.7166449     721.0765     72.53345      1.270     2.47     4.266189     20.45347     110.4652        13     0.928     0.839  62.08   0
       213     71.7640    466.4789 300.0415515 +22.5234488     366.7369     72.44111      1.695     4.44     4.192242     20.45347     32.39545         6     0.952     0.590  63.76   0
       214    771.4434    464.6912 300.2597832 +22.7326561     885.0576     72.49653      1.133     2.01     4.213039     20.45347     154.0709        13     0.835     0.796 -50.15   0
       215    928.7966    460.9125 300.3100499 +22.7786939     1005.296     72.42262      1.340     2.34     3.853957     20.45347     139.2526        16     0.949     0.932 -60.05   0
       216    913.0809    457.1573 300.3063697 +22.7729087     788.4248     72.47806      1.424     2.98     3.863285     20.45347     86.65137        12     0.967     0.802  65.86   0
       217    893.9560    457.4871 300.3003009 +22.7672767      272.009     72.47806      1.188     2.41     3.870142     20.45347     41.32671         6     0.749     0.500  -1.38   0
       218    117.6048    457.0073 300.0588655 +22.5344801     196.5843     72.34865      1.218     3.84     4.311577     20.45347     29.18781         5     1.315     0.322 -39.43   0
       219    657.3143    455.1497 300.2273329 +22.6957262     3116.599     72.49653      1.253     2.31     4.263461     20.45347     408.1348        21     1.002     0.923 -75.35   0
       220   1017.9882    454.2430 300.3400271 +22.8034803     502.8455     72.49653      1.295     2.68     4.061579     20.45347     69.35757         8     0.806     0.694  16.61   0
       221    133.1635    446.4370 300.0671302 +22.5361130     396.1776     72.57035      1.505     5.13     4.331775     20.45347     43.40923         7     1.195     0.621  33.48   0
       222    662.4392    442.7528 300.2329531 +22.6937000     291.0818     72.53345      1.080     4.96     4.291836     20.45347       40.354         6     0.966     0.720  25.04   0
       223    497.1301    442.2740 300.1816495 +22.6440310     353.2487     72.57035      1.234     2.56     4.242386     20.45347     59.62897         7     0.726     0.636  -7.60   0
       224    940.5491    434.1215 300.3224113 +22.7745112     506.6392     72.49653      1.282     2.93     3.883656     20.45347     69.04553         8     0.821     0.686 -40.33   0
       225    768.0938    429.3769 300.2702036 +22.7215047     1068.475     72.40414      1.215     2.24     4.474832     20.45347     153.3091        13     0.916     0.795  89.97   0
       226    563.7452    429.6852 300.2064680 +22.6603767      459.098     72.57035      1.196     2.16      4.29728     20.45347     93.23182         7     0.851     0.504  58.43   0
       227    272.1620    427.3491 300.1165233 +22.5723132     609.1701     72.49653      1.202     2.25     4.322928     20.45347     95.91974         8     0.820     0.589 -11.17   0
       228     58.7285    425.1943 300.0509031 +22.5076934     238.4626     72.44111      1.546     4.55     4.168249     20.45347      46.1394         5     1.231     0.477  57.01   0
       229    111.1932    424.7602 300.0673405 +22.5233036     224.5451     72.53345      1.248     3.04     4.406218     20.45347     51.92603         5     0.930     0.593  67.42   0
       230    334.2295    422.9623 300.1372448 +22.5896607     3612.349     72.51499      1.331     2.50     4.346543     20.45347     463.2567        26     1.127     0.992  74.12   0
       231    281.5200    417.7074 300.1225619 +22.5723509     7499.424     72.60724      1.401     2.43     4.387828     20.45347     1093.151        37     1.217     1.134 -84.86   0
       232    785.7849    418.4220 300.2792713 +22.7236549     99.93172     72.49653      1.074     3.45     4.546463     20.45347     33.89122         5     0.734     0.468 -16.13   0
       233    422.2393    411.9665 300.1681862 +22.6128829      4750.77     72.53345      1.286     2.41     4.277406     20.45347     616.6449        29     1.121     0.967  79.46   0
       234    666.4923    408.7462 300.2452535 +22.6851436     18577.02      72.5519      1.272     2.15     4.367395     20.45347     2711.267        55     1.204     1.103  61.26   0
       235    684.1591    408.3735 300.2508762 +22.6903286      832.042      72.5519      1.918     6.19     4.397463     20.45347     78.64377        15     1.635     0.660 -39.90   0
       236    526.7366    406.0779 300.2026116 +22.6425066     345.2921      72.5888      1.328     3.23     4.281016     20.45347     34.67623         5     0.806     0.416  69.58   2
       237    910.6390    405.0556 300.3225212 +22.7572000     285.3549     72.49653      1.363     3.23     3.938903     20.45347     40.96483         5     0.817     0.492 -34.74   0
       238    863.1485    399.3794 300.3095603 +22.7413488     345.9809     72.49653      1.127     3.17     4.120739     20.45347      58.3085         8     0.919     0.609  64.87   0
       239   1000.0970    391.2923 300.3548814 +22.7800241     748.3878     72.68095      1.458     2.97     3.791965     20.45347     104.9995        12     1.077     0.711  81.86   0
       240    537.0345    390.8073 300.2107726 +22.6412057       363.75     72.49653      0.990     1.78     4.286121     20.45347     80.93259         6     0.688     0.515 -39.70   0
       241    221.0249    388.7623 300.1131510 +22.5459051     2024.674     72.51499      1.391     2.60      4.42767     20.45347     248.5767        24     1.183     0.993  57.18   0
       242    607.0986    378.1653 300.2366850 +22.6585649     6673.943     72.47806      1.290     2.27     4.378348     20.45347     913.7245        37     1.166     1.033  87.37   0
       243   1020.8678    378.5288 300.3655017 +22.7825712     1243.208     69.47922      1.506     2.70      3.74585     20.45347     152.6594        17     1.127     0.960 -49.94  16
       244    321.8030    377.6903 300.1480733 +22.5729373     614.0371     72.40414      1.298     2.66     4.413123     20.45347     102.2626         9     0.821     0.759  35.93   0
       245    179.2787    371.0133 300.1059368 +22.5282940     495.4143     72.49653      1.289     3.26      4.53742     20.45347     62.08628        10     1.064     0.711 -26.76   0
       246    720.9112    368.7479 300.2751832 +22.6899497     468.6247     72.51499      1.156     2.11      4.42403     20.45347     79.13119         8     0.774     0.607 -40.83   0
       247     26.5519    368.3123 300.0593694 +22.4817212     1443.831     72.49653      1.610     3.54     4.303675     20.45347     138.7722        22     1.389     1.006  28.58   0
       248    811.1729    367.1235 300.3038310 +22.7165135     1173.444     72.51499      1.345     3.01     4.520947     20.45347     130.8634        16     1.117     0.812  62.35   0
       249    763.1635    365.2811 300.2894704 +22.7016072     710.4858     72.45959      0.591     0.70     4.475522     20.45347     487.3421         5     0.585     0.335  53.28   0
       250    513.6812    364.3839 300.2120794 +22.6266182     6194.257     72.47806      1.268     2.30      4.29531     20.45347     922.4024        31     1.132     0.990  56.40   0
       251     99.8245    364.1366 300.0834821 +22.5024964     351.0561     72.47806      1.757     3.79     4.557308     20.45347     39.27247         5     0.797     0.517  42.84   0
       252   1003.2189    358.9141 300.3663630 +22.7716480     621.9484     72.44111      1.464     4.10     3.752899     20.45347     68.43665        11     1.158     0.837 -53.03   0
       253    905.6166    358.7547 300.3359822 +22.7423851     1370.375     72.51499      1.408     2.68      4.09147     20.45347     182.8853        18     1.024     0.974  77.51   0
       254    498.1538    353.1799 300.2108830 +22.6187474     392.4347      72.5519      1.223     2.71     4.299053     20.45347     63.11905         6     0.853     0.472  31.68   0
       255    581.1058    351.1737 300.2373520 +22.6430232     509.0143     72.44111      1.327     2.24     4.351503     20.45347      74.9546         8     0.777     0.649 -40.49   0
       256     25.2106    349.8028 300.0649585 +22.4760075     1129.069     72.31163      1.566     2.81     4.412115     20.45347     142.2333        20     1.296     0.957 -17.85   0
       257    561.3796    349.1709 300.2318614 +22.6365383     249.4296     72.49653      1.174     3.32     4.322364     20.45347     42.28508         5     0.778     0.411  66.97   0
       258    878.3758    346.6215 300.3314280 +22.7307413     551.9201     72.47806      1.237     2.49     4.373489     20.45347     76.20831         9     0.833     0.713   2.78   0
       259    401.3559    343.6264 300.1838673 +22.5869980     2588.186     72.51499      1.327     2.38     4.300283     20.45347     352.5393        21     1.025     0.944  72.20   0
       260    730.0075    342.0625 300.2866760 +22.6850046     1739.379     72.44111      0.418     2.23     4.411635     20.45347     1488.652         5     0.409     0.371 -89.10   0
       261    119.7185    341.0280 300.0971601 +22.5018292     1061.054     72.51499      1.489     3.19      4.56818     20.45347     132.5498        15     1.048     0.919  12.85   0
       262    748.8040    338.6065 300.2936527 +22.6896403     298.1555     72.33015      1.297     2.37     4.443047     20.45347     48.03865         5     0.698     0.461  18.01   0
       263    348.9992    337.2361 300.1696568 +22.5694721     320.6371     72.47806      1.365     4.42     4.374016     20.45347     42.79724         6     0.872     0.638 -37.51   0
       264    370.6536    333.0594 300.1777464 +22.5747623     29773.95      72.5519      1.334     2.33     4.338504     20.45347     4228.419        62     1.242     1.142  61.08   0
       265    905.2484    330.7148 300.3449661 +22.7342128     1436.813     72.47806      1.324     2.56     4.119129     20.45347     187.3975        16     1.033     0.854  62.82   0
       266     66.9459    320.7812 300.0873357 +22.4801943     4949.192     72.47806      1.570     3.08     4.503599     20.45347     545.1329        34     1.302     1.155  57.72   0
       267    944.2230    319.7758 300.3606663 +22.7427343      338.584     72.45959      1.742     3.85     3.870577     20.45347     38.72562         5     1.341     0.317 -32.25   0
       268    820.6442    319.6934 300.3221728 +22.7057150     561.2668     72.49653      1.340     2.80     4.530533     20.45347     82.33137         8     0.859     0.632  70.12   0
       269    244.6892    319.3138 300.1430403 +22.5330613     481.9101     72.66253      1.426     2.77     4.398768     20.45347     69.06313        10     0.838     0.825  60.64   0
       270    469.1169    318.2634 300.2131767 +22.6000172     610.7289      72.5888      1.425     2.69     4.293078     20.45347     73.50893         9     0.914     0.636  35.92   0
       271    781.1188    312.8427 300.3120796 +22.6919111     1872.596     72.45959      1.281     2.44      4.52083     20.45347     274.9444        15     0.985     0.822 -85.80   0
       272    589.2675    307.4387 300.2540828 +22.6329019     447.1884     72.45959      1.486     2.58     4.363159     20.45347       54.944         7     0.780     0.645 -75.62   0
       273    996.2729    305.8094 300.3814281 +22.7542969     563.2998     72.49653      1.247     2.80      3.80652     20.45347     85.40437        11     0.964     0.722 -52.79   0
       274    442.8959    297.3763 300.2117948 +22.5861609     2241.839     72.38565      1.496     2.71      4.27113     20.45347     309.1635        25     1.344     0.920  62.46   0
       275    655.2292    296.3983 300.2782020 +22.6494858     234.5708     72.45959      1.090     1.90     4.393795     20.45347     53.16286         5     0.649     0.476  14.90   0
       276    874.1559    291.2894 300.3480655 +22.7135691     338.9199     72.51499      1.182     3.17     4.411172     20.45347     57.44074         7     0.859     0.567 -32.64   0
       277    882.0775    290.3935 300.3508253 +22.7156828     572.1845     72.42262      1.268     2.77     4.335806     20.45347     88.07321         9     0.938     0.616  27.40   0
       278     14.8537    288.5726 300.0816059 +22.4553299      806.099     72.51499      2.203     7.31     4.624925     20.45347       78.205        16     1.760     0.849 -27.76   0
       279    764.4764    288.3924 300.3148268 +22.6798994      380.188     72.44111      1.305     2.68     4.523299     20.45347     56.46966         6     0.854     0.434  70.30   0
       280    781.5431    288.3051 300.3201724 +22.6849844     288.0925      72.5519      1.026     3.33     4.534144     20.45347     43.43769         5     0.742     0.434 -65.98   0
       281    732.5384    287.0829 300.3053021 +22.6699598     189.1304      72.5888      1.178     3.71      4.50013     20.45347     36.09871         6     0.800     0.493  83.45   0
       282    518.7570    276.9559 300.2420242 +22.6030217      1072.78     72.57035      1.206     2.38     4.302625     20.45347      188.554        13     0.945     0.778 -88.94   0
       283    326.2423    277.3224 300.1820169 +22.5454457     300.5522     72.47806      1.278     2.78     4.278517     20.45347     41.98586         5     0.732     0.444  14.69   0
       284     90.7127    277.0641 300.1088993 +22.4747724     387.9737      72.5888      1.785     5.55     4.488314     20.45347      49.7224         8     1.233     0.703  33.60   0
       285    902.0090    270.0239 300.3636463 +22.7157918     380.8915     72.49653      1.338     2.43     4.246567     20.45347     54.40196         7     0.841     0.516 -50.40   0
       286    763.5229    268.6992 300.3209181 +22.6739527     2122.311      72.6441      1.231     2.23     4.517559     20.45347      338.005        17     0.992     0.886  73.92   0
       287   1023.7240    263.0743 300.4038534 +22.7502205     1276.276     56.16034      1.075     2.57     4.069038     20.45347      299.144        10     1.106     0.447  89.04  24
       288      1.3562    254.2452 300.0885485 +22.4414306     726.0123     56.54044      2.675     5.77     4.674286     20.45347     70.28107        12     1.748     0.536  84.34  24
       289    471.8716    252.6342 300.2353233 +22.5819884     685.8691     72.49653      1.216     3.06     4.301488     20.45347     99.69246        10     1.019     0.680  58.74   0
       290    177.7523    246.7166 300.1457849 +22.4921528     681.9081     72.49653      1.503     3.83     4.415452     20.45347     83.79449        13     1.193     0.775  77.10   0
       291    146.8246    246.4659 300.1362560 +22.4828101     1299.188     72.47806      1.697     3.25     4.464372     20.45347     152.1135        21     1.188     1.094 -49.90   0
       292    884.5266    240.2127 300.3678664 +22.7019861      314.861     72.51499      1.284     2.45     4.445798     20.45347     50.78932         5     0.705     0.483 -75.76   0
       293    230.6819    238.7554 300.1648169 +22.5057312     533.1282     72.45959      1.375     3.03     4.372122     20.45347     65.01778        11     0.996     0.731  47.04   0
       294     16.2816    234.2981 300.0996522 +22.4401806     232.8613      72.6441      1.525     4.92     4.678211     20.45347     27.17169         6     0.928     0.738 -72.16   0
       295    835.4079    229.9764 300.3558772 +22.6843399     755.2972     72.49653      1.351     2.76     4.501391     20.45347     97.97558        14     0.934     0.908  59.53   0
       296    425.7229    229.9385 300.2283262 +22.5616426     437.3992      72.5519      1.203     2.17     4.298987     20.45347     59.31244         7     0.712     0.619 -78.50   0
       297    971.3842    223.7120 300.4002980 +22.7232356     319.5653     72.44111      1.606     4.79     4.470541     20.45347     32.47904         5     1.054     0.618 -30.57   0
       298    926.1001    223.3887 300.3862832 +22.7095906     216.5859     72.40414      1.073     2.94     4.470126     20.45347     36.49707         5     0.738     0.439  20.90   0
       299    933.4504    219.2410 300.3899201 +22.7105974     2096.851     72.51499      1.325     2.53     4.465395     20.45347     244.3863        22     1.029     1.012 -58.24   0
       300    351.9411    216.4431 300.2097535 +22.5356603     2079.696     72.47806      1.310     2.43     4.310219     20.45347     299.3438        22     1.082     0.961  69.06   0
       301    429.5970    211.3821 300.2355493 +22.5574720     1011.633     72.40414      1.505     3.21     4.303537     20.45347     134.5125        14     1.096     0.830  58.37   0
       302    831.8149    210.9975 300.3609127 +22.6778070     561.8603     72.33015      1.217     2.23     4.495304     20.45347     111.7388         9     0.902     0.576  57.33   0
       303    938.8181    207.8875 300.3952758 +22.7089383      323.826     72.44111      1.199     2.74       4.4569     20.45347     49.02544         8     0.781     0.676 -55.53   0
       304    246.6382    203.7583 300.1811260 +22.5004628     704.9218      72.5888      1.381     2.27     4.377219     20.45347     115.2619        13     0.955     0.844  35.19   0
       305    364.4582    203.1449 300.2179587 +22.5355906     338.6864      72.5519      1.359     1.94     4.320168     20.45347     58.71773         5     0.667     0.476  71.50   0
       306    784.4878    200.5747 300.3495452 +22.6606429     1695.987     72.44111      1.257     2.36     4.504784     20.45347     249.9562        17     1.040     0.854  76.31   0
       307     98.9036    201.3441 300.1360002 +22.4554905     295.0486      72.5888      1.298     4.24     4.679116     20.45347     56.36906         6     1.161     0.627 -42.36   0
       308    849.5294    200.2695 300.3699126 +22.6800243     545.4316     72.53345      1.181     3.11     4.483966     20.45347     78.78778         6     0.717     0.622  56.75   0
       309    216.6673    199.4915 300.1731936 +22.4902556     161.5106     72.62567      1.293     3.40     4.431031     20.45347     41.43645         5     0.793     0.423 -23.43   0
       310    267.9947    197.2428 300.1898777 +22.5049914     648.7983     72.51499      1.850     3.23     4.348483     20.45347     67.53163        12     1.031     0.800   0.19   0
       311    788.2894    191.8132 300.3535709 +22.6592617     860.4943     72.44111      1.555     4.16      4.50481     20.45347     92.62421        18     1.313     1.021  38.47   0
       312    558.1364    193.3435 300.2813984 +22.5907900      269.399      72.5519      1.317     4.52     4.332317     20.45347     43.62248         8     0.983     0.590  18.29   0
       313    708.9016    191.3180 300.3289997 +22.6353530      1196.04     72.66253      1.257     2.33     4.501957     20.45347     176.9146        17     1.019     0.882  84.09   0
       314    904.5289    182.6787 300.3927605 +22.6914260     1396.875     72.60724      1.363     2.50     4.443235     20.45347     207.1121        21     1.149     0.966  85.82   0
       315    635.1496    183.1148 300.3086913 +22.6109124     1003.613     72.47806      1.278     2.59     4.437365     20.45347     138.8721        12     0.930     0.765  79.77   0
       316    916.6193    182.0043 300.3967484 +22.6948503     794.4263     72.44111      1.345     3.14     4.435666     20.45347     92.05853        12     0.961     0.841  45.01   0
       317    101.3552    182.0780 300.1430086 +22.4506939     255.5671     72.47806      1.213     2.40     4.670909     20.45347     42.18249         5     0.836     0.478  88.23   0
       318    962.3295    180.9761 300.4113337 +22.7082332     293.2102     72.51499      1.260     3.91      4.45011     20.45347     42.08373         6     0.979     0.446  80.28   0
       319     57.2802    169.0449 300.1335434 +22.4337401     543.8998     72.47806      1.700     2.47     4.687324     20.45347      57.1435         7     0.713     0.653  68.38   0
       320    267.2704    165.0110 300.2001033 +22.4955167     741.2631     72.51499      1.368     3.06      4.41609     20.45347      87.5056        15     1.074     0.857  71.99   0
       321    129.1795    159.9380 300.1588310 +22.4526767      2273.83     72.45959      1.512     2.79     4.557001     20.45347     252.9798        27     1.237     1.076  44.48   0
       322    952.4241    157.0163 300.4160141 +22.6983768      732.886     72.49653      1.456     3.29     4.434218     20.45347     92.57628        13     1.044     0.932   5.44   0
       323     78.9234    156.8174 300.1442302 +22.4367172     592.7432     72.49653      1.895     3.80     4.695076     20.45347     48.40639        10     1.037     0.795  -4.54   0
       324    286.5848    153.2911 300.2099077 +22.4979374     5734.104     72.42262      1.406     2.50     4.462418     20.45347     757.9712        38     1.283     1.107  73.66   0
       325    149.6698    163.9484 300.1638973 +22.4599695     311.5467     72.47806      1.560     5.38     4.469835     20.45347     32.58825         8     1.088     0.750 -15.65   0
       326     70.6859    147.7303 300.1446173 +22.4316390     1235.676     72.60724      1.439     2.58     4.719478     20.45347     170.5408        18     1.137     0.922  31.94   0
       327     32.2604    149.1695 300.1322162 +22.4205339     336.6859     72.53345      2.067     3.84     4.748311     20.45347     33.07362         5     0.751     0.682 -31.25   0
       328    270.1687    144.1373 300.2077715 +22.4903894     650.7606     72.51499      1.342     3.79     4.572205     20.45347     88.36871        12     1.124     0.858   6.69   0
       329    930.6562    134.8925 300.4164000 +22.6854990     3621.607      72.5519      1.462     2.59     4.440165     20.45347     413.2849        29     1.208     1.072  80.84   0
       330    480.2416    130.2800 300.2776025 +22.5493373     653.0895     72.47806      1.269     2.57     4.400696     20.45347      76.8157        10     0.858     0.726 -40.59   0
       331    232.7234    130.3437 300.2006028 +22.4752074     369.3673     72.51499      1.648     3.93     4.735219     20.45347     39.89505         6     0.876     0.505  44.96   0
       332    594.4747    128.0938 300.3138661 +22.5829170     294.4461      72.6441      1.237     1.93     4.432017     20.45347     61.31444         6     0.713     0.499  87.76   0
       333    404.4915    122.1115 300.2566831 +22.5243018     629.2634     72.66253      1.361     2.30     4.465889     20.45347     83.83035        11     0.858     0.766  37.87   0
       334    408.5619    120.3381 300.2585242 +22.5250114     292.8356     72.51499      1.185     2.91     4.463841     20.45347     41.53093         5     0.703     0.465 -70.89   0
       335    170.3451    118.8741 300.1849339 +22.4532212      761.007     72.51499      1.743     3.30     4.526432     20.45347     90.91792        14     1.064     0.951 -89.32   0
       336    531.4460    117.3692 300.2977229 +22.5609610     1687.288     72.53345      1.255     2.27     4.385561     20.45347     229.5725        19     1.083     0.878  57.30   0
       337    459.3470    118.0567 300.2750634 +22.5395667      445.097      72.5519      1.217     2.10     4.440691     20.45347     72.74018         7     0.682     0.651 -89.97   0
       338    593.1623    116.4293 300.3172388 +22.5791709     434.0317     72.51499      1.518     4.28     4.450134     20.45347     54.61066         8     1.021     0.601  55.20   0
       339     10.0546    116.7703 300.1358226 +22.4045756     266.7292     72.49653      1.343     3.97     4.975696     20.45347     36.92254         6     0.782     0.576 -37.34   0
       340    275.2936    113.2339 300.2193827 +22.4830475     373.3371     72.45959      1.135     2.55     4.850005     20.45347     63.11969         6     0.713     0.605   9.07   0
       341    748.0213    111.4046 300.3670952 +22.6240860     135.3571     72.45959      1.220     4.82     4.804672     20.45347     32.61945         5     0.962     0.684 -88.92   0
       342    819.8887    106.4280 300.3911010 +22.6441645     331.1391     72.47806      1.448     3.40     4.765882     20.45347     41.94244         5     0.748     0.446 -20.82   0
       343    667.3098    103.5826 300.3444908 +22.5976765     57.07134     72.42262      1.087     3.51     4.521168     20.45347     38.33285         5     0.751     0.474 -13.56   0
       344    965.4770    101.0695 300.4382221 +22.6861869     370.7923     72.60724      1.531     2.99     4.481071     20.45347     42.27865         6     0.771     0.496 -84.02   0
       345    305.5398     97.2150 300.2339789 +22.4875070     5965.874     72.45959      1.409     2.54      4.91542     20.45347     733.8278        33     1.243     1.058  58.16   0
       346    811.8210     97.6166 300.3914432 +22.6392157     390.4919     72.47806      1.330     3.51     4.838007     20.45347     57.06891         8     0.934     0.781  -8.02   0
       347    156.4191     96.4417 300.1878776 +22.4426054     780.5895     72.51499      1.601     4.56     4.520073     20.45347     80.32844        13     1.264     0.853  56.97   0
       348      1.2109     93.6469 300.1405712 +22.3952858     418.8681     55.72961      1.034     2.28     5.153965     20.45347     96.19016         6     0.856     0.408 -89.77  24
       349    277.4597     91.4839 300.2271059 +22.4774482     296.1764     72.60724      1.356     3.54     5.008135     20.45347     38.97459         6     1.042     0.469  10.67   0
       350    781.3936     87.9033 300.3851105 +22.6273158     203.5478     72.38565      1.232     3.63     4.903614     20.45347      50.3773         6     0.943     0.553 -25.65   0
       351    321.1223     88.5393 300.2416362 +22.4896825     386.5221      72.5519      1.205     2.68     4.874043     20.45347     53.51381         6     0.761     0.497  -3.27   0
       352     67.4879     87.5968 300.1631156 +22.4134138     412.4763     72.42263      1.510     2.76     4.835142     20.45347     55.50259         6     0.862     0.443 -16.57   0
       353    551.6605     82.6133 300.3152806 +22.5570235     6221.296     72.45959      1.313     2.28     4.449267     20.45347      943.726        33     1.139     1.038  86.09   0
       354    437.0682     82.4368 300.2796775 +22.5226576     669.8544     72.47806      1.330     2.85     4.558004     20.45347     105.2985        10     0.948     0.673 -82.55   0
       355    608.4651     77.3044 300.3346850 +22.5725047     284.2883     72.60724      1.195     2.94     4.692776     20.45347     44.91603         5     0.706     0.475  73.18   0
       356    804.0823     72.2685 300.3972478 +22.6296090     843.1016     72.60724      1.493     3.23       4.9022     20.45347       101.98        13     1.127     0.763  83.03   2
       357    745.6830     73.6368 300.3786088 +22.6125249     315.9975     72.47806      1.329     3.89     4.963161     20.45347     47.42951         6     0.932     0.465  89.84   0
       358    896.3690     71.0872 300.4263939 +22.6568844     85.14069     72.47806      0.261     3.31     4.704386     20.45347     56.38485         7     1.003     0.794  81.44   0
       359    919.7238     66.9989 300.4349999 +22.6626958     234.7862     72.38565      1.154     3.98     4.707703     20.45347     37.01145         5     1.047     0.433  22.51   0
       360    244.5415     66.4261 300.2249936 +22.4603875     443.2212     72.49653      1.168     2.44     5.033302     20.45347     60.69983         6     0.781     0.493   3.01   0
       361    603.0662     65.2255 300.3369189 +22.5674156     445.4527     72.47806      1.370     3.04     4.776809     20.45347     65.08406         9     0.918     0.672  11.75   0
       362    679.9896     62.6552 300.3617052 +22.5897039     6269.708     72.49653      1.353     2.35     4.861261     20.45347     978.9271        31     1.190     1.011  77.24   0
       363    454.9308     61.4624 300.2920328 +22.5219788     1475.156     72.53345      1.374     2.62     4.609553     20.45347     210.0402        19     1.124     0.939  58.40   0
       364    721.2458     59.9700 300.3754257 +22.6012804     975.2246     72.53345      1.391     2.18     4.985284     20.45347     151.2435        13     0.970     0.829  87.95   0
       365    790.6475     57.7023 300.3977824 +22.6213988     445.8714     72.53345      1.438     3.99     4.940279     20.45347     39.96643         6     0.872     0.522 -46.19   0
       366    737.1934     55.9577 300.3816939 +22.6048996      574.221     72.51499      1.567     3.84     5.038175     20.45347     71.94579        10     1.009     0.733 -47.36   0
       367   1006.8171     53.6953 300.4664695 +22.6849223     498.8359     72.42262      1.384     2.48     5.018991     20.45347     79.86953         9     0.912     0.744  70.32   0
       368    203.9194     54.1438 300.2163474 +22.4446887     558.9135     72.53345      1.234     2.53     4.826103     20.45347     85.42155        10     0.855     0.761 -39.59   0
       369     51.0155     54.4738 300.1687335 +22.3989654     261.2412     72.49653      1.495     4.43     4.861426     20.45347     37.88599         6     0.862     0.648  33.72   0
       370    775.6685     51.6533 300.3950756 +22.6151763     548.8809     72.51499      1.202     2.48     4.977408     20.45347     69.95645        10     0.876     0.694 -39.26   0
       371    724.1812     47.5225 300.3803741 +22.5985791     2739.607     72.49653      1.331     2.35     5.050316     20.45347     450.4944        25     1.199     0.942  76.79   0
       372    739.0535     46.3568 300.3853848 +22.6026950     848.1925     72.51499      1.543     4.34     5.070518     20.45347     121.0994        15     1.456     0.794  59.49   0
       373    364.6169     48.3972 300.2681721 +22.4911761     297.6569     72.40414      1.200     3.98      4.90351     20.45347     53.72368         6     1.079     0.421  34.90   0
       374     17.6762     41.9882 300.1624252 +22.3853881     759.6617     72.51499      1.436     3.00     5.146942     20.45347     99.93972        12     1.085     0.678 -10.13   0
       375    810.5211     39.1320 300.4099935 +22.6220044      1588.97     72.60724      1.372     2.80     4.928904     20.45347     218.0049        21     1.192     0.960  59.85   0
       376    888.0461     33.6481 300.4359331 +22.6436230     349.7354     72.51499      1.438     3.82     4.903602     20.45347     50.50532         7     0.959     0.696  41.71   0
       377    748.5523     32.2255 300.3929234 +22.6014734     618.3077     72.49653      1.268     2.95     5.092789     20.45347      98.0072        11     0.995     0.786 -80.15   0
       378    554.2335     31.7527 300.3325645 +22.5431724     1136.879     72.53345      1.377     2.51     4.614735     20.45347     162.3805        15     1.023     0.837  56.14   0
       379    127.2282     31.6438 300.1998066 +22.4152472     589.6779     72.51499      1.615     2.74     4.360744     20.45347     68.43854         8     0.944     0.559 -20.62   0
       380    458.0068     29.4339 300.3033691 +22.5136941     821.7379     72.49653      1.331     2.44     4.701439     20.45347     130.7683        14     1.162     0.722  88.38   0
       381    840.4686     28.6672 300.4227176 +22.6279550     516.9787      72.5519      1.454     3.63     4.921832     20.45347     58.14488        10     0.975     0.837 -87.43   0
       382    618.4988    960.6771 300.0509645 +22.8292338       1536.5      72.6441      1.790     4.05     2.620032     20.45347     111.8189        26     1.304     1.193   7.87   0
       383    797.5698     20.4053 300.4120262 +22.6127421     678.4056     72.49653      1.171     2.34     4.968449     20.45347     102.7008         9     0.797     0.706  -7.50   0
       384     21.6206     19.4431 300.1709551 +22.3800962     432.7324     72.53345      1.696     5.38     5.132794     20.45347     51.70459         9     1.484     0.779 -27.48   0
       385    498.1678     17.9816 300.3195771 +22.5224273     1269.592     72.47806      0.519     1.24     4.690182     20.45347     803.2916         6     0.545     0.278   5.23   0
       386    555.2196     17.5970 300.3374584 +22.5393978     335.0238     72.42262      1.223     3.45     4.669064     20.45347     31.88108         5     0.784     0.439 -19.72   0
       387    289.2809   1016.5032 299.9303876 +22.7464644     1332.515     72.62567      2.724    12.75     70.09478     20.45347     58.33712        34     2.817     1.605  16.83  17
       388    545.0310   1016.7463 300.0098548 +22.8232813     388.1794     72.51499      1.877     4.71     2.174255     20.45347     28.87311         5     1.243     0.506  69.76  16
       389    413.6091   1014.3295 299.9697536 +22.7831552     572.1974     72.47806      2.237     7.22     2.925032     20.45347     36.76078        13     1.404     1.039  21.26   0
       390    512.3257    957.0455 300.0191007 +22.7963441     1112.606     72.47806      1.861     5.61     2.684087     20.45347     84.60695        25     1.602     1.163  41.25   0
       391    605.1077   1007.5232 300.0315546 +22.8386578     2305.814      72.6441      1.862     4.03     2.237053     20.45347     167.0822        31     1.404     1.314  52.49   0
