#   1 NUMBER                 Running object number                                     
#   2 X_IMAGE                Object position along x                                    [pixel]
#   3 Y_IMAGE                Object position along y                                    [pixel]
#   4 ALPHA_J2000            Right ascension of barycenter (J2000)                      [deg]
#   5 DELTA_J2000            Declination of barycenter (J2000)                          [deg]
#   6 FLUX_APER              Flux vector within fixed circular aperture(s)              [count]
#   7 FLUXERR_APER           RMS error vector for aperture flux(es)                     [count]
#   8 FLUX_RADIUS            Fraction-of-light radii                                    [pixel]
#   9 FWHM_IMAGE             FWHM assuming a gaussian core                              [pixel]
#  10 BACKGROUND             Background at centroid position                            [count]
#  11 THRESHOLD              Detection threshold above background                       [count]
#  12 FLUX_MAX               Peak flux above background                                 [count]
#  13 ISOAREA_IMAGE          Isophotal area above Analysis threshold                    [pixel**2]
#  14 A_IMAGE                Profile RMS along major axis                               [pixel]
#  15 B_IMAGE                Profile RMS along minor axis                               [pixel]
#  16 THETA_IMAGE            Position angle (CCW/x)                                     [deg]
#  17 FLAGS                  Extraction flags                                          
         1    794.9081     15.2774 300.4125627 +22.6084440     945.2955     72.74251      1.343     2.76     4.759789     20.48118      129.123        14     1.011     0.826  60.82   0
         2    349.6330     15.0300 300.2740525 +22.4750248     1176.666     72.61322      1.431     2.57     4.963258     20.48118     158.8316        15     0.970     0.872  74.68   0
         3    576.3646     12.3755 300.3454488 +22.5421767     341.1927     72.61322      1.445     4.52     4.667199     20.48118     33.11929         7     0.899     0.645 -71.05   0
         4    833.0409     10.2316 300.4260791 +22.6184069     781.1848     72.65018      1.677     4.39     4.665627     20.48118     76.86747        17     1.298     1.057  88.57   0
         5    756.1565     10.2545 300.4021186 +22.5953992     573.3077     72.59473      1.266     2.30      5.08205     20.48118     82.30947         8     0.760     0.666 -67.89   0
         6    852.8128      6.4003 300.4334818 +22.6232228     2313.258     72.40958      1.530     2.97     4.637898     20.48118     276.5274        25     1.300     1.032 -87.89  16
         7    558.4720      4.8580 300.3423160 +22.5346575     520.5851     71.66423      1.366     3.70     4.481968     20.48118     63.31867        10     0.923     0.829 -24.62  16
         8    235.9305      2.0246 300.2429201 +22.4372193      935.324     60.42469      1.375     2.87     4.976802     20.48118     127.0065        14     1.108     0.814   0.93  24
         9    207.2754    975.2742 299.9180106 +22.7078652     1537.675     72.68713      4.862    13.61     45.83876     20.48118     53.19659        49     3.061     1.683  38.99   0
        10    263.5286   1021.2166 299.9205413 +22.7379242     1687.347     68.32738      6.950    22.17     74.79964     20.48118     54.46993        82     5.939     2.299  -5.40  27
        11    262.6487   1005.2779 299.9254544 +22.7330920     3656.423     72.59473      6.742    21.91     63.65038     20.48118     74.09342       213     4.586     4.016 -40.07  19
        12    300.7765    993.0793 299.9412734 +22.7410441     7475.361     72.55774      8.043    28.21     43.37191     20.48118     188.8328       631     9.610     4.606  61.64  18
        13    234.8671   1017.8817 299.9127201 +22.7283615     3276.851     72.70559      5.647    21.83     75.70181     20.48118     74.31956       164     4.878     3.297  21.33  19
        14    235.7088   1010.8826 299.9152591 +22.7266085     2066.756     72.72405      5.230    13.80     70.77351     20.48118     60.56525        49     2.840     1.866 -48.57  19
        15    199.8978   1023.6661 299.8999728 +22.7195172     160.7622      56.5696      1.473     3.20     76.50376     20.48118     42.19884         5     0.732     0.493  10.97  27
        16    196.9150   1022.4745 299.8994338 +22.7182800     252.0598      62.9489      1.488     4.55     74.71851     20.48118     37.21679         5     1.117     0.527  73.47  27
        17    193.5483   1023.6805 299.8979954 +22.7176144     393.1478     56.42704      1.758     4.17     75.46262     20.48118     53.67469         6     1.069     0.465  -2.30  25
        18    139.1016    936.2900 299.9095149 +22.6762204     3623.011      72.7794     15.553    49.67     15.43491     20.48118     79.69343       840    10.719     6.596 -33.33   3
        19    142.2333   1014.7197 299.8849711 +22.6996346     5287.807     72.55774     12.820    46.50     51.95506     20.48118     120.8878      1041    11.460     7.832   9.84  27
        20    695.7456   1005.7645 300.0600162 +22.8632258     8484.908     72.61322      1.938     4.69     3.229373     20.48118     502.8008        47     1.540     1.449   8.02   3
        21    714.1584    972.9579 300.0764247 +22.8593378     6810.854     72.70559      1.879     4.06     3.148835     20.48118     427.7798        46     1.535     1.383  38.50   0
        22    701.4272   1003.5621 300.0625019 +22.8642985     9063.449     72.61322      1.929     4.37     3.213235     20.48118     508.3567        48     1.509     1.443  46.91   3
        23    594.5708    967.2128 300.0410659 +22.8218107     423.9933     72.59473      1.890     3.92     3.148779     20.48118     37.00383         5     1.029     0.428 -74.56   0
        24    305.9276    966.9881 299.9513636 +22.7351117    -261.1313     72.61322      1.109     3.13      25.9346     20.48118     38.61415         5     0.626     0.598 -88.58   0
        25    227.9475    965.4962 299.9276147 +22.7112703     494.3902     72.66866      2.341     4.06     40.12197     20.48118     39.11919         5     1.062     0.444  60.52   0
        26    622.6490    963.6628 300.0509600 +22.8292172     1625.107     72.65018      1.880     4.39     3.156494     20.48118     102.8393        28     1.457     1.237 -33.01   0
        27    516.5215    960.0179 300.0191201 +22.7963262     928.9358     72.59473      1.672     5.51     3.049005     20.48118     71.44122        15     1.136     0.961  59.36   0
        28    447.0591    958.1308 299.9981265 +22.7749380       6586.6     72.61322      1.822     3.80     3.143833     20.48118     533.5624        46     1.447     1.414  86.71   0
        29    796.6087   1006.6422 300.0911422 +22.8937354     664.7286     72.61322      1.952     5.10     3.127373     20.48118     56.57866        13     1.390     0.864  49.21   0
        30    230.2560    999.9765 299.9171135 +22.7218455     1096.271     72.61322      3.540    11.16     63.87191     20.48118     50.61223        16     2.292     1.513 -25.87   3
        31    479.8560    944.7174 300.0126916 +22.7809347     579.6694     72.65018      1.993     4.42     2.950904     20.48118     45.81325         9     0.992     0.719 -41.91   0
        32    229.3466    995.0557 299.9184321 +22.7201621     1651.663     72.63171      5.065    11.80     60.55737     20.48118     53.51386        32     2.841     1.365  43.68   3
        33    993.1887    936.8691 300.1751065 +22.9326587     2134.535     72.61322      1.964     4.91     3.608924     20.48118     113.3031        32     1.494     1.346 -11.56   0
        34    559.9453    995.5115 300.0210825 +22.8195369     348.0656     72.63171      1.784     5.43     3.171835     20.48118     45.12033         6     1.526     0.545 -32.25   0
        35    782.5823    925.7206 300.1131029 +22.8663073     623.7482     72.59473      2.096     5.57     2.999264     20.48118     41.13446        11     1.053     0.847  10.46   0
        36    595.2418    921.7344 300.0560703 +22.8089665     298.0466     72.57624      1.338     3.57     3.108076     20.48118     38.46519         5     0.834     0.624 -51.39   0
        37    817.0124    919.9045 300.1257203 +22.8749638     1016.861     72.52073      1.729     4.10     3.009445     20.48118      69.7007        23     1.218     1.203  42.21   0
        38    281.3112   1004.3423 299.9315587 +22.7384277     4829.114     72.66866      8.872    27.18     60.94584     20.48118     96.09123       385     6.440     4.867 -49.79  19
        39    839.3157    913.6685 300.1346974 +22.8798624     11235.49     72.70559      1.834     3.95      3.11537     20.48118     702.2084        58     1.496     1.440 -61.02   0
        40    884.6406    914.1339 300.1486688 +22.8935871     483.0742     72.55774      1.765     5.44     3.286097     20.48118     33.30296         8     1.046     0.798 -43.17   0
        41     45.3073    992.2212 299.8621928 +22.6640744     296.6076     72.52073      1.482     3.41     6.755719     20.48118     40.70685         5     0.755     0.445  78.36   0
        42    152.0512    904.9819 299.9237207 +22.6711367     702.2015     72.57624      2.987     5.46      11.0513     20.48118     41.22035         9     1.331     0.631  58.68   0
        43    544.1801    901.6700 300.0467069 +22.7878905     477.4225     72.59473      1.580     4.59     3.080911     20.48118     42.01345        10     1.006     0.841 -57.75   0
        44    253.8161    898.7892 299.9573524 +22.6999166     539.0882     72.53924      2.782     3.51     8.535277     20.48118     26.24395         5     1.027     0.346 -45.48   0
        45    890.7087    901.3840 300.1547074 +22.8917467     418.7486     72.52073      1.780     5.86      3.41691     20.48118     31.63708         9     1.083     0.892 -39.95   0
        46    847.9243    896.0050 300.1431254 +22.8773738     1487.399     72.50222      1.803     4.02     3.266767     20.48118     96.18909        22     1.231     1.133  30.13   0
        47    563.6376    894.1813 300.0551974 +22.7915804     149.1744     72.59473      1.289     4.83     3.069145     20.48118     30.15647         5     1.067     0.618 -26.26   0
        48    886.0551    889.3836 300.1571608 +22.8869064     819.7836     72.55774      1.860     6.35     3.511369     20.48118     56.15528        14     1.147     0.989   6.52   0
        49    255.2252    883.4095 299.9627923 +22.6959307     580.9966     72.59473      4.146     3.74     6.868024     20.48118     24.57611         5     1.570     0.256  41.39   0
        50    934.2209    880.7682 300.1749745 +22.8988738     551.4985     72.59473      1.618     6.31     3.699792     20.48118     44.44253        12     1.409     0.845 -10.51   0
        51    388.9282    880.1429 300.0054171 +22.7351273     330.5223     72.63171      1.926     4.73     3.799028     20.48118     33.73834         5     1.406     0.451 -71.83   0
        52    785.6979    879.7432 300.1290294 +22.8540463     729.8408     72.68713      1.807     4.72     2.888748     20.48118      64.1581        15     1.131     1.036   2.03   0
        53    498.2998    875.8591 300.0408274 +22.7667204     4028.212     72.68713      1.661     3.39     2.983276     20.48118     371.6559        33     1.265     1.229  76.40   0
        54    797.2274    876.7057 300.1336088 +22.8566320      594.371     72.50222      1.594     5.87     2.872377     20.48118     49.34354        12     1.102     0.880   3.14   0
        55    277.6914    864.6279 299.9758824 +22.6972904      419.292     72.57624      1.978     4.99     4.654989     20.48118      29.9071         7     1.045     0.674 -81.41   0
        56    988.8589    989.6960 300.1565677 +22.9465264     809.8756     72.66866      2.005     7.45     2.549961     20.48118     41.10887        16     1.579     0.983  62.93   0
        57    223.6714    861.5402 299.9600993 +22.6801885     758.9514     72.63171      1.745     3.73      5.58681     20.48118     70.54887        12     1.109     0.837 -57.05   0
        58    132.0982    859.6114 299.9322784 +22.6521417     276.1426      72.4837      1.684     5.80     4.695096     20.48118     31.98553         7     1.268     0.747  45.50   0
        59    200.6290    858.3320 299.9539832 +22.6723510     1402.519     72.57624      1.765     4.00     5.469441     20.48118       117.17        24     1.298     1.198   3.28   0
        60    731.6519    847.0641 300.1228249 +22.8284592     523.2364     72.65018      2.017     6.53     2.983168     20.48118     33.72707        11     1.587     0.755 -57.96   0
        61     75.7143    848.2735 299.9184547 +22.6319613     445.3669     72.72405      2.316     5.96     3.619313     20.48118     45.03285         8     1.335     0.779 -52.31   0
        62    810.2184    840.0887 300.1495645 +22.8500170     673.3506     72.53924      1.504     3.98     3.131082     20.48118      59.5229        13     1.157     0.866  12.05   0
        63    233.5291    840.0815 299.9701403 +22.6769959     413.7574     72.70559      1.418     2.48     4.933414     20.48118     54.81587         6     0.773     0.720  86.81   0
        64    678.3472    833.9893 300.1104786 +22.8087202     4874.175     72.59473      1.595     3.13     3.108109     20.48118     448.8399        37     1.296     1.237  59.56   0
        65    168.4169    834.7104 299.9516569 +22.6559087      338.293     72.52073      1.209     2.97     4.827299     20.48118     43.90474         5     0.702     0.482 -78.44   0
        66    480.5061    831.2568 300.0497968 +22.7485874     664.0618     72.65018      1.860     4.47     2.992233     20.48118     53.77349        13     1.130     0.819  41.29   0
        67    228.5237    827.6608 299.9726237 +22.6719323     1353.674     72.65018      1.666     3.65     4.706379     20.48118     122.0002        21     1.251     1.072 -55.35   0
        68    698.8971    826.2823 300.1193832 +22.8126717     808.8754     72.76096      1.641     3.77     3.114337     20.48118     69.35193        12     1.047     0.864  85.65   0
        69    496.7585    825.7230 300.0566521 +22.7518762     210.9547     72.55774      1.309     4.99      3.00376     20.48118     31.57298         6     0.914     0.772  77.13   0
        70    248.0513    824.2743 299.9797929 +22.6768233      420.575     72.61322      1.557     4.49     4.478809     20.48118     47.18943         7     0.870     0.660  54.67   0
        71    615.7762    816.5801 300.0966610 +22.7849571     521.5226     72.59473      1.806     6.29     3.040028     20.48118     34.48203        10     1.255     0.885  88.92   0
        72    854.3304    813.6430 300.1719078 +22.8556509     4246.151     72.55774      1.712     3.79     3.620351     20.48118     314.3764        39     1.368     1.291  61.21   0
        73    262.9141    807.3713 299.9899076 +22.6764380     356.5685     72.59473      1.345     3.85     4.139634     20.48118     51.63894         7     0.868     0.587  33.00   0
        74    571.4684    805.9128 300.0863395 +22.7686057     698.1129     72.72405      1.689     4.76      3.02499     20.48118     66.53668        13     1.135     0.920  70.86   0
        75    217.9507    803.9958 299.9770327 +22.6619736     1065.086     72.57624      1.725     3.79     4.122283     20.48118     86.50116        21     1.290     1.044 -71.31   0
        76    632.7933    799.7125 300.1074425 +22.7852209     562.3915     72.50222      1.506     3.15     3.100587     20.48118     68.40198         9     0.887     0.785  -8.27   0
        77    367.3688    796.1870 300.0260138 +22.7045798     53916.62     72.57624      1.625     3.14     3.842601     20.48118     5186.318        92     1.454     1.394  35.25   0
        78    625.2701    795.3509 300.1065188 +22.7817128     1628.809     72.59473      1.561     3.69     3.114079     20.48118     149.9395        21     1.214     1.067 -31.21   0
        79    341.6519    794.2657 300.0186429 +22.6963114     281.4825     72.63171      1.147     3.26     3.915097     20.48118     35.85389         5     0.744     0.443 -73.05   0
        80    295.6850    794.6721 300.0042216 +22.6826325     440.1893     72.70559      1.407     3.20     4.033158     20.48118     56.59754         5     0.899     0.450  -9.95   0
        81    654.2863    791.3858 300.1168406 +22.7892774     837.7691     72.53924      1.521     3.49     3.213006     20.48118     75.96015        16     1.098     0.993  89.24   0
        82     20.7286    791.5182 299.9198350 +22.5991840     790.6059     72.72405      1.843     4.37     3.274685     20.48118      63.2474        15     1.294     1.032 -36.45   0
        83     53.5305    790.6537 299.9303002 +22.6087860     776.9753     72.63171      2.038     4.93     3.474117     20.48118     81.30856        16     1.558     1.003  34.92   0
        84    665.0448    789.5327 300.1207925 +22.7919722     646.9149     72.59473      1.512     4.11     3.245011     20.48118     64.85279        12     1.128     0.844  65.63   0
        85    770.5540    786.0824 300.1547701 +22.8226209     400.4333     72.55774      1.353     3.30      3.33157     20.48118     48.93927        10     0.987     0.675 -26.32   0
        86    808.2701    776.2838 300.1697045 +22.8311160     832.2814     72.72405      1.594     3.70     3.437299     20.48118     75.34924        18     1.193     1.007  51.77   0
        87    417.1093    773.4278 300.0488801 +22.7129772     31250.92     72.57624      1.587     3.00     3.558946     20.48118     2962.329        77     1.417     1.354  60.07   0
        88    431.3831    773.8849 300.0531707 +22.7173910     1994.305     72.55774      1.497     3.01     3.476767     20.48118      212.858        21     1.162     1.014  85.28   0
        89    940.3093    769.4316 300.2130780 +22.8687292      2673.33     72.53924      1.711     3.58      3.88095     20.48118      213.644        29     1.287     1.193 -41.96   0
        90    428.2026    768.1891 300.0540332 +22.7148028     614.4645     72.40958      1.473     2.94     3.473952     20.48118     56.84277         8     0.863     0.634  -5.89   0
        91    698.1505    765.6558 300.1388627 +22.7950471     1001.393     72.63171      1.567     3.40     3.378601     20.48118     86.66263        15     1.011     0.982  34.31   0
        92    534.5444    765.6235 300.0879482 +22.7459693     569.3331     72.63171      1.932     5.30      3.28744     20.48118     42.88873         9     1.292     0.615  32.46   0
        93    299.4115    765.2671 300.0149392 +22.6753183     854.8845     72.59473      1.646     4.05     4.025459     20.48118     87.04603        16     1.195     1.007  41.90   0
        94    545.0836    760.2253 300.0929825 +22.7475818     869.5787     72.57624      1.528     3.86      3.34995     20.48118     87.02107        16     1.217     0.925 -83.26   0
        95    104.9160    761.1114 299.9558602 +22.6157462      509.096     72.72405      1.553     2.90     3.757641     20.48118     53.77448         6     0.785     0.633  -9.37   0
        96    946.1654    757.1771 300.2188874 +22.8669650     512.1842     72.61322      1.728     4.31     3.893811     20.48118     50.23644        10     1.052     0.779  -6.53   0
        97    447.4847    756.5757 300.0638056 +22.7172563     339.5931     72.55774      1.294     3.04     3.370049     20.48118     45.19455         6     0.888     0.422  69.93   0
        98    403.0597    755.8478 300.0502258 +22.7037188     463.5269     72.65018      1.796     5.49      3.55817     20.48118     46.21378        11     1.175     1.057 -89.17   0
        99    491.0371    755.2121 300.0777965 +22.7299309     522.0367     72.57624      1.657     3.80      3.28505     20.48118     42.97365         8     0.949     0.616  63.33   0
       100    133.2562    754.9879 299.9666528 +22.6224987     494.3582     72.59473      1.415     2.14     3.815283     20.48118     62.08281         7     0.690     0.650  70.23   0
       101    924.0203    751.4250 300.2138547 +22.8586758     448.5569     72.59473      1.626     4.74     3.861308     20.48118     46.93512         8     1.010     0.631 -74.38   0
       102    297.3771    749.2975 300.0194979 +22.6701279     594.7574     72.52073      1.837     4.12     4.030592     20.48118     58.79234        10     1.330     0.728  32.02   0
       103    620.6118    739.7368 300.1231486 +22.7643552     517.5666     72.57624      1.563     4.26     3.510078     20.48118     57.38022        13     1.158     0.881 -23.64   0
       104    590.1054    738.3957 300.1140894 +22.7548212     711.8702     72.50222      1.681     3.24     3.524318     20.48118      65.3747        12     0.989     0.795 -80.36   0
       105    612.0594    735.7394 300.1217859 +22.7606431      1471.12     72.65018      1.598     3.27     3.541812     20.48118      131.474        22     1.179     1.080  11.53   0
       106    499.4085    737.2534 300.0862385 +22.7272894     260.8832     72.59473      1.121     3.48     3.410061     20.48118     31.80077         5     0.771     0.453  72.27   0
       107   1006.6061    734.7719 300.2450139 +22.8786429     4341.108     72.59473      1.673     3.44     3.963933     20.48118     337.4765        34     1.286     1.270 -45.25   0
       108    531.9752    735.5893 300.0969119 +22.7365806     303.1502     72.59473      1.590     7.87      3.50659     20.48118      69.2268        10     1.666     1.040  12.09   0
       109    692.9628    730.2598 300.1487537 +22.7833312     388.6148     72.61322      1.444     3.70     3.570144     20.48118     46.24667         8     0.905     0.724  75.27   0
       110    995.0233    726.0144 300.2442492 +22.8726564     1589.198     72.59473      1.671     3.98     3.922925     20.48118     128.2143        25     1.346     1.147 -85.80   0
       111    358.0355    719.9039 300.0479088 +22.6798989     676.8757     72.59473      1.317     3.48      3.86809     20.48118     88.09679        12     1.032     0.791 -88.08   0
       112    821.5693    717.4127 300.1929854 +22.8181999     2545.375     72.59473      1.661     3.26     3.575259     20.48118     230.6601        29     1.447     1.064   9.57   0
       113     44.3946    707.5410 299.9544777 +22.5822196     997.5089     72.55774      1.967     4.87      3.42483     20.48118     81.85647        12     1.328     0.688 -39.82   2
       114    904.0718    703.6852 300.2231555 +22.8389864     638.5659     72.70559      1.637     5.76      3.80553     20.48118     54.56314        12     1.160     0.807 -22.11   0
       115    206.5599    703.7756 300.0060699 +22.6298177     577.1872     72.63171      1.536     3.43      4.07736     20.48118      69.3469        14     1.001     0.937  45.11   0
       116    486.7475    702.6667 300.0935411 +22.7135673     303.0595     72.61322      1.566     3.82     3.646914     20.48118     30.45773         5     0.990     0.424 -83.92   0
       117    939.9112    694.3492 300.2373605 +22.8470456     147437.1     72.59473      1.613     3.14     3.871746     20.48118     12968.86       157     1.523     1.480 -84.07   0
       118    702.3339    698.4542 300.1620093 +22.7770107     477.7395     72.65018      1.736     4.40     3.737035     20.48118     41.67304         8     0.877     0.727 -75.40   0
       119    792.2332    694.6940 300.1912304 +22.8028824     848.7997     72.55774      2.106     3.15     3.536438     20.48118     71.73024        13     0.994     0.869  40.95   0
       120    103.4873    693.6302 299.9773483 +22.5959712      193.445     72.57624      1.124     3.99     3.852786     20.48118     31.05677         6     0.947     0.481  -2.52   0
       121    972.7057    687.2932 300.2498769 +22.8548461     480.1127     72.76096      1.560     5.10     3.827268     20.48118     45.44622         9     0.931     0.791  20.19   0
       122    626.2803    683.1226 300.1433137 +22.7498054     1615.328     72.70559      1.346     2.59     4.048913     20.48118     187.4911        19     1.018     0.972 -49.93   0
       123    807.3727    680.4755 300.2005677 +22.8033378     9539.339     72.57624      1.516     2.77      3.56108     20.48118     936.6205        46     1.288     1.255 -58.64   0
       124    289.1497    681.9261 300.0388365 +22.6483359     232.7913     72.59473      1.477     5.05     4.063193     20.48118     31.47886         7     1.037     0.695 -32.18   0
       125    308.8257    675.4597 300.0470538 +22.6523849     5005.802     72.59473      1.527     2.86     4.023829     20.48118     516.7305        35     1.220     1.182 -63.71   0
       126     22.4427    673.7858 299.9586310 +22.5659527     1757.847     72.61322      1.833     4.34     3.258906     20.48118     150.6894        25     1.430     1.210  59.85   0
       127    390.8414    673.5484 300.0731743 +22.6764430     1112.508     72.59473      1.446     3.18     3.885571     20.48118     125.3291        16     1.079     0.934  24.36   0
       128    266.7230    671.4458 300.0352716 +22.6386003     396.8115     72.57624      1.616     3.11     4.126263     20.48118     60.14353         6     0.885     0.660 -31.06   0
       129    599.2845    669.1515 300.1394511 +22.7377001     799.5878     72.57624      1.443     2.73     4.148065     20.48118     100.8629        13     0.943     0.847  51.32   0
       130    590.8736    661.2248 300.1394090 +22.7329027     3179.776     72.63171      1.388     2.59     4.160034     20.48118     374.3922        27     1.142     1.057  45.90   0
       131    581.0383    654.9800 300.1383772 +22.7281609     1420.199     72.61322      1.388     2.84     4.167518     20.48118     166.9681        18     1.069     0.918  32.91   0
       132    777.0741    653.9781 300.1997401 +22.7866468     281.4596     72.59473      1.494     4.83     3.650186     20.48118     31.22222         7     1.009     0.656  27.44   0
       133    974.8903    653.1947 300.2616394 +22.8457052     317.1869     72.50222      1.294     3.39     3.793581     20.48118     40.32128         6     0.731     0.575 -30.33   0
       134    244.5147    651.2507 300.0349317 +22.6261438     589.7049     72.57624      1.501     3.07     4.114795     20.48118     63.64361        10     0.934     0.707   2.24   0
       135    258.5647    649.3663 300.0399103 +22.6298192     585.4718     72.65018      1.438     3.28     4.087409     20.48118     85.14194        13     1.119     0.832  77.13   0
       136    315.3012    646.5787 300.0584511 +22.6460429     394.7432     72.52073      1.729     2.73     3.999231     20.48118     45.64383         6     0.860     0.648  78.51   0
       137    505.8070    644.6960 300.1183088 +22.7026481     1781.771      72.4837      1.452     2.51     4.050989     20.48118     229.9731        21     1.096     1.011 -44.84   0
       138    284.2874    645.8956 300.0490327 +22.6365418     550.1008      72.7794      1.471     4.02     4.048227     20.48118     66.33529        12     1.106     0.846  58.96   0
       139    605.1142    645.1149 300.1490761 +22.7325485     408.7951     72.72405      1.257     3.97     4.195858     20.48118     50.46412         9     0.812     0.769 -54.70   0
       140    539.9667    643.9792 300.1291703 +22.7126869     269.8178     72.59473      1.299     1.97     4.159316     20.48118     44.59846         5     0.598     0.565  -1.04   0
       141    159.8308    639.5540 300.0124199 +22.5973763     19520.83     72.65018      1.615     3.03      4.25004     20.48118      1970.99        63     1.402     1.365  59.28   0
       142     80.8102    641.5707 299.9872211 +22.5742377     646.5421     72.59473      1.687     4.44     3.738275     20.48118     56.84333        15     1.192     0.947 -30.09   0
       143    590.6310    640.0305 300.1462203 +22.7267462     1001.305     72.59473      1.396     2.66          4.2     20.48118     143.5009        16     1.115     0.870  22.99   0
       144    626.0746    639.5350 300.1574135 +22.7372315     344.5957     72.63171      1.198     3.76     4.206823     20.48118     47.61767         6     0.833     0.489  -8.56   0
       145    961.3340    635.6567 300.2631121 +22.8366050     321.6132     72.65018      1.776     5.72     3.819156     20.48118     29.02254         6     1.172     0.787 -33.22   0
       146   1008.8775    626.4091 300.2809398 +22.8481925     1089.999     72.55774      1.687     4.40     3.730294     20.48118     90.53394        17     1.219     1.011 -14.80   0
       147    674.2860    627.8231 300.1762281 +22.7483237     238.6937     72.53924      1.504     4.96     4.222396     20.48118     31.81433         6     1.086     0.640   4.66   0
       148    106.0130    623.8256 300.0008131 +22.5767140     1556.294     72.59473      1.983     4.64     3.917933     20.48118     114.6604        26     1.608     1.031 -76.89   0
       149    875.6084    624.5314 300.2400076 +22.8077216     565.4639     72.57624      1.456     3.27     3.833822     20.48118     64.27126        10     1.017     0.691  61.66   0
       150    171.5507    624.0535 300.0210966 +22.5964481     491.8782     72.63171      1.806     5.19     4.213973     20.48118     49.76153         7     1.044     0.730  -7.14   0
       151    948.3337    619.1884 300.2644104 +22.8279787     956.5963     72.55774      2.006     7.22     3.842268     20.48118     66.63977        18     1.931     0.762   1.99   0
       152    554.2329    620.6570 300.1411872 +22.7102708      364.074     72.61322      1.327     2.75     4.222809     20.48118     52.99034         5     0.744     0.431 -19.19   0
       153    346.8645    619.7883 300.0769677 +22.6478261     328.8648     72.53924      1.466     4.52     3.943284     20.48118      37.5057         6     0.902     0.643 -63.95   0
       154    510.8255    613.0302 300.1301584 +22.6950649      694.743     72.59473      1.339     2.76     4.164485     20.48118     96.24223        11     0.938     0.747 -89.48   0
       155    658.8577    611.5674 300.1767060 +22.7390311     511.7583     72.61322      1.232     2.58     4.259626     20.48118     70.16821         8     0.740     0.706 -54.23   0
       156    573.0063    611.0297 300.1501573 +22.7131366     2054.038     72.59473      0.438     1.85     4.248868     20.48118     1570.911         6     0.349     0.311  37.20   0
       157    706.0706    610.0311 300.1919056 +22.7527435     538.5039     72.59473      1.326     2.68     4.058875     20.48118     60.78196         9     0.778     0.741  15.06   0
       158    676.6730    609.9052 300.1827928 +22.7438947     491.1023     72.74251      1.392     3.01     4.238607     20.48118     70.54535        10     0.979     0.728  -5.08   0
       159    555.2574    608.6712 300.1454000 +22.7071375     936.9431     72.61322      1.571     3.00     4.246423     20.48118      92.9712        14     1.002     0.874  37.63   0
       160    988.8400    604.3986 300.2818436 +22.8358654     3353.174     72.61322      1.562     2.95     3.779676     20.48118     322.2416        36     1.345     1.196  60.64   0
       161    520.6038    604.2463 300.1360544 +22.6954760     1730.219     72.57624      1.401     2.52      4.18862     20.48118     217.3973        18     0.977     0.956 -66.45   0
       162    886.3572    601.8681 300.2507206 +22.8044326     343.9823     72.57624      1.390     4.10     3.876252     20.48118     41.44818         7     0.905     0.571  -8.81   0
       163     82.5685    597.7879 300.0019904 +22.5622110     4999.443     72.59473      1.630     3.10     3.799996     20.48118     551.8185        37     1.327     1.273  64.56   0
       164    549.9640    595.3951 300.1480657 +22.7017394     217.3866     72.61322      1.216     4.14     4.244676     20.48118     41.59676         5     0.767     0.638 -83.02   0
       165    384.0079    590.9424 300.0978877 +22.6506911     8951.293     72.57624      1.423     2.71     3.902565     20.48118      1054.46        39     1.200     1.134  63.63   0
       166    506.4573    587.9885 300.1369343 +22.6865673     9010.556     72.55774      1.389     2.47     4.115294     20.48118     1128.406        42     1.223     1.114  47.45   0
       167   1002.8583    579.4694 300.2943133 +22.8329019     12328.19     72.61322      1.581     2.92     3.834981     20.48118     1231.198        51     1.354     1.266  82.49   0
       168    918.2753    582.0002 300.2671228 +22.8082887     1905.763     72.46518      1.503     3.04     3.876252     20.48118     177.7452        24     1.264     1.039 -86.03   0
       169    431.6655    581.3342 300.1158300 +22.6622279     742.5874     72.65018      0.815     3.21     3.905317     20.48118     315.2265         6     0.712     0.420  21.90   0
       170    567.0420    577.5927 300.1591634 +22.7017496      11276.4     72.61322      1.358     2.52     4.250614     20.48118     1469.398        41     1.186     1.094  58.39   0
       171    294.5053    573.0491 300.0758736 +22.6187089     1379.875     72.65018      1.470     2.70     3.963145     20.48118     172.3401        19     1.068     1.029 -71.56   0
       172    736.5978    573.3780 300.2133195 +22.7513685     518.2241     72.53924      1.227     3.12     3.939981     20.48118     61.56355        10     0.852     0.819 -30.93   0
       173    452.4846    572.0501 300.1253212 +22.6658071     143.5834     72.57624      1.087     3.55     3.924512     20.48118     32.62712         6     0.785     0.496 -83.89   0
       174    541.3771    570.7002 300.1534155 +22.6920757     384.2019     72.53924      1.198     3.79     4.225547     20.48118     71.83877         8     0.947     0.725  29.37   0
       175    841.5604    565.9180 300.2484400 +22.7806820     783.8754     72.55774      1.362     2.83     3.876252     20.48118     117.9181        13     1.078     0.789  51.41   0
       176    498.7794    565.6999 300.1417856 +22.6778673     4445.124     72.52073      1.358     2.44     4.028515     20.48118     631.3606        30     1.138     1.042  79.40   0
       177    477.1114    564.1744 300.1355401 +22.6709318     1126.903     72.53924      1.288     2.73     3.932232     20.48118     149.7546        18     1.117     0.942  79.73   0
       178    231.4082    563.5583 300.0593458 +22.5970566     663.0141     72.61322      1.282     3.07     3.937454     20.48118     105.2097        13     0.983     0.932 -17.15   0
       179    918.5433    561.4590 300.2738790 +22.8024675     1606.386     72.66866      1.610     3.03     3.876252     20.48118     149.4845        21     1.151     1.068  25.39   0
       180    615.3753    553.3210 300.1820907 +22.7092719     199995.6     72.57624      1.369     2.41     4.265283     20.48118     22603.39       198     1.439     1.416   5.40   0
       181    165.2384    561.5090 300.0394519 +22.5766151     347.7118     72.57624      1.544     3.20      4.18024     20.48118     39.00964         5     0.745     0.460  19.59   0
       182    439.2498    559.4401 300.1253005 +22.6582188     355.4641     72.63171      1.222     2.42     3.883044     20.48118     56.47835         7     0.805     0.597 -69.08   0
       183    799.0191    558.3147 300.2376558 +22.7657498     785.8428     72.52073      1.371     2.81     3.879133     20.48118     103.3715        13     0.974     0.850  74.92   0
       184   1003.5591    555.2089 300.3024127 +22.8261404     297.7057     72.59473      1.239     3.43      3.91016     20.48118     34.20522         5     0.756     0.450 -69.79   0
       185    301.4337    553.2802 300.0844481 +22.6151153     3352.879     72.53924      1.403     2.55     3.936827     20.48118     387.4388        26     1.090     1.078 -82.40   0
       186    383.9845    553.3332 300.1100964 +22.6398916     230.8324     72.57624      1.334     4.90     3.883425     20.48118     27.08214         6     1.046     0.650  52.89   0
       187    867.4932    549.2311 300.2619410 +22.7836590     639.1107     72.52073      1.839     4.40     3.876252     20.48118     49.64902        13     1.117     0.841   9.41   0
       188    506.0042    533.9782 300.1543363 +22.6709278     2884.644     72.55774      1.442     2.74     4.056204     20.48118     338.0458        31     1.539     0.991 -87.83   0
       189    350.3708    536.0754 300.1052495 +22.6248573     435.2589     72.61322      1.408     2.66     3.899325     20.48118     60.01208         9     0.848     0.731   9.84   0
       190    917.7379    530.3414 300.2837353 +22.7932856     543.1201     72.65018      1.836     5.33     3.889843     20.48118     42.17712         9     1.418     0.565  40.15   0
       191    736.8077    529.5054 300.2276350 +22.7388312     354.7306      72.4837      1.220     2.98       4.0433     20.48118     54.30687         5     0.738     0.449  22.00   0
       192    823.6865    522.1635 300.2570825 +22.7627570      477.134     72.57624      1.544     3.03     3.911963     20.48118     49.55772         7     0.849     0.557  54.08   0
       193    902.9584    519.9182 300.2825141 +22.7858629     1664.635     72.55774      1.459     2.66     3.900034     20.48118     211.4363        25     1.174     1.086 -37.43   0
       194    789.5912    520.2383 300.2470857 +22.7519874     348.7957     72.61322      1.680     3.29     3.948514     20.48118     34.30569         5     0.718     0.474 -76.11   0
       195    774.1995    517.4987 300.2431809 +22.7465881     2559.517     72.46518      1.349     2.49     3.994634     20.48118     308.7676        23     1.055     0.984  63.45   0
       196     33.2375    518.0329 300.0125746 +22.5245344     942.4297     72.63171      2.282     4.50     3.354969     20.48118      76.6911        17     1.421     1.015 -77.84   0
       197   1018.2844    514.9867 300.3200684 +22.8189920     330.9792     72.53924      1.390     3.03     3.943708     20.48118     53.75107         5     0.788     0.480  39.46  16
       198    678.7724    514.1700 300.2145430 +22.7170330     363.7642     72.59473      1.223     2.14     4.323156     20.48118     63.57418         7     0.696     0.634  86.94   0
       199    561.3741    513.3513 300.1782644 +22.6816068     695.8145     72.61322      1.262     2.59     4.280015     20.48118     101.1797        11     0.984     0.664  38.13   0
       200   1017.6110    510.7390 300.3212379 +22.8175695     730.7666     72.53924      1.549     5.02     3.942344     20.48118     68.27798        15     1.230     0.936  36.74  16
       201    903.2352    509.9645 300.2858330 +22.7830859     2269.989     72.66866      1.624     3.72     3.909547     20.48118     226.7514        26     1.516     0.997  73.44   0
       202    656.7498    508.0874 300.2096615 +22.7086854     609.8195     72.59473      1.364     2.84     4.338539     20.48118     68.61821        10     0.889     0.729  25.94   0
       203    941.4199    505.0017 300.2993467 +22.7930988     4202.931     72.52073      1.453     2.70     3.915094     20.48118     462.6435        33     1.229     1.114  80.26   0
       204    494.7392    506.4543 300.1597699 +22.6596488     384.3608     72.65018      1.529     5.22     4.141862     20.48118     45.83823        10     1.251     0.752  45.00   0
       205    656.7542    503.8269 300.2110465 +22.7074632     390.0222     72.61322      1.770     3.82     4.346459     20.48118     54.62086         5     1.167     0.543 -47.01   0
       206    602.3676    500.8666 300.1950773 +22.6903110     354.0587     72.59473      1.320     3.27     4.271159     20.48118      53.5808         9     0.938     0.707  58.19   0
       207    173.5052    495.1437 300.0635717 +22.5600579     971.7498     72.65018      1.572     3.20      4.06179     20.48118     103.4987        17     1.170     0.967 -70.05   0
       208    973.0924    493.0006 300.3131178 +22.7991373     243.9697     72.46518      1.117     3.12     3.928842     20.48118     41.72805         5     0.797     0.487 -25.94   0
       209    773.9142    479.2202 300.2555224 +22.7355068     332.0765     72.52073      1.147     3.39     4.083782     20.48118      57.8411         7     0.892     0.504 -45.97   0
       210    662.4835    477.4040 300.2214103 +22.7015919     361.0092     72.52073      1.384     4.47     4.394975     20.48118     54.15672         7     0.942     0.724  43.93   0
       211    382.8016    477.8339 300.1342461 +22.6178683     266.0778     72.55774      1.307     2.51     3.981686     20.48118     41.03073         6     0.720     0.561  34.97   0
       212    714.9120    475.2074 300.2384488 +22.7166735     630.5623     72.50222      1.281     2.62     4.271928     20.48118     92.17406         9     0.784     0.724  40.10   0
       213     74.9358    469.6743 300.0412241 +22.5231776      426.045     72.63171      1.612     4.46     3.664167     20.48118     37.46872         5     1.465     0.387 -10.80   0
       214    775.6499    467.5952 300.2598378 +22.7326873     830.7432     72.57624      1.361     2.31     4.080203     20.48118     140.1284        14     0.913     0.884  87.57   0
       215    932.8486    463.7857 300.3100588 +22.7786871     1020.021     72.61322      1.456     2.83      3.93377     20.48118     114.1828        14     1.058     0.804  61.02   0
       216    917.1743    460.4090 300.3062695 +22.7730216     687.5394     72.59473      1.395     3.36     3.936093     20.48118     77.80833        12     1.098     0.773 -26.04   0
       217    897.7711    460.4709 300.3002018 +22.7672272     326.4449     72.59473      1.267     3.44     3.939154     20.48118     39.33676         5     0.768     0.446 -21.03   0
       218    661.3990    458.2599 300.2272885 +22.6957685     3162.913     72.55774      1.287     2.32      4.34647     20.48118     374.4228        23     1.066     0.958  51.75   0
       219   1021.5856    457.3430 300.3398166 +22.8034127     453.6316     66.91801      1.452     2.78     3.934452     20.48118     57.28212         9     0.916     0.664  57.63  16
       220    137.6475    449.5636 300.0672305 +22.5362239     288.9643     72.63171      1.501     5.12     3.938528     20.48118     36.92635         9     0.990     0.749 -19.15   0
       221    501.2022    445.3550 300.1816191 +22.6440448      324.677     72.57624      1.187     2.46     4.205768     20.48118     52.06504         5     0.682     0.472   8.91   0
       222    944.6042    437.1374 300.3223755 +22.7745496     584.0321     72.57624      1.337     2.87     3.936398     20.48118     69.78139        11     0.950     0.735 -11.68   0
       223    771.9948    432.2381 300.2701786 +22.7214343     1070.538     72.61322      1.297     2.68     4.092852     20.48118     150.6934        15     1.006     0.823   9.28   0
       224    567.8402    432.5414 300.2065150 +22.6603410     425.6255     72.59473      1.178     2.47     4.264468     20.48118     62.30225         8     0.827     0.624  57.30   0
       225    275.9665    430.5115 300.1163949 +22.5722470     532.6098     72.55774      1.288     3.25     3.981861     20.48118     74.90155        10     0.971     0.680 -62.76   0
       226    338.3659    426.0330 300.1372466 +22.5896747     3678.558     72.66866      1.351     2.44     3.973723     20.48118     456.1686        27     1.124     1.015  53.77   0
       227    285.5683    420.8098 300.1225287 +22.5723423     7668.457     72.59473      1.424     2.51     3.984789     20.48118     1051.951        38     1.255     1.082  60.37   0
       228    663.8673    420.9626 300.2401656 +22.6857954     400.2662     72.57624      1.543     3.41     4.257185     20.48118     41.06759         5     0.792     0.506 -30.48   0
       229    426.3951    415.0574 300.1681836 +22.6129189     4888.156     72.55774      1.332     2.34     4.002871     20.48118     609.0422        30     1.146     1.012  68.29   0
       230    670.5362    411.8174 300.2452107 +22.6851670     18564.13     72.57624      1.307     2.28     4.261097     20.48118     2641.251        54     1.244     1.136  37.84   0
       231    517.9838    413.7690 300.1970943 +22.6400059     323.1657     72.57624      2.343     4.42     4.190621     20.48118     40.87944         6     1.085     0.513  50.40   0
       232    688.3606    411.6472 300.2508160 +22.6904593     876.3081     72.63171      1.910     6.36     4.222195     20.48118     69.87429        16     1.480     0.768 -50.21   0
       233    867.6874    402.3645 300.3096907 +22.7415177     315.9427     72.57624      1.107     3.89      3.91574     20.48118     49.56841         6     0.867     0.499  39.58   0
       234    742.2620    401.9730 300.2707424 +22.7038308     2694.285     72.59473      0.530     0.84     4.090384     20.48118     1782.588         6     0.440     0.354  -2.38   0
       235    290.6804    398.7252 300.1312862 +22.5675369     342.4088     72.70559      1.102     3.12     4.085186     20.48118     57.78905         7     1.003     0.466  60.65   0
       236   1003.9653    394.4412 300.3547432 +22.7800546     704.0932     72.65018      1.440     3.40     3.911454     20.48118     93.95216        12     1.053     0.925  64.47   0
       237    541.1722    393.5550 300.2108711 +22.6411517     484.8339     72.63171      1.448     2.05     4.243792     20.48118     64.90836         5     0.717     0.460  19.92   0
       238    225.2227    391.8997 300.1131572 +22.5459472     2134.135     72.53924      1.436     2.60     4.215421     20.48118      256.029        23     1.095     1.058 -76.79   0
       239    239.3394    387.4969 300.1189732 +22.5489174     362.4601     72.66866      2.025     4.76     4.223333     20.48118     29.90091         6     0.947     0.678  67.00   0
       240    881.2206    384.2071 300.3198020 +22.7403530     398.9944     72.57624      1.472     3.84     3.885477     20.48118     32.30347         5     0.892     0.473  44.61   0
       241    611.2231    381.2750 300.2366591 +22.6586195     6740.447     72.63171      1.292     2.29     4.253561     20.48118     859.3641        35     1.142     1.046  77.51   0
       242   1023.7864    381.7016 300.3650592 +22.7823274     432.5202     55.75698      0.969     2.53     3.897424     20.48118     115.9899         6     0.887     0.540 -82.54  24
       243    326.0092    380.6490 300.1481357 +22.5729422     731.3846     72.61322      1.378     2.46     4.093955     20.48118     90.69417        11     0.899     0.727  70.54   0
       244    183.4504    373.9341 300.1060080 +22.5282629     475.3419     72.63171      1.568     5.61     4.036741     20.48118     64.88996        11     1.478     0.803  76.82   0
       245    725.1413    371.6385 300.2752562 +22.6899860     313.6228     72.61322      0.983     2.09     4.146959     20.48118     86.86373         6     0.688     0.595  87.47   0
       246     30.9128    371.4870 300.0594245 +22.4818034     1321.853     72.72405      1.533     3.09     4.085678     20.48118     150.8167        19     1.127     1.056  41.81   0
       247    815.3219    370.2992 300.3037819 +22.7166172     1208.269     72.72405      1.493     2.78     3.937997     20.48118     119.2929        18     1.101     0.984  80.13   0
       248    517.8825    367.5162 300.2120753 +22.6266932     6142.999     72.72405      1.308     2.30     4.190621     20.48118       902.38        30     1.117     0.993  74.18   0
       249      1.4120    368.5613 300.0512147 +22.4721131     588.7126     56.99512      1.141     2.52     4.228472     20.48118     116.7179         9     1.015     0.579  87.89  24
       250    909.7706    362.1896 300.3358463 +22.7425756     1451.261     72.59473      1.451     2.71     3.863404     20.48118     176.1699        19     1.089     0.968 -80.04   0
       251   1007.1608    362.1870 300.3662088 +22.7717389     521.0762     72.59473      1.312     3.92      3.87404     20.48118     64.13071        10     1.038     0.797  55.20   0
       252    502.3669    355.9823 300.2109908 +22.6187304     538.6597     72.57624      1.319     2.63     4.153633     20.48118     79.17999         8     0.846     0.627  83.12   0
       253    585.2914    354.1779 300.2373818 +22.6430651     487.2435     72.52073      1.377     2.56      4.25298     20.48118     54.12305         9     0.868     0.642 -18.00   0
       254     29.3124    352.8118 300.0649878 +22.4759658     1192.463     72.53924      1.710     3.41     4.409271     20.48118     127.8513        22     1.278     1.127  26.34   0
       255    863.0847    353.0545 300.3242612 +22.7259676     217.9263     72.66866      1.341     3.60     3.823731     20.48118     36.98432         6     0.853     0.695  37.26   0
       256    565.8696    351.9293 300.2320668 +22.6365988     333.5343     72.66866      1.154     2.50      4.24915     20.48118     59.48101         5     0.915     0.359  31.06   0
       257    882.4640    349.4463 300.3314715 +22.7307347     579.8038     72.63171      1.401     2.93     3.825387     20.48118     76.39693        11     1.028     0.697  34.12   0
       258    405.4929    346.6769 300.1838761 +22.5870197     2558.211     72.74251      1.349     2.44     4.006994     20.48118     331.1429        23     1.119     0.958 -84.72   0
       259    123.7552    344.0769 300.0971521 +22.5017902     1028.994     72.57624      1.612     3.26     3.995151     20.48118     119.4881        18     1.133     1.040  84.52   0
       260    374.7628    336.1475 300.1777363 +22.5747840      29658.4     72.61322      1.350     2.33     4.066192     20.48118     3988.596        68     1.292     1.164  65.05   0
       261    909.3776    333.7119 300.3449659 +22.7342722     1337.415     72.52073      1.323     2.21     3.828469     20.48118     217.9498        15     0.956     0.841  51.67   0
       262    864.6287    331.6717 300.3316817 +22.7202843     214.7929     72.59473      1.056     3.01     3.777945     20.48118      39.9546         5     0.724     0.455  73.30   0
       263     71.0909    323.9798 300.0873163 +22.4802266     5060.042     72.52073      1.517     2.90     4.430648     20.48118     564.9136        36     1.341     1.168  52.85   0
       264    824.6159    322.5046 300.3221885 +22.7056655     509.9795     72.52073      1.369     3.20     3.796429     20.48118     67.91769        11     0.959     0.846 -82.62   0
       265    248.7952    322.2985 300.1430695 +22.5330398     452.9535      72.4837      1.519     3.76      4.43658     20.48118     48.83018         9     0.871     0.754  80.32   0
       266    473.3314    321.6260 300.2131062 +22.6001611     446.2211     72.57624      1.168     2.57     4.072677     20.48118     75.68675         7     0.739     0.679 -67.87   0
       267    785.0905    315.9353 300.3120061 +22.6919387     1919.271     72.72405      1.371     2.32     3.816451     20.48118     261.9388        21     1.081     0.955  50.50   0
       268    593.4075    310.7931 300.2539864 +22.6330348     472.2821     72.44666      1.450     2.18     4.004501     20.48118     50.24458         5     0.678     0.470 -73.10   0
       269   1000.4883    308.7037 300.3814849 +22.7543642     414.4698      72.7794      1.125     2.22     3.857955     20.48118     90.66309         9     0.812     0.721 -82.58   0
       270    446.9330    300.4216 300.2117743 +22.5861592      2088.61     72.57624      1.516     3.37     4.051925     20.48118     266.0616        22     1.323     0.864  60.24   0
       271    658.8819    299.1782 300.2781376 +22.6493156     359.2447     72.55774      1.505     4.59     3.879356     20.48118     46.24991         7     0.944     0.633  16.70   0
       272    885.9310    293.0871 300.3508405 +22.7155729     618.9675     72.72405      1.385     3.65     3.738076     20.48118     64.45054         9     0.935     0.713  84.21   0
       273     20.0330    291.0190 300.0821555 +22.4554535     711.0065     72.59473      1.963     3.76     5.206512     20.48118     73.65012        11     1.308     0.611 -36.55   2
       274    768.5979    291.2052 300.3148927 +22.6798915     400.0606     72.40958      1.180     2.08     3.723641     20.48118     54.39165         6     0.669     0.598  12.74   0
       275    736.8370    290.3795 300.3052678 +22.6701406     298.8572     72.61322      1.348     3.40     3.724522     20.48118     34.09996         5     0.766     0.436 -19.72   0
       276    522.7863    279.9193 300.2420251 +22.6030039     1200.815     72.57624      1.357     2.36     4.118199     20.48118     172.6514        17     1.040     0.851  38.71   0
       277    330.0671    279.9215 300.1820817 +22.5452412     278.1877     72.70559      1.330     3.82     4.299345     20.48118     34.52744         5     0.798     0.525  58.09   0
       278    608.1906    277.2511 300.2694706 +22.6278282     267.0652     72.59473      1.213     3.66     3.908438     20.48118     36.99959         5     0.726     0.702  27.02   0
       279    905.5821    273.1545 300.3634323 +22.7157272     300.9208     72.61322      1.274     3.45     3.773648     20.48118     39.56992         5     0.736     0.467 -73.75   0
       280    767.7064    271.7633 300.3209227 +22.6740370     2251.157     72.55774      1.293     2.20     3.714732     20.48118     338.3973        21     1.070     0.914 -72.67   0
       281      1.7489    257.1764 300.0874569 +22.4402586     45450.98      58.8491      1.198     2.85     5.317751     20.48118     6882.354        61     1.412     0.883  89.67  24
       282    400.2185    257.5236 300.2111615 +22.5598380     232.7136     72.59473      1.179     3.20     4.219654     20.48118     44.18874         5     0.735     0.455 -20.97   0
       283    476.0632    255.7234 300.2353372 +22.5820521     594.8949     72.66866      1.162     2.23     4.183756     20.48118     102.4465         9     0.838     0.641  50.88   0
       284    151.0195    249.6828 300.1362455 +22.4828769     1446.592     72.53924      1.769     3.72     4.621529     20.48118     166.4337        23     1.340     1.078 -41.24   0
       285    181.7088    249.7825 300.1457479 +22.4921081     638.3171     72.52073      1.543     3.86     4.589892     20.48118     94.84905        13     1.107     0.963  80.89   0
       286    888.4704    242.8999 300.3679141 +22.7019055     370.2706     72.72405      1.486     3.31     3.746071     20.48118     46.12395         6     0.995     0.684 -81.93   0
       287    234.6664    241.5244 300.1648826 +22.5056160      578.602     72.66866      1.520     4.36     4.570851     20.48118     70.75523        12     1.012     0.911  63.05   0
       288    910.9419    235.6152 300.3772811 +22.7065394     370.1597     72.57624      1.508     4.64     3.788296     20.48118     33.27042         7     0.883     0.691 -65.96   0
       289    839.2991    233.2373 300.3557253 +22.6844040     609.7061     72.59473      1.339     2.70     3.709033     20.48118     98.70635         8     0.885     0.654  31.78   0
       290    429.8160    232.7742 300.2283950 +22.5616008     508.9694     72.61322      1.449     2.98     4.274189     20.48118     64.01698        10     0.919     0.730  64.88   0
       291    937.4991    222.1875 300.3899149 +22.7106296     2045.689     72.50222      1.422     2.84     3.844168     20.48118     253.3294        26     1.277     1.050  64.96   0
       292    355.9610    219.4750 300.2097401 +22.5356459     2276.393     72.55774      1.380     2.37       4.4667     20.48118     317.5722        22     1.075     0.982  80.81   0
       293    433.6864    215.0378 300.2353516 +22.5576664     1144.846     72.57624      1.616     6.73     4.325781     20.48118     166.9152        18     1.556     0.816 -52.63   0
       294    835.9521    213.6813 300.3610256 +22.6777798     652.6077     72.61322      1.548     2.95     3.806237     20.48118       77.008        10     0.992     0.643  62.65   0
       295    942.8494    211.1012 300.3951786 +22.7090436     443.9365     72.65018      1.542     2.79     3.913538     20.48118     49.71325         6     0.740     0.562 -39.93   0
       296    250.8158    206.8789 300.1811384 +22.5005108     839.8063     72.61322      1.446     2.49     4.575333     20.48118     97.98907        11     0.822     0.815 -56.09   0
       297    788.6160    203.5863 300.3495517 +22.6607030     1808.878     72.53924      1.447     2.48     3.903405     20.48118     216.7263        26     1.265     1.010 -74.60   0
       298    102.9763    204.7259 300.1359027 +22.4555663      161.471     72.63171      1.357     3.47     4.881348     20.48118     38.26154         5     1.008     0.519 -40.22   0
       299    853.4649    203.1288 300.3699053 +22.6799899     554.2955     72.63171      1.348     3.06     3.901927     20.48118     77.93361         9     0.969     0.677 -65.66   0
       300    272.0431    199.8378 300.1900197 +22.5048526     594.2617     72.68713      1.473     2.89     4.559908     20.48118     62.35279        10     0.879     0.734 -89.50   0
       301    792.5108    195.1277 300.3535084 +22.6594378     822.2037     72.76096      1.332     2.83     3.980778     20.48118     101.1884        12     0.901     0.863   2.42   0
       302    561.9968    195.9228 300.2814731 +22.5906219     273.5131     72.50222      1.380     3.32     4.344043     20.48118     46.55206         6     0.998     0.474  80.92   0
       303    713.1321    194.3879 300.3290233 +22.6354530     1298.822     72.59473      1.403     2.53     4.187481     20.48118      161.195        19     1.152     0.884  49.56   0
       304    534.5184    191.1360 300.2744741 +22.5810140     441.0644     72.70559      1.541     3.27      4.33993     20.48118     54.76093         8     0.898     0.656 -80.87   0
       305    908.5872    185.8901 300.3926754 +22.6915370     1380.164     72.53924      1.382     2.60     4.079427     20.48118     187.6284        18     1.083     0.899  59.88   0
       306    639.4579    186.3682 300.3086836 +22.6110812     873.5601     72.61322      1.157     2.72     4.391045     20.48118     122.9226        12     0.958     0.817  -0.77   0
       307    920.6626    185.0031 300.3967270 +22.6948969     883.6103     72.59473      1.455     2.82     4.094696     20.48118     95.64253        12     0.940     0.808  -7.42   0
       308    967.1472    184.4444 300.4113993 +22.7086516      260.555     72.61322      1.253     4.75     4.032253     20.48118     37.02597         7     0.978     0.656  23.93   0
       309     11.0381    174.1945 300.1172527 +22.4192323     331.6975     72.61322      1.237     2.97     5.130863     20.48118     41.90504         6     0.875     0.465 -40.31   0
       310     60.9294    171.7039 300.1335522 +22.4334794     363.5985     72.70559      1.446     4.49     5.064824     20.48118     48.45963        10     0.996     0.866  51.83   0
       311    271.3587    168.3228 300.2000267 +22.4955980     680.3959     72.57624      1.371     3.44     4.560642     20.48118     86.70078        13     1.118     0.795  57.48   0
       312    133.2172    163.0521 300.1588098 +22.4526715     2222.004     72.57624      1.459     2.76      4.76784     20.48118     257.9709        25     1.258     0.984  50.77   0
       313    956.4424    160.2036 300.4159232 +22.6984759     681.3586     72.61322      1.236     2.53      4.18555     20.48118     97.79916        12     0.942     0.740  12.47   0
       314     82.5714    159.9212 300.1440939 +22.4365871     529.6902     72.59473      1.946     3.87      5.06389     20.48118     56.90269        11     1.030     0.936  61.72   0
       315    290.6503    156.3687 300.2098996 +22.4979476     5697.684     72.63171      1.423     2.53     4.587597     20.48118     725.5274        37     1.257     1.119  71.85   0
       316    272.2259    157.0925 300.2039378 +22.4926330     365.2357     72.55774      1.444     4.48     4.589773     20.48118     46.94575         8     1.122     0.520  74.48   0
       317     74.9393    150.9552 300.1446306 +22.4317249     1292.205     72.63171      1.450     2.64     5.066676     20.48118     161.6946        20     1.165     0.991  -2.26   0
       318    274.1886    147.5292 300.2076486 +22.4904750      706.994     72.61322      1.679     3.31     4.656487     20.48118     76.84804        12     1.065     0.801 -65.80   0
       319    934.8026    137.9484 300.4163938 +22.6855981     3528.714     72.59473      1.449     2.83     4.404809     20.48118     381.7125        27     1.219     1.057  84.54   0
       320    484.1467    133.3741 300.2775308 +22.5493268     656.6611     72.61322      1.279     2.17     4.395121     20.48118     99.23239         8     0.753     0.642 -87.05   0
       321    237.0099    134.1922 300.2004172 +22.4755011     311.4474     72.46518      1.033     2.13     4.751361     20.48118      48.1149         5     0.754     0.461  60.78   0
       322    598.4841    131.1876 300.3138214 +22.5829502     279.5204     72.53924      1.285     2.49     4.486433     20.48118     47.60176         5     0.714     0.450  66.93   0
       323    408.7361    125.1466 300.2567402 +22.5243685     824.4316     72.63171      2.016     3.32     4.497035     20.48118     72.12759        12     1.064     0.794 -43.76   2
       324    174.5872    122.2233 300.1848999 +22.4533524     560.6885     72.59473      1.202     2.33     4.798947     20.48118     92.58904        10     0.896     0.672  -0.23   0
       325    535.5926    120.4581 300.2977262 +22.5610279     1737.603     72.59473      1.246     2.29     4.375128     20.48118     251.2607        16     1.029     0.819  64.84   0
       326    463.5735    120.8508 300.2751906 +22.5395650     492.5672     72.61322      1.378     3.86     4.420109     20.48118     58.35862         8     0.913     0.756  78.88   0
       327     72.1058    121.1621 300.1534097 +22.4223231     322.2836     72.57624      1.596     4.91     5.061324     20.48118     39.13268         7     1.165     0.586  -9.38   0
       328    597.3566    119.9477 300.3171147 +22.5793822     402.2357     72.63171      1.654     3.62     4.526186     20.48118     43.21954         7     0.868     0.663  19.80   0
       329     14.4021    120.2119 300.1357993 +22.4047478     182.6336     72.40959      1.192     3.49     5.073239     20.48118     29.04752         5     0.759     0.462  74.29   0
       330    279.1207    116.1485 300.2193557 +22.4829413     357.7906     72.59473      1.552     2.52     4.902698     20.48118     54.62101         6     0.762     0.523  39.03   0
       331    970.0832    104.4195 300.4382637 +22.6865144     383.1497     72.53924      2.084     4.46      4.65595     20.48118     40.89825         6     1.016     0.558  64.66   0
       332    309.6456    100.2678 300.2339931 +22.4875285     5926.118     72.57624      1.410     2.57     5.008251     20.48118     712.5425        38     1.277     1.093  59.12   0
       333    815.9514    100.9764 300.3913408 +22.6393874     284.6083     72.59473      1.228     3.80     4.507869     20.48118     50.38317         7     0.873     0.546  54.23   0
       334    160.5060     99.8505 300.1877777 +22.4427074     690.4605     72.66866      1.516     3.03     4.933327     20.48118     97.67014        13     1.011     0.905  27.81   0
       335    939.2208     97.5772 300.4308603 +22.6753094     368.7074     72.59473      1.286     5.09     4.682473     20.48118     49.73313         8     1.031     0.711 -26.80   0
       336      4.8481     96.7487 300.1404388 +22.3951483     778.1887      71.6455      1.734     2.87     5.055862     20.48118     85.63233        13     1.049     0.790 -47.43  16
       337     71.0060     90.4143 300.1630354 +22.4131666     347.1961      72.4837      1.520     4.83     5.041394     20.48118     58.27671         7     1.153     0.786  39.33   0
       338    555.7384     85.6169 300.3152907 +22.5570501     6300.812     72.55774      1.374     2.40     4.426058     20.48118     908.3054        35     1.232     1.046  77.55   0
       339    441.1685     85.5157 300.2796758 +22.5227002      567.892     72.57624      1.287     2.54       4.4428     20.48118     82.38508        10     0.895     0.698  86.05   0
       340    612.7630     80.2632 300.3347756 +22.5725908     317.4066     72.59473      1.373     3.28     4.754744     20.48118      44.1611         7     0.859     0.588  59.62   0
       341    808.2791     75.5159 300.3972041 +22.6297693     992.3738     72.74251      1.616     2.31     4.582428     20.48118     114.3799        12     0.920     0.738  36.17   0
       342    900.7614     74.0384 300.4265028 +22.6570281     351.9371     72.66866      1.433     4.35     4.586475     20.48118     48.27728         8     0.992     0.825 -76.37   0
       343    249.1379     69.4956 300.2251591 +22.4605566     507.5899     72.68713      1.533     3.76     4.998812     20.48118     55.21534        10     1.073     0.740  43.00   0
       344    607.1694     67.9092 300.3370389 +22.5673647     563.0487     72.53924      1.486     2.40     4.774138     20.48118     72.86882         8     0.812     0.622  48.62   0
       345    684.1371     65.7266 300.3617097 +22.5897862     6209.257     72.63171      1.357     2.45     4.993597     20.48118     912.6469        33     1.202     1.055  66.25   0
       346    459.0082     64.6358 300.2919934 +22.5220453     1471.433     72.59473      1.358     2.49     4.432568     20.48118     205.0194        18     0.997     0.976  10.65   0
       347    725.1277     63.2723 300.3752707 +22.6013542     863.9617     72.65018      1.360     2.75     4.915557     20.48118     103.0598        14     1.074     0.759  59.28   0
       348    795.2700     61.0195 300.3978501 +22.6217063     400.7169     72.61322      1.559     3.73      4.65194     20.48118     35.99176         5     0.810     0.492  35.49   0
       349    740.6813     58.9106 300.3815288 +22.6047570     746.1948     72.70559      1.582     3.26     4.898288     20.48118     85.16735        12     1.085     0.740  30.48   0
       350    208.0125     57.2396 300.2163505 +22.4447110     536.9705     72.59473      1.212     2.76     4.994733     20.48118     90.43527         9     0.892     0.637 -59.40   0
       351   1011.3146     56.5959 300.4666231 +22.6850962     620.4974     72.52073      1.657     3.24     4.916316     20.48118     74.41876        11     0.922     0.905  74.27   0
       352    779.8214     54.7625 300.3950654 +22.6152823     515.0701     72.61322      1.382     3.28     4.737405     20.48118     60.32476        10     0.919     0.749  66.58   0
       353    728.2891     50.5538 300.3803778 +22.5986440     2814.084     72.57624      1.358     2.39     4.979334     20.48118     404.4206        25     1.158     0.965  77.21   0
       354    743.4039     49.5852 300.3853995 +22.6028908     1009.634     72.44666      1.958     4.90     4.943746     20.48118     99.28233        13     1.359     0.679  49.92   0
       355    369.2391     51.4338 300.2683514 +22.4913577     454.9332     72.63171      1.290     3.06     4.827585     20.48118      63.3458         7     0.792     0.643 -24.86   0
       356     21.7439     44.8244 300.1625141 +22.3853091     784.4456     72.59473      1.543     3.27     4.904408     20.48118     90.95351        13     1.068     0.828  39.28   0
       357    814.7440     42.1735 300.4100259 +22.6221165     1666.157     72.59473      1.496     2.85     4.634974     20.48118     176.6798        22     1.174     1.049  77.29   0
       358    974.6094     40.8242 300.4602901 +22.6695752     293.3025     72.59473      1.395     3.50     4.847191     20.48118     33.80927         5     0.792     0.446  72.46   0
       359    296.1186     38.3756 300.2498487 +22.4656970     187.5977     72.55774      1.155     3.91     5.054682     20.48118     37.28044         5     0.909     0.483  -2.56   0
       360    752.7022     35.6339 300.3928175 +22.6016631     597.2979     72.57624      1.153     3.43     4.967261     20.48118     94.70271        11     1.034     0.731 -63.20   0
       361    131.0054     34.2879 300.1998627 +22.4150385     686.2905     72.50222      1.828     5.03     5.073125     20.48118     53.67722        13     1.245     1.020  88.92   0
       362    462.1202     32.6291 300.3033351 +22.5137803     781.9772     72.59473      1.327     2.87      4.42748     20.48118     103.5487        13     1.020     0.787  76.64   0
       363    844.0930     31.3667 300.4226734 +22.6277936     443.0521     72.53924      1.400     3.81     4.601395     20.48118     55.71621         6     0.925     0.451  40.06   0
       364    558.3653     34.7809 300.3325856 +22.5432263     1022.094     72.61322      1.257     2.27     4.465295     20.48118     139.2181        13     0.948     0.821  26.83   0
       365    801.4433     23.4162 300.4119611 +22.6127408     661.6718     72.61322      1.399     4.67     4.698809     20.48118     74.73828        13     1.437     0.778  34.29   0
       366    233.5999     22.7892 300.2354671 +22.4424852     3845.058     72.40959      1.537     2.70     4.973416     20.48118     474.0775        32     1.251     1.138  47.40   0
       367     25.6263     23.2039 300.1707261 +22.3802662     395.0764     72.55774      1.554     4.40     4.845439     20.48118     34.83041         5     1.206     0.456 -29.08   0
       368    656.3139     19.9283 300.3678899 +22.5682886     261.0104     72.70559      1.224     4.18     5.076061     20.48118      48.0751         7     0.992     0.633  71.43   0
       369    559.2829     19.7401 300.3377456 +22.5391780     206.8506     72.68713      1.069     3.82     4.483592     20.48118     50.96564         5     0.946     0.442  83.94   0
       370    293.0324   1019.3976 299.9303026 +22.7462623     1420.272     72.55774      3.013     7.50      66.7293     20.48118     74.97164        31     1.973     1.536  26.46  17
       371    302.4521   1020.0040 299.9330330 +22.7492645     999.8635     71.92599      2.972     3.54      58.1273     20.48118     38.67281         5     0.788     0.460  70.80  18
       372    310.4216   1019.0195 299.9358305 +22.7513753     1110.719     72.59473      3.138     5.14     49.39751     20.48118     40.93451         9     1.375     0.542  28.09  18
       373    224.2134   1017.5474 299.9095186 +22.7250663      1034.24     72.63171      2.475     5.97     76.57835     20.48118     53.36562        14     1.378     1.099 -71.25  19
       374    418.3364   1017.4104 299.9699053 +22.7833130     548.6945     72.53924      1.930     3.94     2.575972     20.48118     36.19468         6     0.940     0.472 -88.96  16
       375    138.4248    974.0552 299.8970191 +22.6868391     4876.851     72.61322     23.596    82.31     31.61251     20.48118     108.3906      3333    19.240    15.154 -17.73  19
       376    609.3745   1010.7011 300.0315224 +22.8387263     2327.116     72.53924      1.879     4.27     3.184622     20.48118       150.83        33     1.501     1.294  89.89   0
