#   1 NUMBER                 Running object number                                     
#   2 X_IMAGE                Object position along x                                    [pixel]
#   3 Y_IMAGE                Object position along y                                    [pixel]
#   4 ALPHA_J2000            Right ascension of barycenter (J2000)                      [deg]
#   5 DELTA_J2000            Declination of barycenter (J2000)                          [deg]
#   6 FLUX_APER              Flux vector within fixed circular aperture(s)              [count]
#   7 FLUXERR_APER           RMS error vector for aperture flux(es)                     [count]
#   8 FLUX_RADIUS            Fraction-of-light radii                                    [pixel]
#   9 FWHM_IMAGE             FWHM assuming a gaussian core                              [pixel]
#  10 BACKGROUND             Background at centroid position                            [count]
#  11 THRESHOLD              Detection threshold above background                       [count]
#  12 FLUX_MAX               Peak flux above background                                 [count]
#  13 ISOAREA_IMAGE          Isophotal area above Analysis threshold                    [pixel**2]
#  14 A_IMAGE                Profile RMS along major axis                               [pixel]
#  15 B_IMAGE                Profile RMS along minor axis                               [pixel]
#  16 THETA_IMAGE            Position angle (CCW/x)                                     [deg]
#  17 FLAGS                  Extraction flags                                          
         1    426.8045     17.4478 300.3032651 +22.5138217     779.8029     72.27395      1.324     2.90     4.505851     20.39587     91.79707        14     0.995     0.862  81.97   0
         2    198.2374      7.2547 300.2354587 +22.4424385     3859.519     72.29237      1.554     2.76     5.995795     20.39587     447.5632        34     1.325     1.160  55.48  16
         3    766.1597      8.0094 300.4120298 +22.6126831     707.0075     72.29237      1.512     3.78     5.167999     20.39587     89.35753        11     1.110     0.744  41.00   0
         4    523.9850      4.5578 300.3376968 +22.5392105      417.941     70.54025      1.701     4.42     5.107496     20.39587     40.00909         9     0.995     0.769 -13.42  16
         5    202.9301    990.9349 299.9175431 +22.7262046     895.5332     72.32919      3.907     7.44     70.82877     20.39587     49.41676        10     1.327     1.168 -17.44   3
         6    275.8812   1017.7692 299.9314962 +22.7557957     2991.428     72.29237      7.377    34.23     31.78785     20.39587     82.50469       228     7.580     4.291  68.32  27
         7    227.3300    990.1188 299.9253949 +22.7332945     4361.788     72.40276      9.506    39.32     64.28331     20.39587     85.71869       439     8.958     4.789  89.96  19
         8    247.6254    988.8362 299.9321229 +22.7390185     6153.571     72.31078     12.648    49.80     46.54719     20.39587     110.3354       807    10.878     7.584 -84.31  19
         9    265.1656    978.2991 299.9410055 +22.7412612     9363.369     72.27395     12.289    39.79     28.52505     20.39587     186.2392      1048    13.430     5.402  67.04  19
        10    103.9858    953.3786 299.8990055 +22.6857353     5125.144     72.25553     22.071    81.69     33.76967     20.39587     1261.158      2783    16.281    14.182 -13.42  19
        11    760.4727    990.8833 300.0911119 +22.8934543     695.0801     72.42115      1.977     6.42     3.481311     20.39587     40.04977        15     1.338     1.007 -26.16   0
        12      6.0366    980.6356 299.8597066 +22.6641399     1951.119     72.36598     14.718    22.96    -14.72746     20.39587     60.23459       115     4.951     2.956 -82.55  27
        13    193.5615    979.6811 299.9182917 +22.7201657     1607.524     72.25553      3.917    12.78      63.3294     20.39587     57.27152        39     2.327     1.953  14.51   2
        14    202.9615    985.8366 299.9192115 +22.7247523     464.9109     72.36598      2.768     4.76     66.63857     20.39587      31.9397         5     1.266     0.508 -72.22   1
        15    524.6198    979.1132 300.0214729 +22.8193435      465.989     72.21867      1.860     5.98     4.087633     20.39587     33.02276         7     1.357     0.743  63.60   0
        16    198.9796    997.7631 299.9140934 +22.7269765     781.8939     72.31078      2.781     5.12     77.41721     20.39587     59.19446        10     1.164     0.877 -42.44   3
        17    953.0231    974.4260 300.1565028 +22.9464496     798.7429     72.25553      1.841     5.25     4.191737     20.39587     59.17957        18     1.349     1.108  12.14   0
        18    190.8752    972.7453 299.9197129 +22.7173707      932.392     72.32919      3.863     7.97     58.08496     20.39587     42.71135        13     2.121     0.837  53.51   1
        19    199.7631    993.8531 299.9156091 +22.7260907     1625.606     72.31078      5.128    11.74     73.89149     20.39587     49.78234        33     2.414     1.590  24.92   3
        20    171.7558    959.9733 299.9179240 +22.7079697     1601.435     72.31078      4.403    12.79     51.13113     20.39587     56.92101        44     2.518     1.808  14.55   2
        21    153.2610    957.3445 299.9130301 +22.7016643     1360.521     72.36598      6.161    14.87     49.01728     20.39587     41.60501        33     3.060     2.009  63.58   3
        22    269.9868    951.6759 299.9511655 +22.7350732     654.7892     72.31078      1.926     5.37     16.36644     20.39587      63.5188        11     1.203     1.114  -2.32   0
        23    198.0340   1002.3231 299.9123158 +22.7280001     2690.315     72.29237      5.062    22.46     80.93829     20.39587     91.72253       131     5.186     2.702  29.94  19
        24    103.0682    920.7623 299.9093291 +22.6761089     4195.402     72.27395     18.675    52.32     11.09615     20.39587     81.89974       922    11.522     6.884 -35.44   3
        25    830.9306    950.5124 300.1262092 +22.9029869     407.5301     72.43953      1.513     3.77     3.549771     20.39587     30.24288         6     1.380     0.296  17.38   0
        26    586.8482    948.2421 300.0508930 +22.8291497     1533.592     72.31078      1.810     4.37     4.306029     20.39587       125.18        28     1.362     1.255 -12.34   0
        27     20.4904    997.5289 299.8587007 +22.6733217     1096.118      72.4579      4.914     7.43    -6.114377     20.39587     57.72518        13     1.609     0.962 -23.01   3
        28    480.8463    944.3479 300.0191556 +22.7962375     1119.497     72.32919      1.900     4.94     3.908634     20.39587      84.9067        20     1.254     1.207 -83.14   0
        29    411.4567    942.6188 299.9981216 +22.7749248     6534.302     72.29237      1.809     4.09     3.978119     20.39587      469.707        43     1.453     1.348  21.43   0
        30    115.3220   1011.9825 299.8834635 +22.7059385     3398.876     72.29237     13.952    76.54     88.54797     20.39587     130.9392      1404    18.829     8.633  43.61  27
        31    444.7071    929.4678 300.0127472 +22.7811271     522.6304     72.43953      1.511     3.07     4.038812     20.39587     55.31739         7     0.905     0.537 -62.64   0
        32    958.0134    921.6602 300.1752258 +22.9327897     2094.163     72.25553      1.974     4.79     4.057052     20.39587     105.7426        32     1.509     1.329  -9.68   0
        33    678.5287    957.4665 300.0764497 +22.8592911     7063.384     72.32919      1.883     4.20     3.814292     20.39587     444.0796        47     1.491     1.436  37.84   0
        34    608.3146    919.1200 300.0670517 +22.8272292       281.29     72.43953      1.388     3.24     4.320064     20.39587     44.47172         6     0.913     0.591 -24.77   0
        35    381.7759   1001.7305 299.9696554 +22.7829758     556.8251     72.29237      1.997     6.67     4.070756     20.39587     40.33277        10     1.389     0.899  44.65   0
        36    746.6294    910.4362 300.1129687 +22.8662082     690.7018     72.31078      1.767     6.27     3.647103     20.39587     46.28743        17     1.519     0.929  52.44   0
        37    781.7181    904.4725 300.1258447 +22.8750148      1067.18     72.42115      1.790     5.33     3.619186     20.39587     71.28374        21     1.389     1.133 -13.22   0
        38    559.1215    905.2899 300.0562301 +22.8085071      372.519     72.42115      1.529     5.06     4.283761     20.39587     33.58718         8     1.099     0.658  -3.72   0
        39    140.2352    904.8972 299.9260401 +22.6827164      749.972     72.29237      4.736     4.53     16.82762     20.39587     34.38468         5     1.206     0.483 -35.09   1
        40    573.6892    995.0790 300.0315573 +22.8386436     2235.491     72.42115      1.813     4.21     4.317693     20.39587     164.6561        29     1.400     1.268  11.96   0
        41    803.7296    898.2720 300.1347227 +22.8798325     11308.57     72.36598      1.783     3.94     3.614995     20.39587     709.4723        50     1.406     1.403 -63.34   0
        42    234.5938    896.3871 299.9581421 +22.7085951     996.7768     72.16335      8.546     9.51     9.363061     20.39587     37.67183        13     2.109     1.197  36.40   2
        43      7.2962   1009.9549 299.8505594 +22.6729208     2792.184     72.31078     13.018    48.72    -23.38626     20.39587     66.92903       576    11.482     5.736  89.09  27
        44    993.7311    899.0113 300.1937356 +22.9369865     552.7447     72.31078      2.290     5.47     4.259987     20.39587     29.28786         8     1.212     0.695  43.17   2
        45    850.2881    898.1569 300.1492752 +22.8937546     651.3835     72.29237      2.065     5.85     3.698869     20.39587     32.78047        10     1.267     0.761 -85.43   2
        46    936.5765    890.9911 300.1785149 +22.9175564       230.44     72.29237      1.518     4.69     3.923316     20.39587     24.28647         5     1.056     0.592  16.27   0
        47    115.4051    889.6006 299.9232974 +22.6708774     1014.203     72.10799      6.360     6.35     9.750392     20.39587     61.76451        19     1.741     1.153  -5.67   0
        48    508.7037    886.4893 300.0466467 +22.7879905     427.1003     72.47627      1.606     4.69     4.140767     20.39587     55.76837         7     1.281     0.488  -5.24   0
        49     85.4780    883.6995 299.9159161 +22.6602023     672.0317     72.42115      3.864     5.55      6.24316     20.39587     29.20127         7     1.661     0.523 -54.68   0
        50    812.2306    880.1859 300.1432551 +22.8771868     1491.027     72.29237      1.871     4.21     3.687936     20.39587     99.08484        21     1.278     1.074  62.09   0
        51    995.6036    879.0229 300.2008211 +22.9318052     605.7771     72.25553      2.100     6.74     4.272194     20.39587     39.40063         9     1.363     0.935 -75.61   0
        52    855.5459    885.9089 300.1548982 +22.8918129     436.0185     72.34759      1.811     4.47     3.719538     20.39587     30.83387         7     0.911     0.624  14.34   0
        53    664.5610    877.1818 300.0982124 +22.8320562     619.5411     72.31078      2.190     5.70     4.045258     20.39587     35.95112        10     1.246     0.959  34.87   0
        54    850.2469    873.7249 300.1572086 +22.8867255     811.3607     72.29237      1.786     6.73     3.726283     20.39587     55.31746        15     1.412     0.972  72.18   0
        55    898.8754    865.1046 300.1751757 +22.8988229     676.9872     72.43953      1.684     4.67     3.802787     20.39587     52.01136        17     1.232     1.011 -28.10   0
        56    749.8910    864.1255 300.1290471 +22.8538887     650.0015      72.4579      1.540     4.13     3.889493     20.39587     58.57805        13     0.995     0.955 -41.36   0
        57    462.7762    860.2809 300.0408726 +22.7666944     4200.268     72.25553      1.635     3.45     4.125737     20.39587     332.4531        33     1.273     1.234  42.63   0
        58    660.3840    990.4982 300.0600501 +22.8633308     9043.744     72.20024      1.976     4.71     3.940127     20.39587     538.6947        47     1.537     1.434  10.33   3
        59    761.6146    861.0032 300.1337162 +22.8565064     721.9084     72.12645      1.804     4.75     3.873917     20.39587     49.43075        15     1.219     0.895  57.67   0
        60    506.2572    848.5488 300.0582229 +22.7763681     440.0108     72.34759      1.728     5.32      4.16899     20.39587     44.05933         8     0.978     0.817 -15.07   0
        61    241.3456    848.7944 299.9757179 +22.6969705      445.078     72.29237      1.149     3.88     5.635914     20.39587      44.2005         6     1.034     0.418  76.10   0
        62    124.7503    848.9768 299.9394114 +22.6620334     448.1948     72.29237      1.711     4.91     6.311222     20.39587     33.82319         7     0.978     0.698  80.44   0
        63    188.5031    846.2573 299.9601128 +22.6803862     719.8495     72.38438      1.647     3.40     6.936408     20.39587     82.50857        11     1.024     0.797 -86.06   0
        64    165.0010    842.9646 299.9538772 +22.6723890     1627.177     72.25553      1.789     3.80     7.496231     20.39587     158.5708        27     1.362     1.266 -13.18   0
        65    665.7858    988.2142 300.0624761 +22.8642952     9310.067     72.21867      1.896     4.44     3.895798     20.39587     600.8843        49     1.535     1.426  53.30   3
        66    991.1821    830.7571 300.2151379 +22.9166134      2158.44     72.31078      1.827     4.27     4.296007     20.39587     144.2117        28     1.370     1.265  56.46   0
        67    696.4111    831.0912 300.1231238 +22.8283717     415.0307     72.23711      1.904     4.16     4.276965     20.39587     35.24317         5     1.053     0.468 -27.80   0
        68    467.7622    830.4034 300.0521396 +22.7596155     315.1499     72.32919      1.521     4.59     4.238897     20.39587     33.67529         6     1.173     0.511 -48.38   0
        69    774.7912    824.2883 300.1497620 +22.8499123     675.7747     72.21867      1.619     4.59     4.029327     20.39587     53.58149        16     1.327     0.871  49.58   0
        70    522.4391    822.6555 300.0716801 +22.7737889     283.2477     72.29237      1.638     4.29      4.26757     20.39587     28.66813         5     1.004     0.522  45.23   0
        71    642.8156    818.4690 300.1105302 +22.8086804     4910.917     72.31078      1.594     3.27     4.446209     20.39587     446.4837        35     1.285     1.199 -37.44   0
        72    132.5558    819.4405 299.9514402 +22.6559056     429.8116     72.36598      1.557     5.29     5.470413     20.39587     43.68208         8     1.257     0.628 -19.29   0
        73    444.8503    815.5485 300.0498378 +22.7484807     538.3277     72.32919      1.510     4.06     4.477158     20.39587     58.77556        13     1.089     0.907 -16.80   0
        74    193.0657    812.0873 299.9726406 +22.6719546     1238.032     72.38438      1.594     3.64       5.2011     20.39587      129.152        19     1.230     1.062  57.05   0
        75    663.3826    811.1613 300.1193133 +22.8127479     716.6757     72.31078      1.430     2.86     4.470877     20.39587     89.91834        11     0.939     0.744   5.88   0
        76    818.8760    798.3089 300.1719510 +22.8556629     4256.942     72.43953      1.640     3.39      3.91766     20.39587     338.1504        33     1.308     1.238 -39.49   0
        77    226.8913    792.0809 299.9896615 +22.6763651     387.5957     72.42115      1.375     4.94     4.545993     20.39587     52.56606         8     1.194     0.580  24.67   0
        78    535.9415    790.7637 300.0862527 +22.7686833     588.3898     72.29237      1.489     4.18     4.361409     20.39587     67.90182        11     1.052     0.767 -14.15   0
        79    182.1026    788.6591 299.9768483 +22.6619450      1169.14     72.36598      1.884     4.31     4.700712     20.39587     110.9751        22     1.315     1.261  46.01   0
        80    597.3959    783.8099 300.1076508 +22.7851125     404.8071     72.12645      1.387     4.34     4.518687     20.39587     49.34433        11     1.068     0.781 -34.46   0
        81    331.8134    780.6696 300.0260035 +22.7045674     53786.44     72.31078      1.619     3.34     4.408043     20.39587     5534.994        87     1.424     1.364  34.52   0
        82   1002.8263    779.2720 300.2355105 +22.9053079     918.6373     72.29237      1.841     7.78     4.651253     20.39587     62.73555        19     1.444     1.172 -15.46   0
        83    589.7686    779.8115 300.1065751 +22.7816779     1590.119     72.29237      1.547     3.46     4.507358     20.39587     165.7954        20     1.176     0.989   8.74   0
        84    260.0302    778.8793 300.0042580 +22.6825200     528.0438     72.29237      1.595     5.98     4.623726     20.39587     55.04729        11     1.131     0.891   9.77   0
        85    618.6396    775.8167 300.1168659 +22.7891863     819.6873     72.31078      1.428     3.33     4.547266     20.39587     91.68121        14     0.977     0.924   2.42   0
        86     18.0113    775.2192 299.9302220 +22.6088467     842.0144     72.25553      1.762     4.87     4.375097     20.39587     88.55171        18     1.511     1.129 -19.47   0
        87    629.7687    774.3019 300.1208249 +22.7920877     529.5917     72.27395      1.379     4.20     4.546512     20.39587     65.34917        10     1.073     0.678  -7.82   0
        88    949.6368    771.9749 300.2212893 +22.8872773     335.3319     72.31078      1.636     4.44     4.280964     20.39587     30.89178         6     1.159     0.483  19.24   0
        89    735.2318    770.6345 300.1548762 +22.8226466     447.4832     72.31078      1.615     4.52      4.46488     20.39587     46.27898         8     1.031     0.780 -16.98   0
        90    530.0080    768.1462 300.0917575 +22.7604114     231.8529     72.29237      1.218     2.87      4.42384     20.39587     43.61773         7     0.869     0.519  49.76   0
        91    772.5735    760.8470 300.1696960 +22.8310267     770.2676     72.32919      1.633     4.38     4.266541     20.39587     72.52392        14     1.092     0.929  14.23   0
        92    381.5623    757.9317 300.0488725 +22.7129641     31694.69     72.27395      1.562     3.18     4.521114     20.39587     3605.922        72     1.369     1.304   9.98   0
        93    395.9191    758.3892 300.0531912 +22.7174012     2046.599     72.27395      1.580     3.10     4.642071     20.39587      204.524        23     1.241     1.072  32.71   0
        94    271.1208    756.6688 300.0149265 +22.6794747     95.44051     72.40276      1.406     5.07     4.685999     20.39587     34.45344         5     1.017     0.716  60.95   0
        95    904.7211    754.0018 300.2131225 +22.8686569     2870.738     72.20024      1.636     3.53     4.181173     20.39587     221.3454        28     1.278     1.172  43.71   0
        96    933.9334    752.4500 300.2227381 +22.8769627     318.9035     72.27395      1.462     4.22     4.295682     20.39587     38.57272         7     0.969     0.695  50.89   0
        97    392.6779    752.2573 300.0541757 +22.7146693     687.3395     72.32919      2.337     4.10     4.616618     20.39587     61.10638        11     1.087     0.871 -14.93   0
        98    662.4919    750.0204 300.1389118 +22.7949244      825.358     72.21867      1.393     2.89     4.544117     20.39587     111.8508        13     0.958     0.851  18.61   0
        99    499.2372    749.8924 300.0881107 +22.7459450     497.1563     72.29237      1.508     4.09     4.409646     20.39587     56.26124         9     1.101     0.588 -47.43   0
       100    264.0121    749.9429 300.0149017 +22.6754124      815.437     72.27395      1.580     3.67     4.665069     20.39587     99.75806        16     1.288     0.839   5.53   0
       101    509.6113    744.9323 300.0929526 +22.7476316     757.1386     72.31078      1.292     3.21     4.448644     20.39587     126.4593        13     1.040     0.846 -17.46   0
       102     69.2517    744.9561 299.9559782 +22.6155462      508.045     72.32919      1.563     3.98     4.461445     20.39587     46.58255         7     0.879     0.576  59.57   0
       103    911.1087    741.6613 300.2191260 +22.8670249     588.7894     72.38438      1.645     4.98     4.273325     20.39587     50.52274        11     1.304     0.753  73.09   0
       104    658.5549    741.6305 300.1404123 +22.7913349     320.1673     72.32919      1.596     3.84     4.545175     20.39587     30.04899         5     1.011     0.419  15.14   0
       105    411.4950    741.0828 300.0636633 +22.7171053     373.0213     72.47627      1.624     4.65     4.771999     20.39587     41.48331         7     1.188     0.517  50.98   0
       106    368.4520    740.7827 300.0503671 +22.7041105     335.7629     72.27395      1.298     3.48     4.402854     20.39587     43.85219         5     0.843     0.415 -68.00   0
       107    456.2135    739.6177 300.0780573 +22.7300948     426.4435     72.25553      1.362     4.53     4.560439     20.39587     42.90076         9     1.058     0.675  42.29   0
       108    663.5711    738.9752 300.1428381 +22.7920759      380.292     72.29237      1.600     5.10     4.544106     20.39587     37.56685         8     1.101     0.670  32.75   0
       109     97.3379    738.8976 299.9666750 +22.6222368     654.0942     72.38438      1.973     5.44     4.482224     20.39587      54.5071        11     1.248     0.818  65.51   0
       110    888.3055    736.7991 300.2135948 +22.8587962     477.7262     72.16335      1.644     3.93     4.239407     20.39587     51.37942        10     1.018     0.803  42.09   0
       111    261.8281    734.2072 300.0193367 +22.6702423      589.485     72.29237      1.539     3.81     4.684974     20.39587     61.05284         9     0.908     0.857  67.55   0
       112    554.7375    722.9689 300.1141418 +22.7548554     761.5358     72.31078      1.476     3.66     4.570591     20.39587     72.69492        14     1.151     0.790 -89.45   0
       113    585.1605    724.6411 300.1230726 +22.7644558     410.6247     72.38438      1.289     3.30     4.600629     20.39587     51.96469         5     0.720     0.466 -12.02   0
       114    463.5617    721.8379 300.0861231 +22.7271944     288.1495     72.36598      1.498     5.05     4.651356     20.39587     37.66287         6     1.090     0.663   2.23   0
       115    971.0742    719.3630 300.2450783 +22.8785806     4476.352     72.23711      1.633     3.36     4.819213     20.39587     365.1607        37     1.303     1.264  81.22   0
       116    576.5591    720.2695 300.1218146 +22.7606220     1342.597     72.27395      1.401     2.67     4.606283     20.39587     175.5191        20     1.125     0.978  41.20   0
       117    496.5139    720.1564 300.0969274 +22.7365919     372.0013     72.27395      1.492     4.26     4.579907     20.39587     42.72271         5     0.893     0.578 -46.05   0
       118    658.3344    715.1911 300.1489367 +22.7836759     356.3255     72.25553      1.352     3.41     4.544833     20.39587       39.753         6     0.741     0.621 -11.02   0
       119    959.7184    710.7481 300.2443357 +22.8727033       1779.6     72.32919      1.688     3.76     4.777145     20.39587     142.9872        23     1.239     1.123   8.15   0
       120    322.5240    704.4589 300.0478830 +22.6799113     947.1725     72.34759      1.519     3.38     4.782471     20.39587     107.2439        17     1.200     0.908   8.99   0
       121    188.2910    705.1702 300.0059068 +22.6398510      367.875     72.25553      1.459     3.28     4.832215     20.39587     40.60652         5     0.855     0.444  41.50   0
       122    786.0884    701.9808 300.1930416 +22.8181670     2436.422     72.23711      1.561     3.17     4.352742     20.39587     252.6576        30     1.476     1.044   4.74   0
       123    990.5992    700.8207 300.2571961 +22.8790998     1654.447     72.21867      1.642     3.56     4.967469     20.39587     131.7062        26     1.262     1.184  30.22   0
       124      8.3472    691.7722 299.9543381 +22.5820159     866.2853     72.31078      1.764     5.46     4.461315     20.39587     86.17517        20     1.448     1.132  57.87  16
       125    868.3795    687.4585 300.2234169 +22.8386496     667.3618     72.27395      1.908     5.95     4.516605     20.39587     50.53523        16     1.459     0.942  52.74   0
       126    171.4381    688.1976 300.0061825 +22.6299256     616.5043     72.31078      1.612     4.43     4.996847     20.39587     71.82052        10     1.205     0.614 -26.59   0
       127    904.4026    678.8979 300.2374328 +22.8469809     149323.8     72.20024      1.585     3.38     4.749771     20.39587     12920.81       148     1.440     1.427  30.08   0
       128    666.6538    682.6265 300.1621112 +22.7768167     322.4057     72.31078      1.229     4.48     4.484784     20.39587     58.67724         8     0.994     0.667   5.05   0
       129    756.8459    679.2229 300.1913224 +22.8028669     793.7881     72.32919      1.506     3.08     4.414733     20.39587     98.50006        13     1.046     0.803  75.21   0
       130    937.1979    672.0363 300.2498913 +22.8548324     481.5165     72.29237      1.616     4.68     4.934493     20.39587     46.34224        10     1.043     0.903 -62.27   0
       131    590.5565    667.6870 300.1432612 +22.7497184     1601.986     72.27395      1.359     2.46      4.84494     20.39587     229.8719        17     0.989     0.940 -47.10   0
       132    771.8593    665.0140 300.2006190 +22.8032834     9600.929     72.27395      1.428     2.92     4.451691     20.39587     1004.187        42     1.246     1.146  39.90   0
       133    273.3832    659.9748 300.0470519 +22.6524067     4965.407     72.31078      1.517     2.83     5.025851     20.39587     637.3711        33     1.219     1.180  20.54   0
       134    355.4484    658.0850 300.0731943 +22.6764753      1156.92     72.27395      1.352     2.60     5.027409     20.39587     171.4917        16     1.113     0.865   0.09   0
       135    231.1441    655.4158 300.0353972 +22.6384295     529.8923     72.27395      1.585     3.67     5.031128     20.39587     57.17756         6     0.809     0.644  27.28   0
       136    563.6367    653.7075 300.1394197 +22.7376349     814.7249     72.25553      1.401     2.64     4.809492     20.39587      107.202        13     1.005     0.779 -31.16   0
       137    455.4752    650.2178 300.1068784 +22.7042088     199.0251     72.29237      1.062     4.19     5.128201     20.39587     32.53364         5     0.885     0.567 -40.16   0
       138    555.3008    645.7694 300.1394029 +22.7328567     3285.187     72.27395      1.355     2.53     4.839381     20.39587     466.7266        24     1.069     0.997  24.17   0
       139    545.6400    639.5470 300.1384162 +22.7281740     1486.647     72.27395      1.334     2.51     4.863114     20.39587     200.2619        18     1.019     0.939  25.65   0
       140    939.4670    637.8921 300.2616935 +22.8456988     531.9295     72.43953      1.519     3.28     4.952618     20.39587     56.60568         8     0.859     0.663 -27.97   0
       141    208.7869    635.5651 300.0348943 +22.6260272     610.7708     72.27395      1.389     3.17     5.060791     20.39587     81.83878        11     0.915     0.820 -33.64   0
       142    223.0300    634.5551 300.0396512 +22.6300095      553.861     72.32919      1.437     3.29     5.042541     20.39587     70.41253        13     1.009     0.914   2.30   0
       143    992.4511    630.6164 300.2805865 +22.8594755     430.5918     72.29237      1.617     4.03     4.969967     20.39587     44.43604         9     0.995     0.830 -34.71   0
       144    280.0220    631.0519 300.0585131 +22.6460969     457.7725     72.29237      1.373     3.64     5.026924     20.39587     66.38116         7     0.897     0.657  19.04   0
       145    248.6721    630.6021 300.0489092 +22.6365658     596.4001     72.21867      1.591     5.01     5.035143     20.39587     60.42127        12     1.262     0.773  51.94   0
       146    569.6394    630.0306 300.1489815 +22.7326345     570.3237     72.29237      1.426     3.04     5.003647     20.39587     84.13145        11     0.958     0.828  24.77   0
       147    470.3620    629.3300 300.1182984 +22.7026745     1714.282     72.25553      1.309     2.42     5.152161     20.39587     204.2799        18     1.000     0.927  44.19   0
       148    555.3245    624.6343 300.1462767 +22.7267943     1081.846     72.29237      1.371     2.46     5.014083     20.39587     126.8326        13     1.008     0.792 -50.67   0
       149    590.4846    623.5627 300.1575747 +22.7370246      304.226     72.27395      1.148     2.97      5.07764     20.39587      56.4656         7     0.845     0.651  12.40   0
       150    926.9539    620.9761 300.2632863 +22.8370892     237.6626     72.31078      1.294     3.57     4.956409     20.39587      36.4519         5     0.977     0.376  31.42   0
       151    124.2582    624.0275 300.0123645 +22.5973610     19869.71     72.29237      1.629     3.22     5.115122     20.39587     2355.089        60     1.415     1.326  33.85   0
       152    308.9286    616.3273 300.0722878 +22.6505393     230.4643     72.34759      1.220     3.77     5.024538     20.39587     41.43382         5     0.828     0.492 -55.32   0
       153    973.3111    610.9011 300.2810202 +22.8480764     1049.756      72.4579      1.520     3.43     4.966629     20.39587     102.6341        18     1.136     0.977   4.73   0
       154    638.4952    612.4187 300.1761495 +22.7482121     341.6946     72.20024      1.203     3.49     5.095992     20.39587     42.12904         7     0.867     0.648  24.50   0
       155    839.8122    609.2332 300.2399260 +22.8076133     427.7729     72.27395      1.395     3.98     4.838934     20.39587     57.59796         9     1.063     0.800   2.08   0
       156     70.3247    608.2396 300.0007314 +22.5766515     1540.532     72.25553      1.854     4.93     5.309782     20.39587     117.2938        26     1.528     1.172  71.94   0
       157     45.0465    625.7975 299.9871736 +22.5741045     811.7198     72.31078      2.196     4.09     5.281321     20.39587     88.92102        13     1.161     1.016  81.91   0
       158    518.5312    605.3448 300.1410862 +22.7102264     462.3754     72.32919      1.525     3.27      5.17289     20.39587     63.42082         8     1.043     0.539 -40.53   0
       159    912.3525    603.3943 300.2644439 +22.8276627      982.274     72.27395      2.134     7.06      4.95692     20.39587     78.45404        20     2.084     0.856   9.05   0
       160    311.3380    603.9851 300.0770464 +22.6477191     307.8518     72.23711      1.318     4.58     5.021332     20.39587     43.44028         6     0.847     0.787  21.70   0
       161    657.8575    601.5894 300.1856994 +22.7509035     428.2403     72.25553      1.697     3.40      5.09163     20.39587      33.1036         5     0.785     0.426  21.91   0
       162    475.4535    597.5388 300.1302106 +22.6950722      672.942     72.34759      1.328     2.63     5.176473     20.39587     104.3997        12     0.927     0.823  14.50   0
       163    623.2717    596.2840 300.1766485 +22.7390154     519.2076     72.40276      1.381     2.75     5.178874     20.39587     66.04429         7     0.801     0.600 -30.04   0
       164    670.6454    594.6179 300.1919481 +22.7527326     408.9465     72.31078      1.284     2.53     5.071998     20.39587     76.12114        10     0.900     0.732   9.81   0
       165    640.9846    594.1692 300.1828532 +22.7437158     638.3958     72.29237      1.431     2.87     5.142758     20.39587     67.69319        10     0.892     0.724  11.86   0
       166    519.7482    593.3547 300.1453598 +22.7071479     992.7394     72.31078      1.483     3.04     5.219194     20.39587     103.9984        12     0.954     0.856  55.45   0
       167    953.4560    588.9682 300.2819512 +22.8358258     3131.129     72.31078      1.489     3.09     4.972072     20.39587     329.3554        28     1.183     1.124 -48.95   0
       168    485.2096    588.7841 300.1360914 +22.6954827     1750.457     72.21867      1.322     2.49     5.185742     20.39587     220.4862        19     1.018     0.942 -38.21   0
       169    850.2490    586.5694 300.2505424 +22.8042263     393.0009     72.32919      1.392     4.14     4.882038     20.39587     49.92645         6     0.713     0.688 -88.47   0
       170    460.7744    584.1758 300.1299817 +22.6868348     180.4905     72.25553      1.272     3.89     5.173345     20.39587     34.86803         6     0.791     0.548 -37.93   0
       171     47.0703    582.1230 300.0019881 +22.5621824     5148.553     72.40276      1.692     3.12     5.462092     20.39587     558.2018        41     1.408     1.327  34.10   0
       172    514.3291    579.6754 300.1481158 +22.7015951     418.0306     72.36598      1.393     2.51      5.25591     20.39587     59.96926         7     0.829     0.584  24.51   0
       173    992.7964    578.8646 300.2975065 +22.8447016     280.6969     72.29237      1.415     3.48     4.966794     20.39587     49.27477         6     0.962     0.646 -85.83   0
       174    348.5709    575.4312 300.0979039 +22.6506863     9091.157     72.29237      1.420     2.50     5.022462     20.39587     1264.468        37     1.165     1.128  46.15   0
       175    470.9892    572.4615 300.1369662 +22.6865328     9132.054     72.23711      1.350     2.58     5.179032     20.39587     1189.171        41     1.191     1.090  58.09   0
       176    717.0771    569.3693 300.2146172 +22.7593905     295.8713     72.27395      1.244     4.04     4.879843     20.39587     51.06243         7     0.905     0.650 -61.82   0
       177    236.1242    569.4786 300.0648608 +22.6152599     335.3074     72.40276      1.668     5.25     4.993488     20.39587      51.3244         6     1.049     0.743 -65.79   0
       178    967.3908    564.0254 300.2944003 +22.8328282     12750.24     72.29237      1.518     3.21     4.974513     20.39587     1217.204        50     1.306     1.266 -73.49   0
       179    882.7513    566.7457 300.2671167 +22.8082635      1962.88     72.32919      1.506     2.64      4.94237     20.39587     233.5153        22     1.134     1.022 -26.58   0
       180    531.5818    562.1376 300.1591838 +22.7017291     11592.98     72.25553      1.325     2.51     5.387291     20.39587     1528.036        37     1.134     1.066  61.81   0
       181    701.2024    557.8981 300.2133961 +22.7513385     525.8442     72.20024      1.335     3.00     4.966391     20.39587     68.92951        11     0.879     0.820  44.62   0
       182    259.0335    557.4019 300.0759074 +22.6186634     1434.409     72.25553      1.496     3.00     4.976007     20.39587     169.2822        21     1.175     0.994  40.05   0
       183    505.9389    555.3384 300.1534078 +22.6920909     470.0227     72.32919      1.510     2.80     5.300713     20.39587     61.24551         8     0.888     0.667 -89.10   0
       184    416.8665    556.4606 300.1253169 +22.6657143     346.3492     72.32919      1.235     2.12     5.172234     20.39587     48.18828         5     0.691     0.458 -22.36   0
       185    806.2662    550.4255 300.2485692 +22.7806647     784.2272     72.27395      1.361     3.15      4.81408     20.39587     93.77229        15     1.029     0.956  -2.75   0
       186    463.2301    550.2977 300.1417491 +22.6778423     4482.626     72.23711      1.325     2.47     5.181673     20.39587      569.853        26     1.126     0.996  38.12   0
       187    195.7259    548.2172 300.0592039 +22.5970424     689.6105     72.29237      1.332     3.39     5.005904     20.39587     105.3286        17     1.189     0.946  78.66   0
       188    441.5483    548.7391 300.1355064 +22.6708957     1273.054     72.34759      1.292     2.25     5.179194     20.39587     202.6595        17     1.029     0.877  -2.82   0
       189    883.0369    545.9244 300.2739683 +22.8023642     1526.399     72.25553      1.455     3.16     4.946229     20.39587     146.3031        19     1.102     0.955 -28.70   0
       190    129.6389    545.9821 300.0393850 +22.5765804       308.33     72.31078      1.330     3.57     5.053258     20.39587     46.50485         6     1.006     0.624 -33.82   0
       191    983.9149    545.0547 300.3057170 +22.8323220     328.1254     72.36598      1.550     3.73     4.970594     20.39587     48.92325         5     0.999     0.399  26.79   0
       192    579.9128    537.8764 300.1821137 +22.7092445     203861.4     72.42115      1.358     2.50     5.449424     20.39587     29969.95       187     1.394     1.329   1.88   0
       193    403.5953    544.0457 300.1252186 +22.6581711     328.0937     72.29237      1.397     3.07     5.144667     20.39587      52.6181         8     0.971     0.561  45.76   0
       194    763.5779    542.9550 300.2376886 +22.7657309     881.1566     72.34759      1.334     2.78     4.811215     20.39587      119.394        13     0.975     0.807   7.29   0
       195    857.2352    541.5287 300.2673500 +22.7933735     285.3497     72.29237      1.159     1.95     4.917414     20.39587     55.96442         5     0.674     0.462  22.69   0
       196    265.9215    537.7021 300.0844470 +22.6150739     3653.644     72.40276      1.439     2.82     4.950844     20.39587     465.6114        27     1.221     1.001  46.74   0
       197    831.9132    534.0553 300.2618816 +22.7836415     593.1824     72.34759      1.515     3.89     4.876451     20.39587     59.11948        10     0.918     0.754  13.08   0
       198    445.7864    534.4587 300.1414631 +22.6680651     473.8756     72.27395      2.232     3.05     5.168184     20.39587      38.3187         5     0.727     0.475 -15.96   0
       199    314.6339    520.7131 300.1051156 +22.6248021     596.4654     72.25553      1.363     4.08     4.938342     20.39587     64.72588        12     1.068     0.963  51.31   0
       200    470.5072    518.1509 300.1544537 +22.6707912     2640.773     72.32919      1.352     2.39      5.17457     20.39587     377.2903        23     1.047     0.989  19.47   0
       201    882.0561    515.0433 300.2836913 +22.7931936     341.1503     72.29237      1.270     2.50     4.990076     20.39587     51.65574         5     0.626     0.573 -87.85   0
       202    787.8990    507.1188 300.2569072 +22.7627169     411.8781     72.42115      1.376     1.91     4.803658     20.39587      83.6658         8     0.762     0.615  44.69   0
       203    867.5349    504.3868 300.2826234 +22.7857818     1730.848     72.23711      1.430     2.72     4.992728     20.39587     220.4414        21     1.090     1.025 -70.33   0
       204    738.7921    502.1599 300.2432111 +22.7465829     2569.192     72.32919      1.299     2.29     4.764581     20.39587     352.0272        21     1.035     0.934  62.80   0
       205     97.9006    502.2097 300.0437334 +22.5544996     359.9573     72.20024      1.611     3.92     5.014318     20.39587     31.50309         6     0.778     0.564 -42.75   0
       206    982.8774    499.6915 300.3201250 +22.8189685     585.5428     72.43953      1.610     3.04     5.036456     20.39587     71.43487         7     0.936     0.536  17.74   2
       207    982.4297    495.6644 300.3212930 +22.8176766     827.1414     72.31078      1.845     5.13     5.042675     20.39587     71.38203        16     1.498     0.842  31.94   2
       208    948.8586    498.3927 300.3099339 +22.8084099      388.088     72.27395      1.719     4.29     5.053096     20.39587     54.89575         6     1.346     0.443 -67.61   0
       209    643.5147    498.9839 300.2145542 +22.7171280      469.165     72.25553      1.234     2.87      5.23502     20.39587     63.94912         8     0.829     0.640   1.99   0
       210    525.9750    497.8903 300.1783014 +22.6815950     677.5127     72.23711      1.270     2.45     5.332051     20.39587     122.2838        10     0.864     0.721  60.25   0
       211    996.1480    496.2906 300.3253698 +22.8219636     1228.464     72.32919      1.435     2.92     5.037032     20.39587     128.7186        19     1.094     0.960  20.22   0
       212    867.7805    494.5778 300.2858851 +22.7830356     2126.612     72.29237      1.579     3.50     5.006288     20.39587     245.0512        25     1.471     1.025  66.85   0
       213    620.9978    492.6092 300.2096097 +22.7085503     546.6791     72.10799      1.396     2.89     5.335503     20.39587     74.86839         8     0.793     0.714 -28.30   0
       214    407.1870    492.5252 300.1430657 +22.6444530     324.0822     72.31078      1.390     3.47     5.038234     20.39587      38.7979         5     0.807     0.432 -21.63   0
       215    905.9920    489.6281 300.2994090 +22.7930549     4227.548     72.29237      1.395     2.65     5.050462     20.39587     571.7865        30     1.140     1.109 -15.63   0
       216    460.0390    491.2833 300.1599189 +22.6599372     394.3805     72.25553      1.195     2.11     5.144549     20.39587     63.43756         7     0.702     0.621  -3.79   0
       217    547.1103    489.4458 300.1876244 +22.6855026      288.735     72.27395      1.309     2.88     5.365909     20.39587     43.63845         5     0.735     0.587  70.79   0
       218    467.4217    488.9469 300.1629756 +22.6614787     163.2101     72.29237      1.115     4.23     5.156969     20.39587     27.88062         5     0.806     0.633  -7.16   0
       219    621.0482    488.5900 300.2109304 +22.7074106     437.4345     72.31078      1.527     3.43     5.335503     20.39587     42.73338         5     0.764     0.447 -19.44   0
       220    643.6959    486.1907 300.2187645 +22.7135064     197.2322     72.21867      1.187     4.18      5.23502     20.39587     36.39958         6     0.919     0.587 -26.95   0
       221    566.5931    485.3052 300.1950360 +22.6901510     433.6394      72.1818      1.339     2.32     5.364523     20.39587     50.77839         5     0.695     0.450 -68.17   0
       222    997.9164    480.3165 300.3311084 +22.8178997     663.0762     72.42115      1.313     2.85     5.058586     20.39587     88.71515        10     0.960     0.666  10.95   0
       223    137.7508    479.5240 300.0634846 +22.5599402     942.1442     72.29237      1.527     3.84     4.909022     20.39587      125.432        16     1.353     0.823  50.38   0
       224    404.2339    473.3528 300.1483712 +22.6380619     149.2085     72.32919      1.095     3.40     5.002612     20.39587      34.3804         5     0.740     0.452  15.25   0
       225    130.7643    470.1540 300.0643548 +22.5551557     411.7587     72.32919      1.258     3.97     4.921288     20.39587     55.94838         9     0.980     0.836 -71.03   0
       226    994.1710    469.4323 300.3334737 +22.8136486     242.6129     72.29237      1.003     3.14     5.064631     20.39587     44.48326         5     0.728     0.469  16.70   0
       227    738.0573    463.8262 300.2554284 +22.7353459     427.8128     72.29237      1.363     3.81     4.728586     20.39587     67.76698        11     1.120     0.724  76.69   0
       228    627.2361    462.0197 300.2214845 +22.7016301     312.2122     72.31078      1.382     1.65     5.216661     20.39587     74.06046         7     0.664     0.611 -86.02   0
       229    679.5222    460.1802 300.2383712 +22.7167648     790.9967     72.29237      1.225     2.23     4.971684     20.39587     111.6941        10     0.851     0.673  -5.22   0
       230    994.2636    452.6119 300.3389636 +22.8088393     673.7292     72.23711      1.465     3.31     5.071187     20.39587     75.15252        11     0.917     0.835 -79.80   0
       231    740.2450    452.0961 300.2599184 +22.7326298     869.3466     72.31078      1.324     2.79     4.723446     20.39587     113.7483        12     0.903     0.829   9.40   0
       232    897.4331    448.7232 300.3100203 +22.7787318     835.3519     72.29237      1.153     2.21     5.040996     20.39587     143.1909        14     0.884     0.824  12.29   0
       233    881.8331    444.9889 300.3063674 +22.7729872     572.1544     72.27395      1.396     3.43     5.024245     20.39587     81.68217        11     1.115     0.731  -5.66   0
       234    862.0812    445.2217 300.3001323 +22.7671400     362.5474     72.25553      1.336     3.03     4.998121     20.39587     47.49304         6     0.842     0.507  34.38   0
       235    625.9849    442.7662 300.2273450 +22.6957229       3216.2     72.27395      1.305     2.25     5.128555     20.39587     524.6432        26     1.065     0.979  81.73   0
       236    397.9357    430.6195 300.1602834 +22.6239011      374.182     72.27395      1.885     4.39     4.984852     20.39587     34.74832         6     0.829     0.663  22.44   0
       237    986.1777    441.8710 300.3399278 +22.8033299     395.2115     72.32919      1.307     4.19     5.074998     20.39587     61.04233         8     1.034     0.667  37.54   0
       238    466.2781    429.8765 300.1817960 +22.6441687     445.2566     72.40276      1.267     2.62     5.245369     20.39587     55.91227         7     0.706     0.653 -17.77   0
       239    909.2014    421.5907 300.3224986 +22.7744538     473.7187     72.10799      1.196     2.83      5.04151     20.39587     87.49842        10     0.995     0.661  43.19   0
       240    995.8283    420.6948 300.3498131 +22.8001288     902.8516     72.20024      1.485     3.07     5.084992     20.39587     111.7974        16     1.082     0.914  -1.69   0
       241    645.4395    419.1086 300.2410850 +22.6947524     390.4811     72.29237      1.482     2.67     4.923873     20.39587     58.54486         8     0.874     0.613 -33.37   0
       242    736.7440    416.7372 300.2703053 +22.7214182     956.4886     72.34759      1.269     2.20      4.69518     20.39587     185.8226        15     0.945     0.855  23.49   0
       243    532.3359    417.0334 300.2065311 +22.6602725     463.0631     72.29237      1.323     3.71      5.33933     20.39587     54.39433         9     0.976     0.720  41.83   0
       244    240.4077    414.7483 300.1164287 +22.5721253     653.0155     72.29237      1.403     2.43     4.886408     20.39587     116.8193        15     1.104     0.923  59.55   0
       245    302.9195    410.5754 300.1372261 +22.5896660     3831.162     72.27395      1.406     2.60     4.927993     20.39587     520.1036        28     1.164     1.041  39.53   0
       246    250.0682    405.3170 300.1224940 +22.5723133     7507.141     72.40276      1.384     2.66      4.90437     20.39587     879.6438        34     1.216     1.062  51.69   0
       247     95.1981    405.6815 300.0742271 +22.5259847     3000.632     72.20024      0.834     2.28     4.962331     20.39587     890.1631        10     0.808     0.454  22.83   3
       248     91.1363    405.0420 300.0731723 +22.5245832     3132.585     72.29237      0.480     0.96     4.963385     20.39587     2098.986         8     0.486     0.306   0.65   3
       249    754.7644    405.6495 300.2795207 +22.7236279     174.0645     72.31078      0.989     3.38     4.731687     20.39587     40.08453         5     0.762     0.434  18.45   0
       250    628.8616    405.2557 300.2404169 +22.6858055     382.1779     72.36598      1.497     3.44     4.949842     20.39587     43.17108         6     0.755     0.559 -39.46   0
       251   1016.0671    400.3198 300.3627418 +22.8003266     1895.854     72.40276      1.505     3.04     5.085495     20.39587     225.5027        23     1.129     1.066   4.83   0
       252    390.9336    399.5735 300.1681810 +22.6128855     4838.944     72.27395      1.337     2.51     4.942858     20.39587     704.4171        28     1.089     1.032  83.95   0
       253     96.0751    401.1109 300.0759830 +22.5249357     2771.653     72.43953      0.492     2.20     4.963353     20.39587     1946.075         8     0.396     0.373 -63.96   0
       254    635.0887    396.3409 300.2452502 +22.6851089     18598.55     72.36598      1.299     2.42     4.902553     20.39587     2728.103        55     1.268     1.128  40.59   0
       255    482.2176    397.7112 300.1971981 +22.6397047     310.2691     72.21867      1.568     4.12      5.33813     20.39587     55.59066         5     1.017     0.490  57.79   0
       256    652.6423    396.5497 300.2506511 +22.6904268     820.1857     72.31078      1.866     6.41     4.848032     20.39587      70.4049        15     1.515     0.761 -37.60   0
       257    262.2333    394.6628 300.1297352 +22.5729007      254.075     72.29237      1.069     3.00     4.913639     20.39587     41.87084         6     0.741     0.612  58.37   0
       258    832.1168    387.0519 300.3096708 +22.7414439     271.4492     72.32919      1.057     3.19     4.799808     20.39587     60.06044        10     0.951     0.720  22.61   0
       259    255.0732    383.6658 300.1310772 +22.5675965     393.9801     72.32919      1.285     3.12     4.910909     20.39587     44.28343         7     0.729     0.668  -6.69   0
       260     49.3974    382.2506 300.0675980 +22.5055250     93.01229     72.29237      1.149     4.55     4.973341     20.39587     28.49947         5     0.815     0.722 -27.98   0
       261    968.8108    379.0954 300.3548861 +22.7800777     715.0341     72.21867      1.382     3.18     5.066568     20.39587     85.44552        10     0.902     0.863 -10.98   0
       262    505.7886    378.3604 300.2108166 +22.6412075     403.6931     72.27395      1.239     2.52     5.277737     20.39587     48.76249         6     0.708     0.600  55.42   0
       263    189.7761    376.3843 300.1131349 +22.5459313     1977.331     72.29237      1.426     2.71     4.930037     20.39587     246.8194        21     1.156     0.966  82.02   0
       264    678.3301    377.1618 300.2649469 +22.6925484     338.1952     72.25553      1.345     3.30      4.77743     20.39587     48.88286         7     0.765     0.627  80.86   0
       265    989.5871    366.2017 300.3655528 +22.7825878     1354.682     72.12645      1.472     2.73     5.065035     20.39587     162.9301        19     1.092     1.019 -29.51   0
       266    575.7651    365.8071 300.2366811 +22.6585640     6532.291     72.29237      1.297     2.23     4.993358     20.39587     1078.055        30     1.107     0.997  47.80   0
       267    290.7181    365.2818 300.1481297 +22.5730015     549.7465     72.42115      1.212     2.20     4.876101     20.39587     104.6818        10     0.897     0.653  -0.01   0
       268    148.4978    358.2495 300.1061864 +22.5283494     452.0241     72.34759      1.223     4.17     4.968823     20.39587     65.50513        10     1.199     0.622  40.79   0
       269    835.7726    357.8668 300.3202823 +22.7341470     441.3037     72.27395      1.392     2.94      4.67983     20.39587     52.86251         6     0.763     0.577  -0.92   0
       270    779.9525    354.8023 300.3038742 +22.7165529     1251.307     72.27395      1.441     2.61     4.821122     20.39587      180.465        16     1.144     0.787  77.50   0
       271    689.8324    355.8618 300.2754432 +22.6898708     519.3568     72.32919      1.271     2.83     4.760701     20.39587     79.33069         8     0.931     0.581 -63.40   0
       272    482.4624    352.0602 300.2120891 +22.6266624     6119.937     72.32919      1.298     2.29     5.335958     20.39587     874.8134        35     1.190     1.039  49.65   0
       273    971.6567    346.7778 300.3662620 +22.7716344     666.9086     72.31078      1.411     3.16     5.047271     20.39587     84.65701        12     1.059     0.750  39.72   0
       274    874.4325    346.4945 300.3360279 +22.7424507     1523.513     72.27395      1.305     2.14     4.584916     20.39587     209.0059        16     0.937     0.896 -55.34   0
       275    467.2476    341.0694 300.2109189 +22.6189461     422.6962     72.27395      1.213     3.25      5.28956     20.39587     63.19949         9     0.928     0.641 -20.40   0
       276    549.8135    338.7337 300.2373842 +22.6430100     491.8593     72.25553      1.364     2.74     5.010908     20.39587     67.69461         8     0.838     0.649 -82.56   0
       277    827.7846    337.3691 300.3244432 +22.7258615     364.1992     72.29237      1.415     3.82     4.745885     20.39587     46.85566         5     0.913     0.458 -47.94   0
       278    530.2208    336.5220 300.2320007 +22.6365053     240.8624     72.29237      1.041     4.18     5.099829     20.39587     43.13577         6     1.012     0.492  -5.70   0
       279    847.1840    334.0828 300.3315584 +22.7307243     552.0679     72.25553      1.242     2.53     4.659037     20.39587     84.64262         9     0.758     0.752  57.03   0
       280    369.9713    331.2729 300.1838217 +22.5869847     2411.151     72.31078      1.281     2.47      5.03091     20.39587      319.881        21     1.051     0.922  38.48   0
       281     88.3799    328.6784 300.0970947 +22.5018356     1047.238     72.29237      1.472     2.84     5.053287     20.39587     151.5246        14     1.043     0.869  -4.83   0
       282    339.3491    320.6785 300.1777309 +22.5747651     30270.87     72.29237      1.362     2.33     5.084512     20.39587     4548.592        59     1.266     1.127  52.98   0
       283    874.1784    318.1964 300.3451309 +22.7342367     1401.745     72.25553      1.366     2.54     4.698911     20.39587     200.4149        19     1.132     0.897  66.69   0
       284    829.4825    316.4940 300.3317460 +22.7203672     323.4409      72.4579      1.390     3.78     4.787479     20.39587     39.64143         9     0.898     0.804 -17.73   0
       285     35.6905    308.3535 300.0873153 +22.4802030     4938.312     72.27395      1.616     2.95     5.415722     20.39587     613.4617        41     1.396     1.261  71.58   0
       286    789.4852    307.2106 300.3222883 +22.7057234     370.9522     72.23711      1.118     2.07     4.863573     20.39587     80.49828         6     0.710     0.500  88.38   0
       287    213.4316    307.4178 300.1428673 +22.5332188     437.7903     72.27395      1.463     3.49     5.069306     20.39587     55.64701         7     0.965     0.490  -3.91   0
       288    437.9419    305.9343 300.2131961 +22.6000711     475.7629     72.32919      1.203     2.10      5.35454     20.39587     84.26342         9     0.760     0.700   7.40   0
       289    749.7589    300.4727 300.3120911 +22.6918920      1867.05     72.27395      1.241     2.16      4.80351     20.39587     305.8912        20     0.984     0.919  66.83   0
       290    558.0142    295.2156 300.2540573 +22.6329600     344.3268     72.23711      1.174     2.26     4.853786     20.39587     64.19004         7     0.695     0.655  -5.73   0
       291    965.0941    293.4220 300.3815270 +22.7543228     577.1235     72.21867      1.298     3.04     4.931702     20.39587     94.00583        10     0.911     0.851  60.36   0
       292    411.5516    285.0347 300.2117623 +22.5861597     2130.909     72.32919      1.470     3.20     5.470418     20.39587     251.8856        23     1.250     0.990  67.04   0
       293    623.4123    284.0496 300.2780493 +22.6493372     254.2488     72.32919      1.124     1.90     4.790009     20.39587     68.25474         7     0.690     0.651 -87.09   0
       294    850.6208    278.0968 300.3507945 +22.7156528     684.4937     72.20024      1.353     2.33     4.855191     20.39587     96.03177        11     0.903     0.699  17.57   0
       295    733.0580    275.7171 300.3149170 +22.6797739     486.8057     72.36598      1.423     2.53     4.816209     20.39587     71.26846         9     0.915     0.620  50.42   0
       296    750.3175    275.4512 300.3203826 +22.6848649     341.3548     72.31078      1.793     3.29     4.845459     20.39587     37.75832         5     0.719     0.482  13.48   0
       297    701.2111    274.7393 300.3053093 +22.6699574     320.5388     72.23711      1.360     1.84     4.810079     20.39587     56.68891         5     0.698     0.418 -14.03   0
       298    487.4246    264.4247 300.2420656 +22.6029670     1251.891     72.25553      1.234     2.32     5.343415     20.39587     161.1307        16     0.953     0.881 -84.54   0
       299    295.0255    264.8289 300.1820595 +22.5454400     353.4834     72.29237      1.246     4.26     5.290308     20.39587     59.01898         8     1.129     0.555 -16.47   0
       300    998.3592    260.8539 300.4024712 +22.7549082     258.5754     72.25553      1.084     2.39       4.9209     20.39587      47.2227         5     0.703     0.456 -73.77   0
       301    870.5305    258.1577 300.3634712 +22.7158774     247.5677     72.25553      1.410     4.02     4.897173     20.39587     35.23726         6     0.920     0.623  -9.64   0
       302    732.2732    256.3740 300.3209470 +22.6739772      2172.52     72.29237      1.260     2.30     4.839156     20.39587     321.4705        20     0.982     0.951 -78.91   0
       303    993.7086    250.7878 300.4042854 +22.7506206     3292.644     72.23711      1.491     2.72     4.922533     20.39587     389.7491        28     1.229     1.069 -89.61   0
       304    440.4345    240.0430 300.2353458 +22.5818845      675.383     72.34759      1.363     3.03     5.420349     20.39587     96.77006        14     1.091     0.830   2.73   0
       305    115.4780    234.2463 300.1361482 +22.4828455     1390.488     72.29237      1.673     3.19     5.488605     20.39587     161.9966        22     1.348     1.029 -14.69   0
       306    146.0564    234.1727 300.1456774 +22.4919898     635.2209     72.29237      1.528     4.75     5.376871     20.39587     68.25681        14     1.271     0.953  58.50   0
       307   1009.0764    231.2634 300.4154136 +22.7496014     446.1267     72.36598      1.249     4.36     4.908286     20.39587     59.28359         8     0.875     0.618  40.54   0
       308    852.8154    227.9448 300.3677468 +22.7018852      316.627     72.27395      1.435     3.85     5.016884     20.39587     52.61892         7     1.068     0.560  48.29   0
       309    199.3741    226.2258 300.1648315 +22.5056873     428.1605     72.25553      1.282     2.67     5.388712     20.39587      68.7268         9     0.859     0.672 -35.49   0
       310    994.4641    224.2175 300.4131395 +22.7432020      241.789     72.27395      1.185     3.16      4.92946     20.39587     46.86457         6     0.848     0.651   0.91   0
       311    875.7452    220.4010 300.3773440 +22.7065780     303.9935     72.21867      1.048     2.11     5.013861     20.39587     55.09191         5     0.673     0.468 -17.58   0
       312    804.0004    217.7997 300.3558169 +22.6843564     552.0155     72.07106      1.269     2.61     5.211148     20.39587     110.0044        11     0.954     0.707  68.48   0
       313    394.4893    217.5622 300.2283369 +22.5616610     377.4212     72.27395      1.058     2.41      5.44132     20.39587     64.68028         5     0.680     0.476  71.61   0
       314    894.8614    211.0448 300.3863403 +22.7096075     416.4986     72.32919      1.551     2.31     5.059139     20.39587     46.90552         5     0.621     0.560   4.97   0
       315    902.1048    207.0012 300.3899109 +22.7106120     1990.379     72.20024      1.319     2.39     5.079262     20.39587     292.7968        18     0.975     0.897  55.81   0
       316    320.5624    203.9560 300.2097462 +22.5356038     2272.984     72.36598      1.439     2.77     5.446033     20.39587     289.4303        26     1.229     1.001  54.35   0
       317    398.5582    199.1884 300.2355616 +22.5576000     992.9083     72.29237      1.387     2.89     5.448526     20.39587     123.2769        18     1.056     0.988 -33.26   0
       318    800.3635    198.5523 300.3609251 +22.6777320     505.1865     72.32919      1.499     3.38     5.294401     20.39587     62.58067         9     0.958     0.674  35.55   0
       319    150.6518    199.3594 300.1583956 +22.4833689     272.9507     72.31078      1.289     2.84     5.430441     20.39587     54.88347         5     0.727     0.462 -78.12   0
       320    215.2040    191.3129 300.1810755 +22.5004029     696.4842     72.21867      1.408     3.13     5.424583     20.39587     79.19321        11     0.919     0.784  84.96   0
       321    753.2156    188.3054 300.3495508 +22.6606724     1864.444     72.21867      1.305     2.50     5.201501     20.39587     234.2043        19     1.038     0.911  79.48   0
       322    818.0215    188.0270 300.3698437 +22.6799898      540.614     72.29237      1.190     2.43     5.298203     20.39587     100.3308         9     0.804     0.737  61.86   0
       323    236.6940    184.6066 300.1899330 +22.5049159     588.3115      72.1818      1.493     3.99     5.428794     20.39587     60.72078        11     1.029     0.813 -87.73   0
       324   1023.7736    180.9821 300.4363069 +22.7395303     399.1254     55.66841      1.115     2.65     5.261427     20.39587       100.76         5     0.877     0.363  74.88  24
       325    757.2937    179.7573 300.3535939 +22.6594347     743.8602     72.31078      1.200     2.70     5.264232     20.39587     118.5876        12     1.029     0.683  42.18   0
       326    526.7712    180.7268 300.2814612 +22.5906954     307.7888     72.31078      1.223     1.83     5.230523     20.39587     66.42236         5     0.692     0.425  14.26   0
       327    677.8672    178.9626 300.3290984 +22.6354297     1358.877     72.27395      1.291     2.21     5.198178     20.39587     198.2948        15     0.923     0.864 -29.18   0
       328    499.0980    175.4792 300.2745461 +22.5808995     443.5885     72.42115      1.422     1.89     5.375832     20.39587      56.5685         6     0.707     0.499   3.05   0
       329    873.2440    170.4882 300.3927505 +22.6914712     1559.112     72.29237      1.373     2.46     5.265403     20.39587     198.5673        22     1.174     1.033  56.74   0
       330    604.1527    170.7137 300.3088079 +22.6109880     983.4193     72.25553      1.294     2.21     5.259014     20.39587      171.535        13     0.950     0.772 -75.66   0
       331    885.2679    169.7790 300.3967304 +22.6948654      818.551     72.29237      1.407     2.43     5.265403     20.39587      128.299        14     1.025     0.826 -39.61   0
       332    444.1879    166.6055 300.2603289 +22.5619037     128.6027     72.16335      1.244     3.44     5.461293     20.39587     23.67055         5     0.763     0.447 -18.65   0
       333   1002.0458    159.9808 300.4363368 +22.7269866     1216.447     72.32919      1.497     2.65     5.402909     20.39587     152.4496        16     1.032     0.941 -32.00   0
       334     25.8032    156.5034 300.1334885 +22.4336412     409.1127     72.20024      1.662     2.40     6.174731     20.39587     71.58038         6     0.815     0.496  45.64   0
       335    236.2038    152.8606 300.2000735 +22.4956490     678.9258     72.27395      1.348     3.06     5.435791     20.39587     98.75095        11     0.912     0.876  62.47   0
       336     97.8238    147.4134 300.1588166 +22.4526170     2259.362     72.29237      1.599     3.03     5.768297     20.39587     267.0071        26     1.267     1.124  57.98   0
       337    921.0146    144.9292 300.4159372 +22.6984121     629.2002     72.29237      1.239     2.45     5.328612     20.39587     120.3644        11     0.906     0.761  39.67   0
       338     47.6045    144.6841 300.1440944 +22.4367817     430.2383     72.21867      1.143     2.46     6.048384     20.39587     59.43099         7     0.804     0.592 -22.97   0
       339    236.6511    142.5755 300.2035470 +22.4928282     422.6531     72.31078      2.093     6.02     5.435412     20.39587     42.40977         7     1.578     0.646 -46.64   0
       340    255.2655    140.9095 300.2098764 +22.4979266     5878.856     72.42115      1.461     2.72     5.429852     20.39587      737.631        35     1.250     1.122  66.55   0
       341     39.4377    135.1618 300.1446436 +22.4315993     1270.028     72.36598      1.543     3.12     6.102912     20.39587     144.2235        22     1.246     1.042 -86.09   0
       342    238.5320    131.7398 300.2076448 +22.4902786     621.1918     72.32919      1.531     3.02     5.434697     20.39587     82.80154        11     1.030     0.738 -44.35   0
       343    899.4342    122.6666 300.4164238 +22.6855496     3641.154     72.29237      1.421     2.49     5.339543     20.39587     494.3844        32     1.198     1.117 -73.98   0
       344   1003.1523    121.4482 300.4491754 +22.7162286     2740.813     72.32919      1.487     2.56      5.43615     20.39587     383.0066        28     1.175     1.156  37.01   0
       345    448.8748    117.8619 300.2775907 +22.5492970      620.607     72.32919      1.294     2.42     5.429671     20.39587     82.09546         8     0.789     0.640 -37.45   0
       346    373.0153    109.7372 300.2566142 +22.5242421     625.7762     72.25553      1.441     2.41     5.428663     20.39587     90.95698         7     0.804     0.648   8.23   0
       347    377.1460    108.3100 300.2583622 +22.5250691     479.9044     72.32919      1.920     4.63     5.426901     20.39587     47.06826         8     0.931     0.654 -10.16   0
       348    139.0015    106.4759 300.1848867 +22.4531984     696.8374      72.1818      1.896     4.05     5.654023     20.39587     71.80724        11     1.270     0.654  46.61   0
       349    500.2414    104.8985 300.2977845 +22.5609524     1689.063     72.27395      1.337     2.68     5.406911     20.39587     230.5842        20     1.181     0.911  76.39   0
       350    562.1838    104.5540 300.3171851 +22.5794001     434.1877     72.31078      1.457     3.77     5.393239     20.39587     55.73856         7     0.953     0.582  21.02   0
       351    428.3566    105.4317 300.2752333 +22.5395792      474.402     72.34759      1.247     2.89     5.422207     20.39587      62.1123         9     1.010     0.587  13.41   0
       352    243.7137    100.2840 300.2194529 +22.4827932     414.8214     72.40276      1.271     4.27     5.432728     20.39587     45.44136         9     0.940     0.681  22.94   0
       353    788.6605     94.8271 300.3909070 +22.6443933     319.1967     72.31078      1.124     2.75     5.463025     20.39587      55.7766         9     0.858     0.690 -15.06   0
       354    635.9918     90.9962 300.3445704 +22.5975975     277.5086     72.12645      1.404     3.56     5.467435     20.39587      33.0963         5     0.969     0.380  30.19   0
       355    934.3088     89.4945 300.4380555 +22.6864383     259.6409      72.4579      0.991     2.19     5.401688     20.39587     57.86545         5     0.670     0.477 -18.66   0
       356    780.9185     85.4965 300.3915180 +22.6393922     324.0917     72.43953      1.266     3.39     5.442564     20.39587     53.25167         8     0.906     0.614  50.89   0
       357    274.2673     84.7649 300.2339862 +22.4874869     6015.259     72.29237      1.438     2.78     5.434299     20.39587     811.9749        35     1.265     1.084  62.25   0
       358    125.3890     84.2403 300.1878622 +22.4427320     568.5225     72.29237      1.309     2.97     5.901332     20.39587     67.76005         9     0.863     0.677 -17.51   0
       359    903.7540     82.3729 300.4308331 +22.6752479     272.8554     72.32919      1.387     4.53     5.372577     20.39587     31.72657         5     0.830     0.702  83.92   0
       360    246.0894     78.6697 300.2271974 +22.4772943     350.6481      72.4579      1.386     3.51     5.461054     20.39587     47.64293         7     1.005     0.503 -45.96   0
       361    289.7725     76.0389 300.2416375 +22.4896239     359.1524     72.31078      1.269     2.76     5.430868     20.39587     60.79621         5     0.923     0.557  20.76   0
       362     35.9282     75.1426 300.1630071 +22.4133102     461.4064     72.32919      1.416     4.51     5.881645     20.39587      51.2392         9     1.219     0.710  58.42   0
       363    520.3929     70.1387 300.3153259 +22.5569925     6282.145     72.27395      1.341     2.49     5.298863     20.39587     792.8852        35     1.220     1.049  63.47   0
       364    405.9386     70.0778 300.2797149 +22.5227032     652.6719     72.34759      1.371     2.41     5.165518     20.39587     105.4964        11     0.939     0.710   1.65   0
       365    577.7368     64.8710 300.3348915 +22.5726457      232.847     72.32919      0.786     2.64     5.427356     20.39587     56.77055         5     0.886     0.345 -44.02   0
       366    772.8826     60.2014 300.3972117 +22.6297105     758.3461     72.20024      1.434     2.89     5.363965     20.39587     99.53157        13     1.020     0.778  64.65   0
       367    865.5612     58.9321 300.4265194 +22.6570761     365.7368     72.25553      1.159     2.64     5.325138     20.39587     63.54481         9     1.017     0.522  28.13   0
       368    212.9864     54.1235 300.2248578 +22.4603244     400.6321     72.31078      1.243     3.26     5.607252     20.39587     61.68186         8     0.800     0.688  41.08   0
       369    571.8787     52.8425 300.3369654 +22.5674330     412.9114     72.27395      1.180     4.60     5.435094     20.39587     58.10254         8     1.137     0.528  43.14   0
       370    648.7848     50.2735 300.3617549 +22.5897150     6265.792     72.29237      1.348     2.42       5.5531     20.39587     941.3303        32     1.196     1.042  75.59   0
       371    423.7860     49.1261 300.2920601 +22.5220250     1359.562     72.31078      1.377     2.57     4.869951     20.39587     195.8499        20     1.096     0.957 -85.50   0
       372    689.7948     47.7877 300.3753387 +22.6012743     843.6027     72.16335      1.336     2.91     5.535697     20.39587     128.0239        13     1.011     0.864  59.02   0
       373    759.7266     45.5889 300.3978465 +22.6215698     358.0429     72.31078      1.386     3.48     5.301534     20.39587     44.45303         5     0.738     0.473  13.98   0
       374    705.9722     44.1102 300.3815719 +22.6050580     413.1244     72.27395      1.103     2.16     5.443377     20.39587     108.7728         9     0.849     0.654  14.28   0
       375    975.8162     41.8149 300.4664586 +22.6851324     542.4371     72.25553      1.391     2.20     5.444951     20.39587     64.78032         8     0.771     0.627 -28.92   0
       376    172.4007     41.8298 300.2162218 +22.4446333     606.8815     72.25553      1.371     3.12     5.996173     20.39587     84.76432        12     0.998     0.784 -18.58   0
       377   1014.6995     41.3232 300.4787506 +22.6966207     269.7964     72.43953      1.246     3.44     5.449468     20.39587     42.87455         6     0.851     0.539  45.44   0
       378    744.3565     39.2283 300.3951170 +22.6151406     569.9148     72.31078      1.337     2.98     5.249392     20.39587     68.85275         9     0.885     0.658 -15.17   0
       379    692.9753     35.1633 300.3804211 +22.5985948     2755.095     72.31078      1.337     2.61     5.515866     20.39587     397.2813        25     1.153     0.979  80.33   0
       380    334.4243     35.5871 300.2686385 +22.4913721     427.7835     72.29237      1.372     4.41     5.456279     20.39587     50.95226         8     1.035     0.582 -45.05   0
       381    708.1377     34.0949 300.3854924 +22.6028251     800.7049     72.38438      1.644     4.05     5.412541     20.39587     99.71638        16     1.491     0.748  39.72   0
       382    779.4976     26.9860 300.4100383 +22.6221338      1518.64      72.1818      1.311     2.31     5.265463     20.39587     216.3934        19     1.052     0.897 -76.16   0
       383    939.7064     25.6051 300.4604463 +22.6696659     306.2482      72.1818      1.567     3.08     5.452145     20.39587      34.4452         5     0.717     0.462  16.83   0
       384    717.3436     19.9423 300.3929477 +22.6015087     675.9677     72.36598      1.235     2.69     5.309991     20.39587     106.0188        11     1.034     0.610  54.70   0
       385    523.2606     19.4474 300.3326466 +22.5432753     1134.951     72.34759      1.297     2.54     5.138555     20.39587     138.6104        14     0.970     0.779  33.04   0
       386     95.9890     18.9947 300.1998673 +22.4151793      611.753     72.16335      1.578     4.82     6.192873     20.39587     59.55063        11     1.265     0.867 -36.86   0
       387    322.1362   1015.9311 299.9464809 +22.7691511     1293.906     72.34759      2.273     5.00     10.51598     20.39587     86.66556        23     1.362     1.314   8.59  16
       388    808.9810     16.7053 300.4225615 +22.6279974     382.8014     72.21867      1.298     2.79     5.295243     20.39587     62.04193         6     0.847     0.484  35.08   0
       389    759.3776   1017.1815 300.0822133 +22.9006752     398.9995     72.29237      2.119     5.19     3.460573     20.39587     40.32051         5     0.955     0.837  26.39   0
       390    158.4270   1010.8605 299.8972258 +22.7185580     1315.982     72.29237      3.006    10.30     94.38614     20.39587     59.48994        22     1.992     1.485   6.27   2
