#   1 NUMBER                 Running object number                                     
#   2 X_IMAGE                Object position along x                                    [pixel]
#   3 Y_IMAGE                Object position along y                                    [pixel]
#   4 ALPHA_J2000            Right ascension of barycenter (J2000)                      [deg]
#   5 DELTA_J2000            Declination of barycenter (J2000)                          [deg]
#   6 FLUX_APER              Flux vector within fixed circular aperture(s)              [count]
#   7 FLUXERR_APER           RMS error vector for aperture flux(es)                     [count]
#   8 FLUX_RADIUS            Fraction-of-light radii                                    [pixel]
#   9 FWHM_IMAGE             FWHM assuming a gaussian core                              [pixel]
#  10 BACKGROUND             Background at centroid position                            [count]
#  11 THRESHOLD              Detection threshold above background                       [count]
#  12 FLUX_MAX               Peak flux above background                                 [count]
#  13 ISOAREA_IMAGE          Isophotal area above Analysis threshold                    [pixel**2]
#  14 A_IMAGE                Profile RMS along major axis                               [pixel]
#  15 B_IMAGE                Profile RMS along minor axis                               [pixel]
#  16 THETA_IMAGE            Position angle (CCW/x)                                     [deg]
#  17 FLAGS                  Extraction flags                                          
         1    711.6892     17.1012 300.3929544 +22.6015436     746.6079     72.42466      1.402     2.90     6.498946     20.38652     93.21442        14     0.996     0.879 -86.66   0
         2    517.2615     16.4155 300.3325969 +22.5431738     1133.737     72.20397      1.581     2.20        6.262     20.38652     165.2577        17     1.066     0.909  74.06   0
         3    421.1356     14.1251 300.3034070 +22.5137462     745.4184     72.29601      1.377     3.76     6.319733     20.38652     96.74491        15     1.232     0.862  75.65   0
         4    803.1882     13.2589 300.4227264 +22.6278065     442.1328      72.2408      1.315     4.37      6.46533     20.38652     63.80069         9     1.152     0.655  53.76   0
         5    192.5775      4.2719 300.2354805 +22.4424889     3930.688     69.71116      1.704     3.14     5.813264     20.38652     412.7226        40     1.461     1.306  41.24  24
         6    760.5935      5.1164 300.4120837 +22.6127239     545.0353     71.70492      1.325     2.73      6.58915     20.38652     78.75093        11     0.891     0.834  40.62  16
         7    614.9781      1.8946 300.3677424 +22.5682368     300.0295     59.32161      1.417     4.56     6.484885     20.38652     34.84925         7     1.073     0.550 -31.95  24
         8    518.4634      2.0835 300.3376153 +22.5394122     311.4962     60.43219      1.340     4.54     6.326686     20.38652     40.03853         7     1.045     0.561  14.56  24
         9    194.9076    992.8638 299.9152230 +22.7269530     2109.127     72.36955      6.550    17.18     74.53228     20.38652     59.36694        50     3.509     2.339  69.23   3
        10    221.3714    987.0279 299.9253511 +22.7332203     4491.377     72.22238      9.307    41.16     65.59245     20.38652      93.5848       474     9.422     4.990  85.79  19
        11    240.3660    985.3272 299.9318117 +22.7384317     6379.404     72.25921     10.408    43.57      49.9031     20.38652     113.2191       598     9.554     5.962  84.33  19
        12    259.7318    974.9126 299.9412233 +22.7412554     9420.914     72.36955     18.334    65.84     27.99045     20.38652     191.9487      1457    19.203     6.264  74.25  19
        13    188.0379    977.8069 299.9179855 +22.7205746     1856.097     72.27761      4.811    16.46     62.63343     20.38652     50.77142        69     3.888     1.936  88.20   1
        14     15.0656    993.1436 299.8592322 +22.6730597      1715.45      72.3144     11.475    14.04    -10.33639     20.38652     47.46884        44     3.127     1.754  45.32  19
        15      2.8798    973.4191 299.8618630 +22.6637488      1656.55     64.27155      8.097     9.94    -14.03137     20.38652     64.68006        39     2.129     1.592 -88.86  27
        16    195.3140    999.9417 299.9130465 +22.7291043     2317.888     72.36955      4.823    21.24     80.62286     20.38652     68.01596        91     6.011     2.084   4.21  19
        17      2.1891    989.0919 299.8565497 +22.6680333     1434.701     60.91442     11.312    13.80    -21.48979     20.38652     55.16006        43     3.611     1.466 -76.59  27
        18    947.1964    972.0522 300.1563078 +22.9465399      851.682     72.25921      2.105     8.82     3.920355     20.38652     43.13865        21     1.538     1.413 -78.72   0
        19    155.0000    960.2421 299.9134275 +22.7056251     698.6898      72.2408      3.060     3.82     51.63733     20.38652     42.23371         5     1.404     0.298  78.92   3
        20    142.3506    949.6309 299.9129468 +22.6987870     1403.516     72.29601     10.023    11.53     40.59499     20.38652     46.50156        24     2.638     1.403  57.30   3
        21    149.6670    954.3724 299.9136790 +22.7023419     1397.362      72.2408      4.354     3.26     45.70877     20.38652     42.47181         5     0.784     0.631  35.29   3
        22    169.1418    957.4815 299.9187224 +22.7090770     1115.946      72.3144      4.086     8.92     48.79852     20.38652      41.9295        17     1.615     1.375 -10.45   3
        23    164.2020    955.8969 299.9177020 +22.7071404     1116.699     72.16712      7.565    10.97      49.0776     20.38652     53.03659        22     2.576     1.301 -25.79   3
        24    672.9409    954.5691 300.0764842 +22.8593333      6929.23     72.27761      1.930     4.27     4.206793     20.38652     445.5475        47     1.522     1.436  45.05   0
        25    519.2940    977.3240 300.0212195 +22.8197994     183.4962      72.4063      1.332     4.38      4.10259     20.38652     34.72079         5     0.933     0.585 -52.34   0
        26    109.5856   1011.5464 299.8826185 +22.7067043     3809.422     72.27761     14.217    78.54     89.65082     20.38652     146.2323      1611    16.893    10.132  44.33  27
        27    552.7237    949.0914 300.0408153 +22.8217216     488.5535      72.4063      1.923     5.54     4.112701     20.38652     33.58474         8     1.244     0.696 -17.33   0
        28      1.1689    947.9000 299.8696327 +22.6559211     386.8666     55.21096      1.999     3.58    -4.514703     20.38652     34.10402         5     1.330     0.278 -78.85  24
        29    660.1137    985.3986 300.0624567 +22.8643370     9568.914     72.18555      2.055     5.09     4.206793     20.38652     550.9625        54     1.659     1.493 -26.67   3
        30    581.5654    945.2885 300.0510357 +22.8292774     1661.525      72.2408      1.886     4.82     4.161427     20.38652     109.0987        27     1.516     1.189  26.45   0
        31    376.5993    999.0225 299.9697389 +22.7832287      330.021     72.18555      1.520     5.91      4.43819     20.38652     39.44211         9     1.173     1.006 -17.66   0
        32    153.7639   1008.8463 299.8972304 +22.7191887     1855.594     72.29601      3.434    16.48     90.89199     20.38652     57.53963        64     3.309     2.281 -37.94  18
        33    475.2352    941.9559 300.0190073 +22.7964398     991.6882      72.3144      1.827     4.56     4.151574     20.38652     83.41573        20     1.345     1.108 -29.37   0
        34    405.7854    939.5840 299.9981598 +22.7749324     6819.281     72.20397      1.899     4.13     4.443855     20.38652     494.7279        45     1.466     1.451   7.91   0
        35    150.4240    958.4641 299.9125833 +22.7037422     1412.969      72.2408      6.494    11.43     48.96855     20.38652     45.18213        31     2.328     1.564  51.88   3
        36    438.1261    926.6760 300.0124252 +22.7809277     552.0496     72.35117      1.819     5.40     4.337651     20.38652     41.77237        12     1.214     0.773 -39.64   0
        37    952.1759    918.6862 300.1752234 +22.9327040     2325.227     72.22238      2.213     5.40     4.002086     20.38652     109.8472        38     1.721     1.414  31.25   0
        38    152.0000    954.1384 299.9144804 +22.7029748     995.9861     72.20396      3.914     5.00      46.1531     20.38652     50.54715         7     1.731     0.408  69.44   3
        39    741.2213    908.1256 300.1128726 +22.8664652     664.5997      72.2408      1.921     6.26     4.259502     20.38652     50.34731        16     1.564     1.160  34.62   0
        40    775.7325    901.6303 300.1257435 +22.8749421     990.8046      72.2408      1.794     5.17     4.284381     20.38652     65.65457        20     1.275     1.154  36.12   0
        41    553.0452    902.4989 300.0560715 +22.8084467     406.5251     72.27761      1.782     6.02      4.16693     20.38652     31.13392        10     1.147     0.887  72.87   0
        42    755.4388    988.5228 300.0911486 +22.8938075      736.434      72.2408      2.163     4.73     4.172424     20.38652     49.03182        13     1.169     1.031   7.69   0
        43      6.1754   1011.5180 299.8504919 +22.6756570     3128.436     72.22238     13.596    48.72    -26.16092     20.38652     70.65054       586    11.594     5.681 -89.27  26
        44    798.0979    895.3622 300.1347552 +22.8798440      11549.8     72.25921      1.869     4.21     4.313408     20.38652     748.4048        51     1.470     1.439  31.26   0
        45    133.8220    898.7065 299.9268590 +22.6816266     890.7128     72.18555      4.210     4.39     14.67108     20.38652     33.72186         5     1.640     0.334 -29.15   1
        46    568.0522    992.1835 300.0315694 +22.8386833     2363.569     72.25921      1.990     4.66     4.137905     20.38652     154.7019        33     1.525     1.358 -13.44   0
        47     98.1594    917.3929 299.9096959 +22.6762837     4335.365     72.29601     18.564    49.34     9.796961     20.38652     84.65622       954    11.386     6.873 -33.12   3
        48    844.7973    895.3376 300.1493248 +22.8938291     285.9544     72.25921      1.794     4.74     4.313408     20.38652     31.47116         5     1.065     0.599 -59.94   0
        49    142.7724    889.9987 299.9324734 +22.6818152      606.477     72.22238      3.725     4.44     14.07215     20.38652      30.8219         5     1.335     0.419 -89.99   0
        50    108.9395    886.8430 299.9229823 +22.6707591     1195.078     72.25921      7.304     8.52     9.025259     20.38652     50.52532        25     1.579     1.431 -17.99   0
        51    503.4316    883.4688 300.0468105 +22.7881110     503.8031      72.2408      1.696     4.77     4.200415     20.38652     49.42402         9     1.113     0.903  75.29   0
        52    806.5884    877.5301 300.1432023 +22.8772672      1595.17     72.27761      1.852     4.30       4.3839     20.38652     88.26696        23     1.279     1.156  30.12   0
        53    191.7345    996.4312 299.9130756 +22.7270237     2105.201     72.25921      3.878    10.46     77.50695     20.38652     65.51321        39     2.147     1.759 -30.12   3
        54    657.9825    874.2141 300.0979611 +22.8317829     653.0125     72.22238      2.257     7.01     4.312413     20.38652     40.79502        15     1.488     0.927   1.48   0
        55    844.7079    870.6831 300.1573157 +22.8867217      941.659      72.4063      2.131     8.51     4.412926     20.38652     55.61234        20     1.666     1.214 -88.43   0
        56    893.0380    861.9058 300.1752437 +22.8986792     550.3331      72.2408      1.865     6.43     4.460077     20.38652     35.13472        11     1.400     0.828  37.12   0
        57    744.5710    860.9636 300.1292560 +22.8539273     691.8672     72.27761      1.709     4.72     4.467712     20.38652     56.49839        17     1.283     0.960  48.71   0
        58      4.4544    859.5837 299.8993757 +22.6315909     350.8493     70.18649      1.482     3.66     4.966737     20.38652     49.60548         9     1.014     0.739 -67.68  16
        59    755.8206    858.1944 300.1336633 +22.8565030     694.5505      72.2408      1.870     5.70     4.483832     20.38652     56.55252        15     1.266     1.094  57.89   0
        60    456.9771    857.3635 300.0408365 +22.7666916     4178.503     72.27761      1.703     3.58     4.335769     20.38652     349.0089        32     1.307     1.243 -15.75   0
        61    119.6467    846.3705 299.9394714 +22.6623662     410.6888     72.27761      1.922     3.76     6.453819     20.38652     40.26436         5     0.947     0.432 -75.98   0
        62    500.4158    845.6691 300.0581640 +22.7763586     266.6989     72.27761      1.522     5.01     4.313345     20.38652     34.83185         7     1.444     0.493 -19.43   0
        63    654.5828    987.5275 300.0600406 +22.8632899     8649.982     72.25921      1.989     4.45     4.206793     20.38652     455.8609        47     1.567     1.433  40.42   3
        64    182.2564    843.1335 299.9599893 +22.6802205     714.5004      72.3144      1.685     4.82     7.237761     20.38652     75.11368        15     1.305     1.148 -33.48   0
        65    159.3721    839.8243 299.9539499 +22.6724065     1559.757      72.2408      1.854     4.25     7.382794     20.38652     142.4454        26     1.393     1.223  12.28   0
        66     34.8595    829.4426 299.9186234 +22.6320730     454.4763      72.2408      1.519     4.71     5.077173     20.38652     41.39463         8     1.056     0.595  65.99   0
        67    985.3693    827.8914 300.2151107 +22.9165625     2131.677     72.20396      1.835     4.41     4.568437     20.38652     120.2775        30     1.405     1.291  20.90   0
        68    690.6547    828.3323 300.1230628 +22.8284012     542.0833     72.29601      1.936     5.72     4.615745     20.38652     33.87268         8     1.191     0.775  16.34   0
        69    462.1000    826.8076 300.0523672 +22.7594585     281.9261     72.16712      1.389     2.91     4.429263     20.38652     38.27073         5     1.003     0.517  33.26   0
        70    769.3371    821.6544 300.1497592 +22.8500596     663.0548      72.3144      1.715     5.42     4.674731     20.38652     49.13364        12     1.170     0.906 -76.15   0
        71    191.8343    821.6344 299.9699577 +22.6769272     363.4536     72.29601      1.371     4.29     6.009259     20.38652     46.54467         7     1.233     0.426  39.39   0
        72    637.0828    815.6051 300.1105079 +22.8086928     4793.509     72.18555      1.634     3.28      4.63915     20.38652      416.973        40     1.319     1.267  21.13   0
        73   1002.2116    815.6597 300.2243439 +22.9180918     210.8095      72.2408      2.564     3.83     4.584768     20.38652     35.80626         5     1.264     0.333  78.79   0
        74    127.3943    815.6575 299.9518656 +22.6558826     301.5805     72.22238      1.194     4.08     5.592592     20.38652     34.71314         5     0.982     0.484 -85.62   0
        75    439.3531    812.8386 300.0498277 +22.7486299     598.1042      72.3144      1.558     4.53      4.50911     20.38652     50.05997        14     1.123     0.908 -14.25   0
        76    187.3261    809.1963 299.9725997 +22.6720073     1427.494     72.16712      1.793     3.73     5.394467     20.38652     119.3091        22     1.236     1.126  26.94   0
        77    657.2292    808.0278 300.1192488 +22.8125546      655.593      72.2408      1.447     3.90     4.692058     20.38652      59.7093        14     1.100     0.897   3.00   0
        78    455.9128    807.1169 300.0568432 +22.7519524     288.2248     72.36955      1.272     3.86     4.507628     20.38652     36.55439         6     0.934     0.458  51.95   0
        79    206.8696    806.3823 299.9795919 +22.6770622     428.3357     72.29601      1.672     5.09     5.130544     20.38652     40.86249         8     1.082     0.677 -84.46   0
        80    813.0656    795.3743 300.1719376 +22.8556122     4209.444      72.2408      1.671     3.42      4.63663     20.38652     326.6917        35     1.313     1.268 -28.32   0
        81    221.6362    789.7739 299.9895835 +22.6767269     501.1518     72.27761      1.678     5.45     4.851476     20.38652     45.87384        10     1.199     0.699  -1.71   0
        82    530.2166    787.6816 300.0862979 +22.7686474     764.6127      72.2408      1.761     4.64     4.521426     20.38652      64.8876        17     1.306     0.969   1.74   0
        83    176.4438    785.4578 299.9769330 +22.6619341     1079.211     72.27761      1.710     3.84     5.022333     20.38652     92.10439        18     1.210     1.052  29.04   0
        84    591.7072    781.1915 300.1075602 +22.7852137     569.4425     72.16712      1.640     4.04     4.648263     20.38652     56.79559        10     1.105     0.720 -17.14   0
        85    326.1014    777.7135 300.0260005 +22.7045943     53549.18     72.42466      1.693     3.42     4.755952     20.38652     5312.565        90     1.478     1.409  16.41   0
        86    583.9464    776.7662 300.1065813 +22.7816173     1729.724     72.27761      1.693     3.38      4.62421     20.38652     146.2962        24     1.248     1.123  36.91   0
        87    996.9314    776.2473 300.2355106 +22.9051855     870.9177      72.2408      1.779     5.37     5.026715     20.38652     64.05018        22     1.399     1.152  -8.42   0
        88    254.7531    775.4986 300.0045242 +22.6825635     503.7912     72.29601      1.849     3.77     4.840312     20.38652     49.36719         8     1.042     0.695  56.55   0
        89    613.0989    772.9277 300.1169107 +22.7892518     891.0358     72.38792      1.518     3.49     4.673449     20.38652     82.75867        17     1.204     0.929  43.50   0
        90     12.4395    772.0628 299.9303100 +22.6088932     888.5306     72.25921      1.863     4.86     4.886127     20.38652     85.73087        19     1.381     1.119  19.39   0
        91    623.8907    769.9428 300.1212431 +22.7916287      1414.81      72.3144      1.226     5.47     4.667385     20.38652     795.4737        13     1.395     0.606 -81.65   0
        92    943.5328    769.3356 300.2210959 +22.8872089     293.4441      72.3144      2.044     6.22     5.028267     20.38652     33.16536         8     1.307     0.832  -8.29   0
        93    729.2819    767.7244 300.1548069 +22.8225704     474.1397     72.36955      1.410     3.73     4.841839     20.38652     68.20719         8     1.034     0.568  51.48   0
        94    375.8189    755.0000 300.0488548 +22.7129830     31960.25     72.16712      1.621     3.25     4.729493     20.38652     2803.593        72     1.405     1.377  -5.33   0
        95    767.1124    757.8088 300.1698229 +22.8310560      772.337     72.18555      1.618     3.48      4.77385     20.38652     62.82421        14     1.086     0.863  30.97   0
        96    390.0484    755.4589 300.0531342 +22.7173808     1989.394      72.3144      1.598     3.40     4.723973     20.38652     198.7182        28     1.355     1.132  27.89   2
        97    386.9714    749.4929 300.0541158 +22.7147461     539.8593     72.20396      1.674     4.34     4.741147     20.38652     51.29639        13     1.077     0.955 -51.34   3
        98    898.9630    751.1459 300.2131051 +22.8686349     2812.548     72.27761      1.666     3.44     4.991359     20.38652     197.2482        30     1.292     1.222 -68.48   0
        99    928.2659    749.1419 300.2228976 +22.8768346     366.2782     72.29601      1.531     5.25     5.220514     20.38652     35.98021         6     1.127     0.691  -4.28   0
       100    657.1591    746.9800 300.1390732 +22.7950038     895.2853     72.29601      1.554     3.61     4.619701     20.38652     85.13398        18     1.189     0.987 -58.66   0
       101    492.6721    747.0079 300.0878285 +22.7457181     516.5438      72.2408      1.528     4.42     4.566919     20.38652     44.85825         8     0.913     0.673 -33.87   0
       102    258.3141    746.7170 300.0149872 +22.6753737     905.7405     72.38792      1.728     3.70     4.840312     20.38652     99.83958        16     1.188     0.971  42.50   0
       103     63.4758    742.0399 299.9559278 +22.6155947     641.4655     72.22238      1.747     4.41     4.981299     20.38652     61.13267         9     1.439     0.579  61.68   0
       104    503.8296    741.7657 300.0930066 +22.7475574     854.1364     72.27761      1.609     3.86     4.572467     20.38652     84.96568        18     1.215     1.020   7.44   0
       105    904.9720    738.8453 300.2189780 +22.8669003     381.2411     72.29601      1.585     5.50     5.131432     20.38652     33.37356         9     1.248     0.683  43.77   0
       106    406.2448    738.0604 300.0638305 +22.7172428     331.2228     72.27761      1.415     3.70     4.770046     20.38652     41.04684         6     0.849     0.767  13.51   0
       107    449.8736    736.7162 300.0778485 +22.7299353     408.0797     72.36955      1.524     3.21     4.672523     20.38652     43.35701         7     0.842     0.596 -25.64   0
       108    361.9028    736.9674 300.0503852 +22.7036357     356.2071      72.2408      1.456     4.84     4.773127     20.38652     50.64315         7     1.236     0.538  35.57   0
       109     91.8043    736.1485 299.9666473 +22.6224027     486.4781     72.25921      1.622     5.33     5.014544     20.38652     47.51997        11     1.243     0.922 -77.07   0
       110    658.1958    736.3608 300.1428480 +22.7922649     268.4794     72.27761      1.359     4.34     4.603244     20.38652     39.42345         6     0.799     0.670 -38.55   0
       111    882.8792    733.2760 300.2138970 +22.8586837      322.257     72.36955      1.330     5.09     4.972754     20.38652      40.4906         8     1.024     0.716  61.23   0
       112    256.0095    731.2387 300.0193010 +22.6702415     619.5796     72.25921      1.630     3.82     4.857917     20.38652     60.45543        11     1.019     0.863 -22.26   0
       113    548.9008    720.0291 300.1141077 +22.7548247     699.2325     72.18555      1.501     4.03     4.664776     20.38652     63.61524        12     1.017     0.879 -58.99   0
       114    965.5186    716.5031 300.2451295 +22.8786107     4692.204      72.4063      1.824     3.80     5.544648     20.38652     358.4579        41     1.404     1.376 -16.83   0
       115    458.1478    719.0525 300.0861654 +22.7273450      458.782     72.29601      1.522     4.58     4.727377     20.38652     50.84245        10     1.117     0.666 -17.96   0
       116    570.8953    717.2167 300.1218724 +22.7606084     1408.322     72.18555      1.525     3.30     4.683173     20.38652     139.9717        21     1.176     0.990  27.11   0
       117    490.6558    716.9037 300.0969852 +22.7364715     413.7763     72.35117      1.755     4.71      4.68609     20.38652     36.50326         7     0.908     0.694 -24.80   0
       118    653.1481    712.4074 300.1490605 +22.7838735     341.3195     72.25921      1.418     3.93     4.723507     20.38652     39.07533         8     0.965     0.826  67.10   0
       119    953.9914    707.9799 300.2443031 +22.8727097      1750.55     72.22238      1.731     3.63     5.490929     20.38652     137.3578        23     1.213     1.102 -14.76   0
       120    316.7196    701.4283 300.0478757 +22.6798902     815.2345     72.27761      1.758     4.90     4.892928     20.38652     73.39144        17     1.268     1.072 -83.00   0
       121    182.3533    702.4026 300.0057649 +22.6398803     295.5327     72.25921      1.418     4.17     5.041266     20.38652     36.09102         6     0.896     0.552 -41.07   0
       122    984.9204    698.0305 300.2571875 +22.8791109     1740.858      72.2592      1.725     3.77     5.633121     20.38652     128.3918        26     1.380     1.148 -52.97   0
       123    780.4259    699.0560 300.1930702 +22.8181670     2750.726     72.25921      1.731     3.48     4.833446     20.38652     200.6704        31     1.489     1.086   3.86   0
       124    801.7635    690.2504 300.2025847 +22.8220283         1293     72.27761      0.636     2.95     4.840966     20.38652     813.4114         7     0.837     0.305 -23.27   0
       125      2.9159    688.8775 299.9543850 +22.5821808     818.3144     64.51938      1.830     5.00     4.886401     20.38652     64.24229        16     1.210     1.031  23.14  24
       126    165.4385    685.3804 300.0060368 +22.6299241     661.1155     72.27761      1.940     4.74     5.075377     20.38652     52.52781        12     1.172     0.784 -13.73   0
       127    862.6625    684.4677 300.2234548 +22.8386053     598.1824      72.3144      1.805     5.66     5.253699     20.38652     48.68301        14     1.287     0.953 -77.31   0
       128    898.7092    676.0352 300.2374385 +22.8469764     149067.2     72.22238      1.639     3.31     5.364735     20.38652     11960.03       158     1.533     1.475  -8.29   0
       129    661.4662    679.7245 300.1622739 +22.7769790     365.2308     72.33279      1.431     4.13     4.887759     20.38652      38.2701         7     0.999     0.488  83.04   0
       130    751.1917    676.4117 300.1913153 +22.8029054      812.282     72.14869      1.528     3.52     4.908746     20.38652     86.04889        14     1.086     0.956 -33.42   0
       131    931.6498    668.6647 300.2501096 +22.8547216     459.6711      72.3144      1.728     5.75     5.400173     20.38652     48.11514        10     1.282     0.877  -0.73   0
       132    584.9317    664.7018 300.1433105 +22.7497343     1677.781     72.35117      1.470     2.90     4.918268     20.38652     177.0832        21     1.106     1.039  51.77   0
       133    766.1563    662.0826 300.2006367 +22.8032711     9558.711     72.22238      1.499     2.97     4.896543     20.38652     874.6415        43     1.253     1.229  40.45   0
       134    267.6075    657.0130 300.0470288 +22.6524195     4961.666     72.14869      1.590     3.19     4.982598     20.38652     508.9571        35     1.274     1.215   6.44   0
       135    349.5771    655.2154 300.0731161 +22.6764767     1235.007     72.25921      1.560     3.43       4.9302     20.38652     125.7856        15     1.075     0.920 -19.11   0
       136    225.2022    652.5529 300.0352880 +22.6384255     402.0677      72.2408      1.518     6.06      5.04502     20.38652     58.54243         9     1.061     0.974  74.36   0
       137    558.1196    650.7155 300.1395034 +22.7376842     786.9973      72.4063      1.562     2.85       4.9361     20.38652     102.9943        14     1.061     0.858  15.19   0
       138    549.6478    642.8932 300.1394062 +22.7328994     3229.435     72.27761      1.467     2.72     4.944298     20.38652      403.858        28     1.169     1.080 -43.20   0
       139    539.7620    636.4619 300.1384168 +22.7280904     1404.399     72.27761      1.493     3.08     4.949884     20.38652     156.4506        21     1.153     1.069  87.64   0
       140    468.4636    636.1643 300.1163113 +22.7066400     355.8983     72.25921      1.283     4.38     4.941983     20.38652     41.18679         7     0.957     0.569   7.36   0
       141    933.5974    635.0398 300.2616433 +22.8456408     417.5772     72.27761      1.344     4.58     5.400098     20.38652     46.26073         9     1.062     0.682   9.58   0
       142    203.2364    632.8080 300.0348713 +22.6261735     543.6066     72.25921      1.228     3.10     5.114919     20.38652     65.13649        10     0.916     0.795 -40.10   0
       143    217.5641    630.9497 300.0399309 +22.6299361     656.1107     72.27761      1.669     5.10     5.046094     20.38652     55.64174        11     1.087     0.757  39.42   0
       144    986.3549    628.0237 300.2803842 +22.8594183     386.5673     72.27761      1.444     4.66      5.46639     20.38652     46.08223         9     1.312     0.681 -10.50   0
       145    464.5788    626.2623 300.1183188 +22.7026327     1723.295     72.22238      1.459     2.85     4.946759     20.38652     183.1901        22     1.168     1.026  69.40   0
       146    242.8094    627.9377 300.0487613 +22.6366406     639.2513     72.18555      1.574     4.03     4.976759     20.38652     80.33606        12     1.097     0.825   8.52   0
       147    563.9260    627.0848 300.1489895 +22.7326376     513.5632     72.36955      1.542     2.77     4.977716     20.38652     59.79169         9     0.798     0.735 -21.38   0
       148    118.5174    621.0538 300.0123481 +22.5973975     19863.49     72.29601      1.708     3.46     5.412921     20.38652     1844.183        59     1.451     1.364  17.57   0
       149     39.7499    622.7545 299.9873132 +22.5742631     746.6374     72.27761      1.948     4.77     5.005228     20.38652     79.63599        14     1.407     0.993  17.09   0
       150    584.6375    621.2430 300.1573389 +22.7371651     345.9486     72.35117      1.423     4.13     5.006221     20.38652     40.58837         7     0.873     0.823 -47.53   0
       151    549.6921    621.6151 300.1463331 +22.7268020     1012.177     72.18555      1.518     2.69     4.973712     20.38652     122.9285        14     0.955     0.891  51.04   0
       152    274.0311    628.1608 300.0584008 +22.6460648      448.298     72.25921      1.672     3.97     4.921735     20.38652     32.53316         6     0.937     0.482  34.76   0
       153    967.7239    608.0942 300.2810455 +22.8481122      1103.12      72.4063      1.670     3.87     5.388753     20.38652     102.0041        20     1.305     1.029 -29.56   0
       154     64.7294    605.1813 300.0007848 +22.5767134     1580.556     72.29601      2.057     4.69     5.247415     20.38652     109.8181        31     1.660     1.194 -89.76   0
       155    834.4432    606.0151 300.2401453 +22.8076111     464.6346     72.27761      1.403     3.69     5.138026     20.38652     54.25172         9     0.956     0.811 -66.26   0
       156    131.2640    606.1294 300.0211588 +22.5969376     309.6457     72.29601      1.334     3.44     5.459827     20.38652     29.94229         5     0.989     0.345 -46.15   0
       157    513.0071    602.4021 300.1411496 +22.7102928     514.1816     72.07492      1.435     2.32     5.009998     20.38652     66.20146         6     0.741     0.488   4.66   0
       158    906.7535    600.7523 300.2644086 +22.8277491     917.8314     72.27761      2.282     7.47     5.385075     20.38652     73.54271        18     1.924     0.812   6.94   0
       159    305.5854    601.2827 300.0769489 +22.6478091     307.9494      72.2408      1.449     4.03     4.875195     20.38652     34.75802         8     0.967     0.609  17.58   0
       160    469.5295    594.3075 300.1302409 +22.6949407     750.3552     72.38792      1.489     4.36     5.002746     20.38652      86.5833        13     1.205     0.769  45.48   0
       161    617.6891    593.0815 300.1767841 +22.7389779     466.8672     72.36955      1.479     4.55     5.081249     20.38652     58.61252         9     0.950     0.857  86.76   0
       162    665.1151    591.5681 300.1920531 +22.7527494     530.7219      72.2408      1.529     4.20     5.082798     20.38652     62.90027        10     1.175     0.679  58.68   0
       163    635.1397    591.2241 300.1828245 +22.7436717     652.2014      72.2408      1.509     3.17     5.084348     20.38652     59.87437         9     0.957     0.632  30.24   0
       164    513.9666    590.4730 300.1453234 +22.7071545     1102.607     72.25921      1.619     2.95     5.088423     20.38652      105.802        16     1.072     0.890 -31.40   0
       165    700.8210    589.4182 300.2038790 +22.7628263      153.612     72.25921      1.058     3.99     5.000381     20.38652     40.55786         6     1.063     0.428  14.58   0
       166    947.7524    586.0805 300.2819655 +22.8358056      3299.08     72.27761      1.542     3.09     5.336858     20.38652     305.6421        30     1.253     1.166  88.81   0
       167    479.5185    585.8071 300.1361122 +22.6954929     1793.823     72.18555      1.487     2.72     5.037753     20.38652     210.9165        23     1.189     1.060   2.72   0
       168    844.3812    583.6365 300.2505144 +22.8041555     328.7641     72.25921      1.203     3.43     5.270469     20.38652     42.55857         5     0.745     0.456 -73.43   0
       169    829.4053    581.8545 300.2464230 +22.7991594     242.3795     72.25921      1.103     2.91     5.204178     20.38652     34.52567         5     0.724     0.458 -71.48   0
       170    817.4293    582.8251 300.2423731 +22.7958523      325.273     72.25921      1.370     3.63     5.141284     20.38652     30.58244         5     1.020     0.372   4.80   0
       171    455.0355    581.4483 300.1299052 +22.6869050     375.4466     72.29601      1.508     4.58     5.033452     20.38652     34.67512         8     0.840     0.709  88.93   0
       172     41.4132    579.3082 300.0019422 +22.5622982     5075.071     72.20397      1.769     3.33     5.249573     20.38652       485.66        39     1.413     1.315  57.43   0
       173    986.7139    576.2959 300.2973012 +22.8446555     339.6917     72.44302      1.577     3.06     5.151365     20.38652     46.16508         5     0.746     0.440 -11.59   0
       174    342.8545    572.4670 300.0979052 +22.6507078     9088.193      72.3144      1.484     2.77     4.938753     20.38652     1025.573        41     1.243     1.181  48.90   0
       175    465.3409    569.5765 300.1369698 +22.6865839      9073.08     72.25921      1.428     2.59     5.078662     20.38652     1133.314        39     1.197     1.150  45.32   0
       176    104.2338    571.4163 300.0240307 +22.5788721     237.3184      72.2408      1.183     3.50     5.471623     20.38652     30.01862         5     0.784     0.450  18.23   0
       177    711.5593    565.8939 300.2148671 +22.7592835     430.3518     72.27761      1.792     3.26     4.992735     20.38652     63.50107         6     1.184     0.476  47.93   0
       178    109.6430    565.5793 300.0276080 +22.5788191     268.7451     72.29601      1.296     3.46     5.435167     20.38652     35.02354         5     1.060     0.327 -69.66   0
       179    877.0051    563.7944 300.2671346 +22.8082202      1799.47     72.11181      1.510     3.02     5.382968     20.38652     198.3447        24     1.145     1.116  45.75   0
       180    961.7238    561.1116 300.2944355 +22.8328100     12629.66     72.38792      1.594     3.13     5.191103     20.38652     1177.706        48     1.349     1.285 -45.94   0
       181    525.9064    559.1715 300.1592088 +22.7017420     11772.34     72.18555      1.403     2.65     5.338636     20.38652       1315.2        43     1.189     1.173 -82.91   0
       182    695.3773    555.1186 300.2133234 +22.7513412     534.1208     72.22238      1.285     3.91     5.064144     20.38652     71.25215        12     1.128     0.738   7.27   0
       183    253.2682    554.5707 300.0758453 +22.6187185     1284.438      72.2408      1.560     3.04     4.847891     20.38652     157.1195        15     1.045     0.965  64.96   0
       184    410.9864    553.7772 300.1251800 +22.6657598     264.1494      72.2408      1.440     4.37     5.008972     20.38652     40.93716         8     1.057     0.529  51.13   0
       185    175.2262    553.6131 300.0518846 +22.5950485     254.0843     72.25921      1.398     3.47     5.033165     20.38652     25.93263         5     1.212     0.287  54.30   0
       186    500.2605    552.5309 300.1533790 +22.6921513     491.8194     72.29601      1.612     2.86     5.261657     20.38652     44.26947         7     0.813     0.614 -79.44   0
       187    457.5336    547.3934 300.1417438 +22.6778742     4515.719     72.25921      1.430     2.67     5.132926     20.38652     527.4106        29     1.143     1.063  24.46   0
       188    800.3640    547.6772 300.2484684 +22.7806416     740.6007     72.22238      1.220     2.73     5.316438     20.38652     101.4303        12     0.964     0.786   5.65   0
       189    435.9382    545.8894 300.1355090 +22.6709716     1422.421     72.35117      1.404     2.93     5.072361     20.38652     164.3446        19     1.030     0.969  12.79   0
       190    190.1694    544.7623 300.0594058 +22.5969881      690.041     72.27761      1.570     3.45     4.946136     20.38652     87.74129        12     1.039     0.910 -86.69   0
       191    877.4500    542.9966 300.2740285 +22.8023754     1560.166     72.25921      1.551     3.37     5.376042     20.38652     127.0462        20     1.198     0.990  86.33   0
       192    574.2050    534.9487 300.1821191 +22.7092533     205842.2      72.2408      1.409     2.66     5.396689     20.38652     24018.73       192     1.469     1.379 -15.95   0
       193    757.9329    539.9485 300.2377494 +22.7657154     928.6259     72.27761      1.351     3.24     5.088701     20.38652     114.3098        15     1.082     0.860  38.12   0
       194    397.7777    541.0287 300.1252088 +22.6581411       411.88     72.25921      1.357     3.65      5.01939     20.38652      45.9501         8     0.963     0.594  29.57   0
       195    260.2675    534.7321 300.0844652 +22.6151218     3576.772      72.3144      1.534     3.02     4.822125     20.38652     392.5916        30     1.221     1.145  47.02   0
       196    826.3239    531.2504 300.2618983 +22.7836930     410.0599     72.25921      1.206     4.33     5.333426     20.38652      46.7611         8     1.084     0.628 -39.07   0
       197    844.9393    529.4135 300.2683002 +22.7887383     258.7824     72.22238      1.333     4.48     5.303169     20.38652     33.44955         6     0.851     0.669  35.80   0
       198    605.8323    521.9229 300.1962018 +22.7149848     278.0612     72.25921      1.331     3.86      5.30596     20.38652     40.49154         5     0.821     0.520 -41.06   0
       199    464.8330    515.3690 300.1544162 +22.6708642     2918.826     72.27761      1.566     2.66     5.184395     20.38652     295.4747        28     1.369     1.051  85.31   0
       200    309.2312    517.5106 300.1052904 +22.6248531      383.425     72.22238      1.501     5.18     4.885166     20.38652     46.84656         8     1.078     0.777 -76.19   0
       201    695.8688    511.8418 300.2275313 +22.7390535     314.3762      72.2408      1.557     3.87      5.24403     20.38652     38.35057         5     1.058     0.406  45.58   0
       202    569.4141    510.8240 300.1884610 +22.7008880     124.0732     72.25921      1.096     3.59     5.486936     20.38652     31.81727         5     0.994     0.372   4.94   0
       203    782.0563    504.1670 300.2568904 +22.7626553     360.2483     72.27761      1.288     2.96     5.334779     20.38652     46.83632         6     0.731     0.575  53.47   0
       204    861.8877    501.5217 300.2826439 +22.7857947      1772.91      72.4063      1.479     2.64     5.101296     20.38652     217.1049        22     1.106     1.006  19.78   0
       205    748.5454    501.8148 300.2472068 +22.7519456     302.3599      72.2408      1.306     3.65     5.243384     20.38652     42.32074         6     0.885     0.652  -8.07   0
       206    733.0215    499.1459 300.2432342 +22.7465304     2682.091     72.27761      1.399     2.75     5.235806     20.38652     294.1778        25     1.137     1.039  37.00   0
       207    637.5755    496.2600 300.2144253 +22.7171190      488.778      72.2408      1.407     4.29     5.414088     20.38652     58.85456        14     1.276     0.788 -89.51   0
       208     92.3071    498.4458 300.0440190 +22.5543566     265.9258     72.27761      1.578     4.33     5.506172     20.38652     35.00419         5     0.792     0.731 -47.25   0
       209    977.6481    496.6441 300.3203416 +22.8190412     582.6983     72.27761      1.753     4.01     5.291324     20.38652     52.31002         9     1.002     0.753  42.84   3
       210    975.8291    492.5514 300.3211030 +22.8173201      815.812     72.27761      1.581     2.92     5.318962     20.38652      81.7964        11     0.959     0.755  27.63   2
       211    520.1658    495.0207 300.1782537 +22.6815962     574.1033     72.27761      1.302     2.93      5.43259     20.38652     81.04622        10     0.883     0.739  87.73   0
       212    990.3166    493.2510 300.3253968 +22.8218569     1141.546     72.27761      1.435     2.99     5.297976     20.38652     138.4898        16     1.031     0.946  27.08   0
       213    862.1389    491.5305 300.2859666 +22.7829978     2287.651     72.29601      1.757     4.42     5.035227     20.38652     237.9769        31     1.613     1.095  83.78   0
       214    615.5384    489.6229 300.2097143 +22.7086121      914.222      72.2408      1.912     2.72     5.476109     20.38652     72.48778        12     0.866     0.847  16.18   2
       215    454.1295    489.3199 300.1595421 +22.6601760     441.2548     72.36955      1.394     4.98     5.202228     20.38652      96.1629         8     1.264     0.555 -84.34   0
       216    900.2865    486.7390 300.2994214 +22.7930392     4469.099     72.35117      1.506     2.86     5.204906     20.38652     489.7375        33     1.215     1.166  80.89   0
       217    401.5317    489.5121 300.1431058 +22.6444724     240.5996      72.4063      1.073     3.75     5.182936     20.38652     38.90642         6     0.913     0.443  16.82   0
       218    561.0375    482.8062 300.1949494 +22.6903301     348.5681     72.29601      1.257     3.97     5.568899     20.38652     48.02256         6     0.947     0.476  33.43   0
       219    991.9449    477.5361 300.3310078 +22.8178254     765.9875      72.3144      1.455     3.39     5.389883     20.38652     88.00572        14     1.037     0.945 -47.74   0
       220    132.2139    476.8527 300.0634355 +22.5601232     1076.184     72.29601      1.482     3.39     5.242832     20.38652      137.236        14     1.047     0.922  60.41   0
       221    124.3936    466.9205 300.0642287 +22.5549282     443.5872     72.18555      1.687     5.36     5.302543     20.38652      39.9841         9     1.228     0.661   9.15   0
       222    988.1937    466.6506 300.3333716 +22.8135726     305.9205     72.25921      1.318     3.40     5.389883     20.38652     41.08101         5     0.744     0.449 -15.73   0
       223    732.5485    461.2475 300.2553921 +22.7354970     531.0267     72.29601      1.427     3.50     5.374909     20.38652     64.35596        12     1.041     0.850  32.02   0
       224    621.6730    458.9595 300.2215814 +22.7016390      332.268      72.2408      1.363     3.92     5.537883     20.38652     38.15395         9     0.978     0.648 -33.50   0
       225    673.7873    457.1608 300.2384043 +22.7167281     746.5262     72.25921      1.366     3.37     5.472292     20.38652      80.7841        13     0.986     0.905  -5.34   0
       226    988.7493    449.9669 300.3389618 +22.8089411      443.512     72.27761      1.299     3.15     5.389883     20.38652     70.96821        10     1.051     0.692  -4.82   0
       227    734.4581    449.4100 300.2598305 +22.7326665     761.3046     72.22239      1.208     2.29     5.387858     20.38652     100.5211        13     0.888     0.796  50.76   0
       228    891.6027    445.8268 300.3099960 +22.7786776     1130.494     72.20396      1.449     2.94     5.234969     20.38652      125.018        14     1.046     0.818   1.78   0
       229    850.4108    443.5497 300.2978872 +22.7656937     291.3069     72.27761      1.429     4.20     5.200017     20.38652     26.27565         5     1.021     0.492 -89.05   0
       230    875.8127    441.9782 300.3063202 +22.7728451     732.9539      72.2408      1.680     3.98     5.185198     20.38652     74.96439        11     1.062     0.720  39.05   0
       231    856.3517    442.2063 300.3001762 +22.7670857     376.5229     72.25921      1.292     3.01     5.181872     20.38652     46.01657         7     0.830     0.587 -58.58   0
       232    620.2521    439.8941 300.2273281 +22.6957352     3279.805     72.33279      1.335     2.59     5.556394     20.38652     420.7377        24     1.059     0.993  75.44   0
       233    980.7000    438.6989 300.3401081 +22.8032921      540.322     72.49808      1.524     4.15     5.389883     20.38652     68.75453        12     1.091     0.906  54.92   0
       234     96.4088    431.3438 300.0670777 +22.5363279      384.087      72.2408      1.321     3.05      5.38876     20.38652     45.35163         6     0.801     0.548 -43.26   0
       235    391.6818    427.7703 300.1600841 +22.6237893     245.5177     72.27761      1.235     4.24      5.50677     20.38652     31.54343         6     0.761     0.674 -35.50   0
       236    460.0746    426.7841 300.1816952 +22.6439945     530.3815     72.25921      1.669     4.10     5.556955     20.38652     40.52745        10     0.941     0.796 -33.45   0
       237    903.6763    418.9002 300.3225036 +22.7745489     638.3912     72.38792      1.677     3.06     5.340034     20.38652     69.95842        11     0.937     0.811  37.04   0
       238    989.8228    417.8109 300.3497359 +22.8000148     935.8094     72.25921      1.437     2.85     5.389883     20.38652     127.4782        16     1.146     0.857  33.68   0
       239    731.1896    413.9802 300.2703131 +22.7215047     1115.472      72.2408      1.427     2.77     5.424544     20.38652     150.0343        16     1.127     0.881  84.50   0
       240    526.6458    414.3407 300.2064643 +22.6603596     373.5137     72.29601      1.158     2.51     5.594597     20.38652     58.12423         8     0.843     0.635   5.54   0
       241    234.5543    411.9432 300.1163310 +22.5721636     764.9244     72.29601      1.809     4.10     5.305206     20.38652     95.77743        15     1.344     0.845   7.41   0
       242    297.1913    407.5627 300.1372384 +22.5896753       3693.2     72.27761      1.450     2.71     5.450795     20.38652      434.461        31     1.191     1.150 -33.39   0
       243    244.4410    402.3822 300.1225095 +22.5723811      7620.47     72.27761      1.488     2.73     5.360344     20.38652     903.8077        42     1.288     1.183  37.78   0
       244    622.9573    401.6546 300.2405838 +22.6855567     388.2281     72.25921      1.854     3.71     5.613109     20.38652     43.80514         5     0.993     0.434 -64.44   0
       245   1010.3410    397.4343 300.3627537 +22.8002936     1770.271     72.29601      1.539     2.81     5.395813     20.38652     205.3889        24     1.230     1.077   9.55   0
       246    385.1928    396.5716 300.1681909 +22.6128844     4682.542     72.25921      1.364     2.53     5.640878     20.38652     600.1951        30     1.183     1.047  67.48   0
       247    629.4386    393.4236 300.2452747 +22.6851320     18733.65     72.27761      1.352     2.42     5.620349     20.38652     2387.432        52     1.251     1.163  33.56   0
       248    646.9309    393.6070 300.2506657 +22.6904222     841.3138     72.22238      2.105     6.50     5.569835     20.38652     59.11922        16     1.559     0.759 -29.77   0
       249    873.2001    389.9914 300.3223808 +22.7571157     229.7415     72.07492      1.278     3.53     5.164515     20.38652     48.59427         7     0.882     0.641 -29.00   0
       250    826.5202    383.9642 300.3097785 +22.7414120    -46.39561     72.20396      1.363     3.22      5.22198     20.38652     50.78481        11     0.997     0.736  14.22   0
       251    249.7035    380.5014 300.1312478 +22.5676751     353.7133     72.44302      1.154     3.10     5.472078     20.38652     39.29466         5     0.725     0.465 -19.41   0
       252    963.3345    376.0487 300.3550258 +22.7800783     946.7506     72.27761      1.780     4.54     5.394986     20.38652     88.22103        18     1.487     0.878 -68.15   0
       253    499.9063    375.3047 300.2108067 +22.6411357     280.1222     72.42466      1.214     3.89     5.732603     20.38652     45.73547         7     0.854     0.612  33.54   0
       254    184.0013    373.3999 300.1131175 +22.5459475     2028.398       72.038      1.465     3.10     5.296017     20.38652     217.5413        24     1.202     1.094  32.62   0
       255    570.0716    362.9010 300.2366854 +22.6585839      6636.67      72.4063      1.349     2.41      5.78109     20.38652     919.6146        30     1.126     1.039 -88.67   0
       256    983.7158    363.3914 300.3654937 +22.7825360      1266.87     72.20397      1.414     2.77     5.400755     20.38652     149.8543        18     1.074     0.946  78.90   0
       257    284.7981    362.2077 300.1481020 +22.5729371     650.4452     72.07492      1.540     3.50     5.834499     20.38652     70.71258        14     1.067     0.899 -19.40   0
       258    142.4622    355.3063 300.1060724 +22.5283039     537.2839     72.35117      1.405     3.01     5.321751     20.38652     72.69611        10     1.053     0.630  21.59   0
       259    829.7981    354.4663 300.3203741 +22.7339117     345.0585     72.25921      1.165     3.21     5.083861     20.38652     77.03106         7     0.977     0.532  28.93   0
       260    774.3477    351.9571 300.3038979 +22.7165941     1225.935     72.29601      1.408     2.84     5.222575     20.38652      140.384        17     1.054     0.928 -72.26   0
       261    684.1193    353.0921 300.2754037 +22.6899114     607.8856     72.38792      1.444     2.67     5.406407     20.38652     81.40438        10     0.841     0.764   7.16   0
       262    476.7139    349.0540 300.2121036 +22.6266475     6213.034      72.3144      1.361     2.57     5.805359     20.38652     792.5138        33     1.157     1.076  61.59   0
       263    868.6668    343.6952 300.3359920 +22.7424464     1467.476     72.38792      1.579     2.42     5.046572     20.38652     176.9538        18     1.077     0.972 -65.40   0
       264    966.0765    343.8846 300.3663199 +22.7716478     682.6219     72.36955      1.659     4.12     5.423655     20.38652     62.88235        12     1.083     1.044  16.28   0
       265    461.4500    337.7951 300.2110043 +22.6188412     429.7149      72.2408      1.398     3.22     5.791354     20.38652     55.75033         9     0.969     0.645  57.63   0
       266    544.0412    335.7718 300.2373808 +22.6429933     527.1757     72.27761      1.275     4.03     5.812809     20.38652     60.97237         9     0.976     0.652  53.80   0
       267    524.4077    333.9062 300.2318712 +22.6365779      231.804     72.14869      1.220     3.52     5.804571     20.38652     41.89861         5     0.775     0.460 -73.98   0
       268    841.5563    331.3629 300.3315384 +22.7307872     511.3531     72.33279      1.128     3.23     5.165843     20.38652     77.93819        10     0.957     0.746 -70.86   0
       269    364.2905    328.2070 300.1838705 +22.5869855     2555.868     72.16712      1.432     2.71     5.918612     20.38652      276.629        26     1.158     1.114 -86.93   0
       270     83.0604    325.7446 300.0971972 +22.5020141     1051.379     72.33279      1.540     2.69     5.770227     20.38652     138.3851        16     1.109     0.888 -24.36   0
       271    333.6175    317.6721 300.1777430 +22.5747712      29802.8     72.25921      1.460     2.60     5.947666     20.38652     4044.552        66     1.331     1.212  68.55   0
       272    868.4131    315.5626 300.3450417 +22.7342803     1377.934      72.2408      1.392     2.66     5.287208     20.38652     165.5723        17     1.048     0.912  46.99   0
       273    823.9369    313.3342 300.3318935 +22.7203302     224.4124     72.29601      1.293     4.12     5.253225     20.38652     35.40887         5     0.801     0.606 -81.12   0
       274     29.9102    305.4183 300.0872721 +22.4802489     4902.346     72.18555      1.631     3.14     6.152107     20.38652     520.4787        38     1.391     1.242  58.55   0
       275    783.8828    304.3819 300.3223084 +22.7057690     524.5997     72.20396      1.299     2.66     5.238655     20.38652     65.35119         9     0.855     0.671  67.96   0
       276    207.8408    304.2420 300.1429712 +22.5332325     495.0938     72.35117      1.495     1.68     5.743683     20.38652     69.26155         5     0.693     0.402 -15.28   0
       277    432.0709    303.2666 300.2130606 +22.6001218     520.6916     72.29601      1.187     2.21     5.746793     20.38652     79.26066         7     0.738     0.587  -4.25   0
       278    744.1310    297.5715 300.3121247 +22.6919137     1858.416      72.2408      1.311     2.41     5.256489     20.38652     277.6117        19     1.054     0.921 -68.25   0
       279    552.4321    292.1829 300.2541371 +22.6329789     295.3871      72.2408      1.128     2.18     5.821203     20.38652     52.21032         5     0.690     0.458  68.47   0
       280    959.3672    290.7914 300.3814541 +22.7543686     579.0291     72.25921      1.347     2.67     5.571431     20.38652     80.65065        10     0.836     0.805   3.73   0
       281    405.8508    282.0696 300.2117750 +22.5861789     2117.875     72.25921      1.549     3.15     5.757458     20.38652     229.7198        25     1.310     1.040  67.46   0
       282    618.5690    280.8548 300.2784157 +22.6495234     278.4058     72.27761      1.325     3.46     5.738175     20.38652     39.95619         5     0.791     0.436  69.20   0
       283    844.8496    275.1686 300.3507980 +22.7156125     508.4331     72.29601      1.225     2.54     5.508377     20.38652     77.04111         7     0.698     0.656 -53.03   0
       284    837.9639    275.6405 300.3484974 +22.7136879     267.2572     72.33279      1.436     4.29     5.478705     20.38652     38.56499         5     1.101     0.475   3.73   0
       285    744.1009    272.7434 300.3201702 +22.6847659     324.3659     72.35117      1.451     4.43      5.27165     20.38652     46.78118         6     0.871     0.641  85.70   0
       286    727.3637    272.6213 300.3149923 +22.6797216     413.7093     72.27761      1.404     2.28     5.268559     20.38652      66.7622         5     0.718     0.437  21.65   0
       287    481.5938    261.3757 300.2420695 +22.6029147      1233.99      72.2408      1.402     2.67     5.724332     20.38652     146.2169        19     1.117     0.967 -86.60   0
       288    566.9987    259.0836 300.2694121 +22.6278268     253.5825     72.14869      1.373     3.90      5.77837     20.38652     34.73152         6     0.954     0.457  37.64   0
       289    993.0511    258.0479 300.4025881 +22.7550252     394.3896     72.29601      1.439     3.12     5.709725     20.38652     49.78046         6     0.751     0.567  39.87   0
       290    726.6208    253.4469 300.3209808 +22.6739861     2194.548     72.29601      1.366     2.32     5.268559     20.38652     290.2779        24     1.157     0.987  55.56   0
       291    887.8286    254.2643 300.3709850 +22.7224594     386.9891     72.25921      1.841     3.96      5.66694     20.38652     39.65312         5     0.909     0.493 -47.57   0
       292    987.9857    247.8611 300.4043118 +22.7505793     3277.175     72.22238      1.525     3.19     5.748484     20.38652     343.8075        30     1.282     1.160 -72.47   0
       293    435.0135    237.1004 300.2354404 +22.5819908      719.545     72.16712      1.467     3.02     5.685036     20.38652     91.42234        12     0.983     0.849 -57.20   0
       294    140.6201    231.4095 300.1456924 +22.4921759     694.8835      72.2408      1.516     2.62     5.764871     20.38652     81.57374        12     0.914     0.821  61.48   0
       295    109.9218    231.3729 300.1361600 +22.4829675     1384.008     72.25921      1.712     3.38     5.954336     20.38652     152.1101        22     1.340     0.983 -31.10   0
       296   1003.9025    228.5892 300.4155305 +22.7497952     473.5332     72.14869      1.197     3.54     5.846826     20.38652     68.53879         7     0.867     0.642 -52.74   0
       297    194.1232    223.6115 300.1648590 +22.5059658     534.9129     72.25921      1.508     2.36     5.807768     20.38652     71.21602        10     0.833     0.756 -45.34   0
       298    988.6406    221.1418 300.4131831 +22.7430876     331.0238     72.25921      1.087     2.93     5.860644     20.38652     49.04516         5     0.918     0.344   4.04   0
       299    869.6365    217.1250 300.3773571 +22.7063340     353.6674     72.20396      1.557     4.03     5.793695     20.38652     42.69795         7     1.119     0.626 -54.74   0
       300    798.3285    215.0604 300.3557881 +22.6844054     661.5538     72.29601      1.314     3.07     5.758477     20.38652     90.14181        10     1.038     0.605 -24.10   0
       301    388.6700    214.2633 300.2284206 +22.5615507     420.8675     72.29601      1.414     3.19     5.725778     20.38652     53.99067         7     0.844     0.598  -6.78   0
       302    888.9113    208.1827 300.3862698 +22.7095279     390.3153     72.18555      1.371     2.65     5.830642     20.38652     58.31079         7     0.834     0.584  27.95   0
       303    896.4260    204.0522 300.3899536 +22.7105876     2115.787     72.27761      1.413     2.63     5.849676     20.38652     252.8276        21     1.119     0.996  57.23   0
       304    315.0394    201.0933 300.2097766 +22.5357160      2247.67     72.27761      1.461     2.54     5.883684     20.38652     250.9407        24     1.145     1.047  49.23   0
       305    392.8558    196.1501 300.2355976 +22.5575992     1155.662     72.29601      1.536     2.95      5.72571     20.38652     135.0948        18     1.060     0.988 -30.30   0
       306    144.2897    196.2480 300.1582362 +22.4831772       425.81      72.2408      1.644     4.87     5.950195     20.38652     42.70829         7     1.208     0.557  71.42   0
       307    794.8340    195.7625 300.3609571 +22.6778095     529.0424      72.3144      1.461     2.85     5.765469     20.38652      70.8885         8     0.962     0.534  48.12   0
       308    901.7903    193.0003 300.3952113 +22.7090129     321.7297     72.07492      1.068     2.27     5.897571     20.38652     58.47964         7     0.700     0.651  22.96   0
       309    209.5841    188.2506 300.1811347 +22.5004404     807.7261     72.27761      1.622     3.06     6.173729     20.38652     89.67265        12     0.924     0.882  23.19   0
       310    327.9879    187.8553 300.2180988 +22.5357903     403.0628     72.25921      1.487     4.47     5.852491     20.38652     33.34758         7     1.064     0.534 -58.18   0
       311    747.4272    185.2864 300.3495738 +22.6606118     1574.528     72.25921      1.309     2.43     5.572412     20.38652     216.3514        21     1.186     0.911  84.18   0
       312    812.6843    185.1698 300.3699585 +22.6801035     473.3482     72.27761      1.208     2.80     5.821626     20.38652     73.84587        11     1.025     0.641 -14.88   0
       313    231.1243    181.5028 300.1900226 +22.5049541     519.8426      72.4063      1.435     3.16     6.273967     20.38652     67.44574         6     0.736     0.621 -38.48   0
       314   1019.0667    178.0533 300.4366535 +22.7397889     776.3503     72.29601      1.561     4.11       6.0291     20.38652      80.9294        15     1.177     1.046  51.03  16
       315    520.9161    177.7780 300.2814280 +22.5906603     267.6493     72.22238      1.456     2.68     5.772736     20.38652      62.2667         7     0.986     0.496 -67.62   0
       316    751.5927    176.9624 300.3535718 +22.6594643     753.0205     72.27761      1.358     2.35     5.637296     20.38652     100.0218        11     0.862     0.764  10.41   0
       317    672.1168    176.0504 300.3290945 +22.6354196     1236.441     72.27761      1.340     2.54     5.631473     20.38652     169.9195        15     0.963     0.883   0.13   0
       318    493.4052    172.1464 300.2746865 +22.5808057     431.0536      72.2408      1.453     4.06     5.742435     20.38652     41.49633         6     0.753     0.626 -46.25   0
       319    867.6222    167.6341 300.3927789 +22.6914946     1477.875     72.27761      1.391     2.33     5.933249     20.38652     208.1198        20     1.193     0.923 -40.03   0
       320    598.2015    167.7209 300.3087634 +22.6109029     1014.151     72.16712      1.349     2.45     5.787807     20.38652     154.8641        15     1.013     0.855  48.37   0
       321    879.6141    166.7280 300.3968133 +22.6948211     794.2536     72.25921      1.406     3.04     5.959004     20.38652     108.0662        12     0.984     0.817 -52.23   0
       322    925.8487    165.9426 300.4114915 +22.7084247     392.2081      72.3144      1.561     4.20     6.051537     20.38652     41.36927         7     1.097     0.505  52.48   0
       323    996.4009    156.9518 300.4364221 +22.7269383      1183.68     72.25921      1.489     3.62     6.066984     20.38652     130.7761        18     1.254     0.889 -86.32   0
       324     20.1307    153.8167 300.1333992 +22.4337920     578.3923     72.27761      1.480     3.85     6.851554     20.38652     53.10839         8     1.117     0.604 -13.69   0
       325    230.3738    149.8762 300.2000437 +22.4956437     673.7891     72.27761      1.375     3.17     6.369715     20.38652     84.11359        13     1.040     0.838  -2.57   0
       326     92.1808    144.4137 300.1588421 +22.4526788     2247.642     72.22238      1.731     3.16     6.521737     20.38652     241.9409        27     1.284     1.176  48.13   0
       327    915.0878    142.1074 300.4158629 +22.6983482     762.0781     72.42466      1.312     2.86     6.020961     20.38652     101.4336        11     0.970     0.745  17.85   0
       328     42.0369    141.8404 300.1440900 +22.4369165     544.1212     72.33279      1.344     3.84     6.741669     20.38652     58.77541         8     1.053     0.628  19.52   0
       329    249.6274    137.8991 300.2099159 +22.4979691     5588.003     72.20396      1.497     2.93     6.163255     20.38652     665.7826        34     1.246     1.178  38.12   0
       330    231.7368    139.3002 300.2038965 +22.4930135     334.7825     72.35117      1.127     3.40     6.284481     20.38652     50.13069         5     0.742     0.451  -8.23   0
       331     33.7921    132.6235 300.1445156 +22.4317993     1228.974     72.25921      1.562     3.14     6.768872     20.38652     120.9904        19     1.235     0.900 -10.08   0
       332    233.1398    128.9221 300.2076974 +22.4904520     501.9817      72.3144      1.193     2.72     6.215004     20.38652     94.51131        11     1.017     0.691 -56.57   0
       333    893.8113    119.7519 300.4164735 +22.6855523     3583.565     72.27761      1.448     2.88     5.968887     20.38652     419.2813        29     1.206     1.104  83.26   0
       334    997.6064    118.4656 300.4492769 +22.7162232     2739.474     72.25921      1.598     3.00     5.921621     20.38652     311.5334        27     1.290     1.132 -85.21   0
       335    196.4062    115.4564 300.2006373 +22.4755815     424.7801      72.2408      1.612     4.38     6.066997     20.38652     41.30568         7     0.894     0.666 -65.98   0
       336    443.1544    114.9393 300.2775872 +22.5493185     620.7346     72.27761      1.288     3.46     5.740996     20.38652     82.45288        12     1.101     0.721  30.72   0
       337    557.6059    112.7227 300.3139484 +22.5829399     257.2254     72.16712      1.184     3.05     5.912268     20.38652     48.15386         6     0.826     0.531 -42.29   0
       338    367.5306    106.7700 300.2566943 +22.5243299     820.6807     72.25921      1.990     2.79     5.726611     20.38652     72.64226         7     0.836     0.560   6.52   2
       339    133.3280    103.7769 300.1848080 +22.4533328     657.1705     72.29601      1.691     3.50     6.174563     20.38652     75.92038        12     1.183     0.708 -27.11   0
       340    494.3984    102.0321 300.2977277 +22.5609477     1585.156     72.22238      1.363     2.71     5.824503     20.38652     195.2207        18     1.084     0.961  66.17   0
       341    422.4648    102.3277 300.2752342 +22.5394996     623.6716     72.29601      1.717     3.49     5.719688     20.38652     72.72094        14     1.125     0.869 -82.67   0
       342    556.2335    101.4844 300.3171641 +22.5792978     359.2487     72.22238      1.462     4.36     5.935575     20.38652     46.62777         7     0.968     0.559  56.51   0
       343    318.6889     98.0025 300.2443364 +22.5071862     263.4573     72.16712      1.214     2.85      5.79759     20.38652     40.21833         5     0.802     0.495  28.40   0
       344    238.0932     97.4026 300.2194558 +22.4828794     481.3923     72.16712      1.347     3.92      6.00004     20.38652     58.21007        10     1.135     0.624 -32.24   0
       345    782.9922     91.8826 300.3909462 +22.6443862     352.5533     72.18555      1.366     2.80     5.933728     20.38652     54.97829         6     0.780     0.639  -3.58   0
       346    630.6165     88.1947 300.3446459 +22.5977363     345.7203     72.20396      1.535     4.06     5.971531     20.38652     45.58552         8     1.036     0.595 -29.38   0
       347    929.2377     86.5974 300.4382738 +22.6866071     295.5133     72.27761      1.171     2.07     5.924309     20.38652     59.16532         5     0.713     0.447  21.33   0
       348    679.7107     84.1021 300.3612719 +22.6112491     245.8567     72.44302      1.062     3.95     5.953428     20.38652     36.38411         6     1.075     0.416  79.50   0
       349    775.5005     82.7681 300.3915649 +22.6395231     510.8618      72.2408      1.743     2.80       5.9838     20.38652     65.85774         5     0.869     0.496  85.18   0
       350    268.6009     81.8023 300.2340030 +22.4875326     6105.691       72.038      1.558     2.92     5.904451     20.38652     720.3076        35     1.287     1.181  63.86   0
       351    119.9979     81.5508 300.1878677 +22.4429553      791.902      72.2408      1.644     3.29     6.191761     20.38652      87.4323        12     1.054     0.799   8.72   0
       352    897.9654     79.5952 300.4307873 +22.6752399     445.7509     72.25921      1.471     4.76     5.904519     20.38652     53.77145         7     0.930     0.692  54.39   0
       353    240.5517     76.3076 300.2270581 +22.4775543     288.7811     72.29601      1.319     4.28     5.948843     20.38652     49.31885         6     1.058     0.638 -48.88   0
       354    284.4751     73.0833 300.2417678 +22.4897804     353.7168     72.35117      1.119     3.33     5.872131     20.38652     49.02366         6     1.055     0.343 -40.56   0
       355     30.2696     72.6268 300.1628682 +22.4135133     441.8256     72.25921      1.232     3.47     6.762407     20.38652     37.98088         5     0.800     0.435 -18.42   0
       356    514.6233     67.1874 300.3153209 +22.5569831     6278.556     72.25921      1.426     2.63     6.020131     20.38652     763.7438        34     1.235     1.068  68.44   0
       357    400.3172     66.8680 300.2798334 +22.5226767     598.5448     72.36955      1.366     3.08      5.87641     20.38652     83.50727        11     0.984     0.760 -41.31   0
       358    767.3085     57.5689 300.3971786 +22.6298232     880.0264     72.20397      1.697     4.59     6.162412     20.38652     87.61801        14     1.327     0.843 -62.30   0
       359    708.3697     58.7232 300.3784306 +22.6125236     396.7292      72.2408      1.691     2.36     6.137253     20.38652     59.53249         5     0.745     0.443  -5.79   0
       360    859.0202     56.1201 300.4262481 +22.6568376     665.6805      72.2592      1.142     4.27     5.869864     20.38652     241.2599         8     1.112     0.467   2.36   0
       361    207.7088     50.9515 300.2250602 +22.4604333     603.9091     72.27761      1.789     3.35     5.899548     20.38652      58.2299         9     0.931     0.652 -12.28   0
       362    566.0275     49.9045 300.3369336 +22.5673973     523.2576     72.16712      1.318     2.24      6.14707     20.38652     73.08086         7     0.698     0.646  -0.76   0
       363    643.0772     47.3220 300.3617767 +22.5897098     6393.723     72.36955      1.390     2.51     6.237205     20.38652     914.4631        36     1.243     1.089  78.72   0
       364    417.7624     46.1267 300.2919863 +22.5219365     1414.708     72.20396      1.450     3.18     6.087178     20.38652     171.5368        22     1.303     0.934  56.74   0
       365    684.1497     44.8215 300.3753871 +22.6012790     838.2665     72.25921      1.318     2.60     6.263541     20.38652      132.433        13     0.990     0.788  66.22   0
       366    753.8704     42.7838 300.3977808 +22.6215499     406.0923     72.27761      1.178     2.19     6.275578     20.38652     55.92507         6     0.724     0.534  41.34   0
       367    700.0999     40.9469 300.3816142 +22.6049362     569.5139     72.35117      1.345     3.10     6.293049     20.38652     68.96118         9     0.890     0.705 -68.61   0
       368    970.0505     38.7644 300.4665128 +22.6850448     547.6356     72.27761      1.338     3.33     5.809887     20.38652     68.61435         9     0.960     0.653  46.17   0
       369    166.5940     38.5817 300.2162821 +22.4445664     598.6495     72.22239      1.411     5.21     5.868238     20.38652     67.13142        11     1.162     0.787  53.23   0
       370    738.5429     36.5289 300.3950295 +22.6151655     520.8037     72.27761      1.383     2.37     6.323845     20.38652     75.89763         8     0.756     0.723  15.49   0
       371    687.2310     32.2152 300.3804330 +22.5985746     2695.957     72.25921      1.396     2.63     6.368436     20.38652      359.941        26     1.231     1.013  69.14   0
       372    328.4724     33.0546 300.2684309 +22.4914493     454.3965     72.25921      1.468     5.02     5.776179     20.38652     44.33461        10     1.080     0.661 -28.29   0
       373    702.3304     31.1291 300.3854912 +22.6027793     924.2141     72.33279      1.734     3.55     6.377208     20.38652     109.4739        11     1.203     0.599  47.03   0
       374    949.7856     25.8177 300.4643851 +22.6752593     209.5715     72.22238      1.821     3.80      5.78967     20.38652     27.22706         5     1.207     0.344 -78.86   0
       375    773.7708     24.0616 300.4100529 +22.6221161     1422.322     72.27761      1.333     2.57      6.42885     20.38652     183.8714        20     1.096     0.951  58.98   0
       376    175.6375   1017.2110 299.9013093 +22.7281509     517.0881      72.2408      2.364     6.15     96.76578     20.38652     37.35342         8     1.603     0.664  34.41  16
       377    968.0367   1016.8235 300.1482410 +22.9656416     265.1505     72.27761      1.869     4.26     3.804601     20.38652     26.90281         5     1.447     0.358   5.37  16
       378     90.2080     16.3373 300.1997402 +22.4152984     546.7688     72.20397      1.606     4.13     5.851988     20.38652     57.44126        10     1.185     0.711  -7.41   0
       379    755.1454   1015.2557 300.0823581 +22.9013935     525.1064     72.29601      2.246     5.09     4.172424     20.38652     31.44007         6     1.102     0.664 -87.28   0
       380    316.2614   1012.8752 299.9464568 +22.7691014     1985.692      72.3144      6.840     7.97     5.768291     20.38652     73.26646        42     1.955     1.625  58.50  16
       381     98.9799    951.5055 299.8988551 +22.6863098     5672.206     72.18555     23.449    98.39     32.50414     20.38652     1311.665      3317    18.436    14.568 -28.11  19
       382    307.2749   1006.9106 299.9456019 +22.7646949     646.0361     72.42466      5.950     5.94     6.072369     20.38652     31.92046         8     1.527     0.650  84.23   0
       383    193.8022   1005.8022 299.9106695 +22.7303309     524.2687       72.038      2.192     7.32     85.94085     20.38652     53.93435         8     3.064     0.490  31.75  19
