#   1 NUMBER                 Running object number                                     
#   2 X_IMAGE                Object position along x                                    [pixel]
#   3 Y_IMAGE                Object position along y                                    [pixel]
#   4 ALPHA_J2000            Right ascension of barycenter (J2000)                      [deg]
#   5 DELTA_J2000            Declination of barycenter (J2000)                          [deg]
#   6 FLUX_APER              Flux vector within fixed circular aperture(s)              [count]
#   7 FLUXERR_APER           RMS error vector for aperture flux(es)                     [count]
#   8 FLUX_RADIUS            Fraction-of-light radii                                    [pixel]
#   9 FWHM_IMAGE             FWHM assuming a gaussian core                              [pixel]
#  10 BACKGROUND             Background at centroid position                            [count]
#  11 THRESHOLD              Detection threshold above background                       [count]
#  12 FLUX_MAX               Peak flux above background                                 [count]
#  13 ISOAREA_IMAGE          Isophotal area above Analysis threshold                    [pixel**2]
#  14 A_IMAGE                Profile RMS along major axis                               [pixel]
#  15 B_IMAGE                Profile RMS along minor axis                               [pixel]
#  16 THETA_IMAGE            Position angle (CCW/x)                                     [deg]
#  17 FLAGS                  Extraction flags                                          
         1    207.4179     10.3839 300.2355187 +22.4424507     3899.047     72.21616      1.536     2.71     6.364697     20.37956     452.3011        33     1.317     1.149  70.88   0
         2    775.5567     11.1448 300.4121484 +22.6127558     628.1201     72.23455      1.347     3.16     5.945903     20.37956        84.37        11     0.976     0.791  44.59   0
         3    629.8622      7.9083 300.3677973 +22.5682263     326.3287     72.32649      1.195     2.09     6.177414     20.37956     56.04152         6     0.718     0.540  43.10   0
         4    533.5696      7.9023 300.3378091 +22.5394024     412.0686     72.17934      1.251     2.26     6.132394     20.37956     69.57854         7     0.800     0.573 -50.07   0
         5    768.6894      3.1858 300.4125871 +22.6084117     872.5748     65.58041      1.212     2.86      5.99708     20.37956     126.6482        12     1.088     0.697  27.54  24
         6    323.4788      2.6190 300.2741323 +22.4749807     1116.702     63.05952      1.329     2.53     6.383691     20.37956      182.276        16     0.977     0.950 -29.62  24
         7    734.9730      2.1883 300.4024017 +22.5980365     285.7675     60.87181      1.355     4.14     5.920207     20.37956     41.71801         6     1.120     0.437 -26.70  24
         8    203.8314   1004.0961 299.9117248 +22.7265298     1256.729     72.17934      2.856     6.98     78.87721     20.37956     60.37256        16     1.679     0.814 -46.97   3
         9    286.1773   1017.5339 299.9329559 +22.7550980     2712.016     72.21615      4.985     2.90     33.34877     20.37956     864.8867       114     4.863     2.552 -69.73  27
        10    268.9660   1007.7022 299.9308029 +22.7471139     3656.575     72.21615      8.583    32.63      44.3992     20.37956     90.01756       287     8.322     3.552 -10.84  19
        11    236.8364    993.6030 299.9254003 +22.7334288     4668.359     72.25295      9.907    41.35     60.69503     20.37956     89.45937       489     9.684     4.900  86.37  19
        12    274.6637    981.4030 299.9411321 +22.7412844     8985.618     72.19775     11.073    35.00     28.79054     20.37956     192.3879       964    12.296     5.379  64.17  19
        13    116.6873    955.0036 299.9006116 +22.6863000     5265.879     72.16092     21.635    88.89     35.21873     20.37956     203.0482      2426    17.471    12.547  13.58  19
        14    769.8312    994.5356 300.0910102 +22.8935868     736.8011     72.23455      1.943     6.11     2.752831     20.37956     53.74393        14     1.198     1.025  19.15   0
        15    203.2366    984.4022 299.9179479 +22.7207063     1856.489     72.25295      5.669    15.33      62.2524     20.37956     52.54301        55     3.451     1.893  75.10   3
        16    112.2464    924.0820 299.9092904 +22.6761042     4092.086     72.21615     22.036    72.66     10.50019     20.37956     84.34705      1341    16.831     8.704 -11.91  19
        17    533.7369    983.0498 300.0212069 +22.8194884     472.6924     72.28973      1.984     5.35     3.244754     20.37956     30.81996         9     0.921     0.878 -62.72   0
        18    961.7885    977.4527 300.1564180 +22.9462239     695.3106     72.23455      1.974     7.26     3.885116     20.37956     49.83384        15     1.513     1.018 -59.77   0
        19    669.5446    993.5712 300.0600765 +22.8632387     8818.056     72.23455      1.930     4.38     2.949777     20.37956     494.2458        52     1.595     1.417  27.24   3
        20    255.8232    991.2729 299.9320621 +22.7384595     6417.817     72.27134     10.547    44.13     45.62946     20.37956     159.2732       585     9.747     5.545 -68.38  19
        21    521.9314   1006.7079 300.0098332 +22.8227332     217.9612     72.36324      1.286     4.91     3.234561     20.37956     31.07956         5     1.227     0.556 -49.92   0
        22    582.9686    998.4064 300.0315387 +22.8386607     2398.403     72.23455      1.861     4.54     3.424237     20.37956     158.3174        28     1.418     1.246  69.05   0
        23    182.9738    964.3530 299.9181721 +22.7088773     1231.564     72.27134      5.897     8.18     46.69542     20.37956     50.27327        17     1.683     1.218  -5.33   3
        24    181.0483    962.1933 299.9182761 +22.7076803     1372.454     72.23455      4.818     6.26     45.12649     20.37956     56.34322        14     1.705     0.769 -36.57   3
        25     15.0719    979.8285 299.8609648 +22.6629061     1790.969     72.23455      7.972    18.99    -8.994472     20.37956     62.79955        63     4.796     2.089   8.11  19
        26    687.7729    960.6586 300.0764645 +22.8592606     6754.862     72.23455      1.873     4.17     3.073227     20.37956      401.627        50     1.567     1.405  21.52   0
        27    125.5708   1013.2553 299.8844196 +22.7056613     2914.769     72.23455     10.428   100.50     88.09778     20.37956     109.2854      1322    23.825    11.762  51.77  27
        28    178.8782    959.0000 299.9186405 +22.7061136     970.2576     72.10564      3.080     3.64     42.71326     20.37956     36.94616         5     0.969     0.394  26.98   3
        29      2.6701    985.1574 299.8553790 +22.6607090     1439.578     63.24892      6.635    12.99    -20.53597     20.37956      52.0304        40     2.958     1.587  78.06  27
        30    567.1945    955.0622 300.0407302 +22.8214949     516.5715     72.21615      1.928     6.48     3.393972     20.37956     38.84721        11     1.227     0.962 -47.35   0
        31    840.1083    954.8761 300.1258204 +22.9032718     348.4121      72.3816      1.763     4.96     3.311623     20.37956     29.58522         8     1.516     0.459  41.98   0
        32    278.6714    954.5842 299.9511038 +22.7347982     452.0869     72.23455      1.681     5.86     17.06659     20.37956     58.62128        11     1.183     0.817 -32.20   0
        33    596.2233    951.2981 300.0509944 +22.8291211     1498.087     72.16092      1.832     4.29      3.48092     20.37956     102.9989        26     1.440     1.153   8.29   0
        34    675.0172    991.3401 300.0625073 +22.8642397     9664.801     72.17934      1.921     4.24      2.92759     20.37956     590.8715        49     1.511     1.465  31.20   3
        35    490.0843    947.8246 300.0190788 +22.7962900     1017.889     72.19775      1.698     4.28     3.518383     20.37956     78.79313        19     1.403     0.888   3.22   0
        36    420.8253    945.8287 299.9981732 +22.7749408     6673.802     72.23455      1.764     3.75     3.544273     20.37956     534.8772        45     1.422     1.360  42.13   0
        37    795.0232    946.8987 300.1143621 +22.8874669     842.0246     72.17934      0.421     1.75     3.234044     20.37956     685.6703         5     0.360     0.273 -33.13   0
        38      6.7581   1010.0311 299.8485556 +22.6690632     3017.942     72.25295     14.519    53.81    -25.65602     20.37956     69.21967       675    14.407     5.577  85.96  26
        39    452.9734    933.0066 300.0123489 +22.7809074     500.8239     72.23455      1.456     4.99     3.544273     20.37956     51.19907        10     1.085     0.809 -22.57   0
        40    165.1793    928.9421 299.9241605 +22.6933857     961.9101     72.23455      4.964     4.80     18.10464     20.37956     27.13635         5     1.198     0.546  58.63   3
        41    968.0000    924.9576 300.1754358 +22.9330118     1525.115     72.21615      1.768     3.94     3.903066     20.37956     109.6684        18     1.477     0.857 -79.08   3
        42    966.0000    925.0298 300.1747885 +22.9324332     1467.455     72.17934      1.660     4.33     3.901889     20.37956     122.7022        15     1.415     0.803  89.17   3
        43    617.1886    921.8912 300.0670905 +22.8269707     222.8335     72.17934      1.429     4.99     3.444748     20.37956     33.71882         6     1.080     0.654  71.59   0
        44    465.7487    920.7913 300.0202987 +22.7812357     189.3604     72.23455      1.164     3.61     3.597339     20.37956      42.3842         5     0.936     0.402  -4.22   0
        45    756.0482    913.8167 300.1129777 +22.8662872     643.3112     72.27134      1.919     6.41     3.412414     20.37956     51.30717        14     1.493     0.903  50.67   0
        46    790.5258    907.6967 300.1257138 +22.8748658     1116.991     72.36324      1.851     5.85      3.57672     20.37956     68.91588        22     1.441     1.142 -58.27   0
        47    568.8342    908.0782 300.0565256 +22.8085067     446.1286     72.17934      1.428     4.29     3.520967     20.37956     42.47955         7     1.083     0.577 -76.87   0
        48    149.9076    905.0193 299.9271951 +22.6819443     1100.709     72.16092      8.926     9.17     13.23508     20.37956     34.43339        16     1.699     1.381 -14.63   3
        49    812.9287    901.4294 300.1347355 +22.8797818     11522.87     72.23455      1.774     3.93     3.697259     20.37956     785.8617        54     1.474     1.385  22.56   0
        50   1004.2928    901.5433 300.1943746 +22.9371624      407.476     72.28973      1.755     6.30       4.0488     20.37956     35.95407        10     1.507     0.740  -7.83   0
        51    859.2264    901.4097 300.1491751 +22.8936527     428.3985     72.23455      1.605     5.07     3.792835     20.37956      45.1559        11     1.010     0.943   3.49   0
        52    391.7253   1004.4993 299.9700291 +22.7830352     528.9263     72.36324      1.489     4.56     3.689586     20.37956     44.30662         8     1.415     0.418  57.59   0
        53      1.4029    904.8475 299.8811099 +22.6373163     204.3304     56.64199      1.052     3.33     2.455421     20.37956     52.64594         5     0.764     0.421 -66.79  24
        54    124.6040    893.0442 299.9232259 +22.6709168     1122.147     72.25295      5.622     5.92      9.14271     20.37956     63.94014        17     1.290     1.149  35.17   0
        55    518.4318    889.5121 300.0468721 +22.7880641     399.9185     72.19775      1.668     3.46     3.683476     20.37956     52.20332        10     1.055     0.844  87.20   0
        56     94.5633    886.9824 299.9158622 +22.6601623     592.2341     72.23455      4.862     6.03     6.032324     20.37956     33.24074         8     1.047     0.977 -43.67   0
        57    821.5028    883.5012 300.1432400 +22.8772048     1435.587     72.41831      1.703     3.94     3.846156     20.37956     102.5125        21     1.184     1.111 -32.66   0
        58    673.3281    880.7038 300.0979747 +22.8319839     594.0192     72.34486      1.933     6.52     3.476329     20.37956     44.83767        11     1.593     0.749  17.10   0
        59    199.6588    876.9395 299.9517925 +22.6888253     622.9602     72.30811      3.455     4.84     8.797308     20.37956     36.60962         7     1.080     0.613 -72.97   0
        60    859.7513    877.0085 300.1572760 +22.8868041     770.7952     72.25295      1.866     6.41      3.93753     20.37956     50.65967        14     1.169     0.988  -7.74   0
        61    907.7736    868.5640 300.1749966 +22.8987704     521.0179     72.25295      1.639     4.78     3.997728     20.37956      65.5479         8     0.942     0.688  45.89   0
        62    651.7360    869.0868 300.0950270 +22.8221761     361.4297     72.32649      1.885     3.89     3.534388     20.37956      31.2263         5     0.868     0.499 -38.04   0
        63    759.5405    867.2585 300.1292103 +22.8539694     715.7991     72.30811      1.663     4.08     3.751033     20.37956     69.91957        16     1.179     0.986  30.22   0
        64    770.2833    864.6182 300.1334170 +22.8564315     549.4839     72.17934      1.480     4.14     3.817883     20.37956     53.09184        11     1.030     0.795 -18.56   0
        65    472.0159    863.5478 300.0408683 +22.7666940     4182.481     72.23455      1.599     3.36     3.954899     20.37956       432.89        33     1.279     1.183  56.78   0
        66    515.1856    852.1435 300.0580150 +22.7763689     509.8856     72.21615      2.195     4.36     3.873368     20.37956     50.29116         9     1.056     0.630  27.73   0
        67    250.8236    852.0046 299.9758092 +22.6970286     381.0121     72.19775      1.516     4.50     5.447768     20.37956     45.47243         7     1.112     0.517  33.88   0
        68    198.0142   1005.0714 299.9095991 +22.7250632     612.4014     72.23455      1.950     3.96     80.12656     20.37956     42.20145         9     0.815     0.775 -72.27   1
        69    827.9848    849.7136 300.1562500 +22.8694467     1973.069     72.17934      0.682     2.16     4.002502     20.37956      771.309         9     0.695     0.321 -89.01   0
        70    197.4768    849.1432 299.9601535 +22.6802008     734.2047     72.27134      1.500     3.33     6.521815     20.37956     87.77399        15     1.078     0.986  35.10   0
        71    106.8043    847.2662 299.9325816 +22.6524514     357.5208     72.23455      1.469     4.48      5.13623     20.37956     32.72178         6     0.998     0.572 -66.74   0
        72    203.9135    846.4313 299.9630364 +22.6813546     1080.138     72.21615      0.640     0.52     6.266335     20.37956     637.0911         5     0.554     0.280 -86.93   0
        73    174.3888    846.1642 299.9539451 +22.6724183     1504.409     72.23455      1.676     3.53     6.888319     20.37956     151.4082        22     1.232     1.097  29.84   0
        74     49.6937    836.3472 299.9183871 +22.6321801     413.3375     72.28973      1.522     3.76     4.226149     20.37956     40.68945         5     1.010     0.401 -75.83   0
        75   1000.4187    834.1029 300.2151015 +22.9166315     2119.205      72.1425      1.766     4.17      4.59802     20.37956      134.456        26     1.303     1.190 -14.56   0
        76    705.6541    834.2689 300.1231477 +22.8283465     526.2062     72.27134      1.697     4.73     3.656611     20.37956     41.03536        11     1.172     0.819 -57.43   0
        77    206.2584    827.9808 299.9697650 +22.6767677     429.5065     72.21615      1.479     4.51     5.632774     20.37956      51.3062        11     1.229     0.894  43.14   0
        78    783.7510    828.0190 300.1495172 +22.8499608      552.632     72.25295      1.461     4.20     3.927268     20.37956      69.2425        11     1.117     0.725  -7.74   0
        79    651.9590    821.7305 300.1104971 +22.8086509     5004.577     72.21615      1.586     3.27     3.611937     20.37956     456.4966        36     1.254     1.233 -89.97   0
        80    454.4630    818.7715 300.0499659 +22.7485832     665.8955     72.23455      1.474     3.42     4.077778     20.37956     73.06923        11     0.965     0.764  74.08   0
        81    202.2063    815.4871 299.9725675 +22.6719693     1417.233      72.1425      1.755     3.67     5.234496     20.37956     144.4247        25     1.476     1.075  31.17   0
        82    672.5521    814.0555 300.1194078 +22.8126213     825.4724     72.27134      1.610     3.78     3.623763     20.37956     81.54837        16     1.182     0.932  27.38   0
        83    221.1789    812.5954 299.9794062 +22.6768327     519.8616     72.19775      1.640     4.48     5.042281     20.37956     56.06124         8     1.135     0.751   9.31   0
        84    589.2482    805.6668 300.0961886 +22.7852395     501.8412     72.23455      1.831     3.41     3.771806     20.37956     40.97326         5     0.781     0.430 -17.15   0
        85    828.0420    801.4702 300.1719562 +22.8556112     4362.602     72.19775      1.601     3.29     4.029027     20.37956      375.403        32     1.224     1.198 -52.70   0
        86    236.4218    795.4099 299.9897330 +22.6764776     602.0434     72.23455      1.964     5.86     4.673424     20.37956     46.81544        12     1.035     0.975  -1.84   0
        87    545.2867    793.9321 300.0863151 +22.7686910     704.5962     72.34486      1.418     2.93     4.141042     20.37956     70.17539         9     0.864     0.673  32.60   0
        88    191.4930    791.7522 299.9769537 +22.6619485     898.0178     72.25295      1.535     3.51     4.758097     20.37956     109.7923        14     1.087     0.907  25.23   0
        89    606.7724    787.3715 300.1075947 +22.7852423      449.103     72.19775      1.485     4.13      3.78864     20.37956     49.91586        10     0.908     0.833  30.04   0
        90    341.0441    783.9092 300.0260101 +22.7045641     53906.19     72.23455      1.543     3.19      4.41834     20.37956      5978.54        93     1.435     1.351  46.56   0
        91    598.9191    783.0253 300.1065619 +22.7816405     1693.206     72.21615      1.534     3.28     3.874779     20.37956     163.5831        24     1.173     1.102  17.93   0
        92   1012.0252    782.7389 300.2354250 +22.9053534     805.2432     72.23455      1.606     3.92      5.18065     20.37956     71.92999        14     1.058     0.974   9.70   0
        93    269.3406    781.6815 300.0044325 +22.6824161     483.1097     72.32649      1.703     5.71     4.565257     20.37956     37.28751        11     1.110     0.827 -84.92   0
        94    627.6554    779.0939 300.1167900 +22.7891268     993.4481     72.28973      1.479     3.47     3.817869     20.37956     102.4198        15     1.046     0.981  57.42   0
        95     27.2024    778.4546 299.9302217 +22.6088340     798.3902     72.17934      1.979     4.74     4.185757     20.37956     64.90193        20     1.294     1.236  -2.38   0
        96    638.7206    777.5107 300.1207513 +22.7919893     665.9802     72.36324      1.512     3.93     3.805152     20.37956     60.31458        14     1.082     0.918 -30.15   0
        97    958.9988    775.4777 300.2212439 +22.8873831     322.4375     72.12408      1.532     4.87     4.754192     20.37956     37.57551         6     1.235     0.545  25.57   0
        98    744.2008    774.3959 300.1546270 +22.8227113     565.8243     72.05033      1.738     3.22     3.894346     20.37956      63.5256         8     0.982     0.556 -42.47   0
        99    781.9048    764.2238 300.1696847 +22.8310899     870.2054     72.12408      1.535     3.17      4.03896     20.37956     83.94391        13     1.029     0.787 -11.18   0
       100    390.7805    761.1908 300.0488691 +22.7129639     31620.24     72.21615      1.504     3.03     4.367867     20.37956     3222.617        68     1.320     1.288   3.49   0
       101    405.0508    761.6413 300.0531630 +22.7173729      2061.37     72.23455      1.545     3.06     4.344054     20.37956     208.9432        24     1.160     1.085  63.86   0
       102    913.9352    757.1331 300.2131532 +22.8686136     2936.739     72.28973      1.631     3.31     4.630856     20.37956     237.6396        30     1.296     1.235  75.70   0
       103    401.7879    755.9136 300.0540097 +22.7147510     659.6469     72.17934      1.805     3.33     4.374527     20.37956     59.09562        10     0.882     0.810  29.40   0
       104    671.5926    753.1169 300.1389215 +22.7948400     914.7904     72.16092      1.477     3.73     3.852037     20.37956     99.75755        16     1.069     1.022  17.11   0
       105    508.6216    753.3463 300.0880946 +22.7460500     467.2899     72.23455      1.570     3.88     4.381362     20.37956      52.7505        11     1.009     0.899 -56.33   0
       106    273.3279    752.9030 300.0150277 +22.6753576     723.7333     72.36324      1.473     3.40     4.574855     20.37956     102.4698        15     1.118     0.934   1.70   0
       107    566.5702    750.9620 300.1069119 +22.7627394     330.4304     72.27134      1.524     3.96     4.291944     20.37956     41.36536         5     1.035     0.434 -28.73   0
       108    518.8415    748.1049 300.0929801 +22.7476099      832.891     72.25295      1.387     3.07     4.407557     20.37956     88.83428        15     1.062     0.870  19.54   0
       109     77.9875    748.4949 299.9557383 +22.6154858     467.7519     72.16092      1.548     6.37      4.70564     20.37956     47.82458        12     1.206     0.944  87.60   0
       110    920.2385    744.8466 300.2191132 +22.8669727     425.4358     72.28973      1.474     3.92     4.781044     20.37956     54.86438         8     0.928     0.646  81.85   0
       111    667.1613    745.2156 300.1401096 +22.7912434     386.0118     72.25295      1.593     3.34     3.909751     20.37956     34.57944         6     0.743     0.577  50.77   0
       112    421.0129    744.1578 300.0638134 +22.7171432     391.8911     72.25295      1.536     4.69     4.425155     20.37956      34.0739         8     0.871     0.717  22.57   0
       113    464.7951    742.8517 300.0778638 +22.7298972      439.608     72.21615      1.376     4.14     4.443833     20.37956      52.1937         7     0.907     0.717  30.81   0
       114    376.9953    743.4974 300.0503316 +22.7037532     381.0632      72.1425      1.266     3.46     4.434111     20.37956     42.80471         6     0.787     0.494   7.29   0
       115    107.1337    742.2286 299.9668320 +22.6224350     568.6898     72.23455      1.794     5.01     4.799201     20.37956     53.83569         9     1.080     0.727 -79.74   0
       116    898.2704    740.1826 300.2137786 +22.8590518     356.5596     72.25295      1.608     5.07     4.733547     20.37956     37.28036         9     0.953     0.764  11.46   0
       117    270.6690    737.3516 300.0192557 +22.6700992     500.8171     72.23455      1.459     4.31     4.588484     20.37956     47.99047        11     0.989     0.810 -11.46   0
       118    594.5331    727.6402 300.1232007 +22.7644277     511.5997     72.19775      1.732     3.65     4.328683     20.37956     52.61247         8     1.007     0.622 -83.40   0
       119    563.8670    726.2510 300.1141026 +22.7548361     575.3655     72.21615      1.392     2.79     4.416307     20.37956     79.35578        11     0.902     0.793 -18.79   0
       120    473.0757    725.1777 300.0861861 +22.7273081     234.8994     72.21615      1.076     3.91     4.481397     20.37956     50.45835         6     0.767     0.570  24.31   0
       121    980.3309    722.5669 300.2450993 +22.8785729     4510.788     72.23455      1.661     3.49     5.186341     20.37956     374.0155        33     1.270     1.225  24.81   0
       122    585.8689    723.4362 300.1218690 +22.7606237     1229.538     72.23455      1.391     2.95     4.367896     20.37956      130.571        18     1.053     0.970  30.76   0
       123    505.6103    723.0197 300.0970149 +22.7364434     365.4372     72.21615      1.397     4.79     4.477607     20.37956     49.65982         9     1.148     0.633  61.94   0
       124    666.8132    718.0944 300.1488171 +22.7833524      305.146     72.16092      1.537     6.40     4.030911     20.37956     39.43282         9     1.306     0.880  65.37   0
       125    968.7898    713.8892 300.2443198 +22.8726229     1519.208     72.17934      1.517     3.29     5.136441     20.37956     138.3428        21     1.136     1.066  73.45   0
       126    331.6501    707.8127 300.0478232 +22.6799156     737.3713     72.28973      1.389     3.06     4.464995     20.37956     104.1053        13     0.943     0.891 -50.77   0
       127    795.0583    705.2678 300.1929491 +22.8181005     2637.441     72.27134      1.516     2.93     4.256543     20.37956     233.6151        29     1.248     1.126  15.77   0
       128    999.9874    704.0941 300.2572360 +22.8791527     1602.972     72.16092      1.593     3.66     5.283622     20.37956     132.7961        23     1.239     1.055 -20.20   0
       129     17.6249    695.1752 299.9543138 +22.5820840     811.9363     72.19775      1.761     3.29     4.534904     20.37956     84.58765        16     1.209     0.889 -74.70   0
       130    180.7233    691.8907 300.0060644 +22.6300777     634.1525      72.3816      1.616     3.77     4.752383     20.37956     73.00935         9     0.961     0.768  25.10   0
       131    877.5560    690.9270 300.2233294 +22.8386975     615.3114     72.21615      1.826     5.42     4.735075     20.37956     57.01506        16     1.401     0.920  57.64   0
       132    460.6826    691.4451 300.0932921 +22.7139113     224.8789     72.19775      1.291     4.29      4.47452     20.37956     33.65509         6     1.090     0.481   7.25   0
       133    913.5793    682.1369 300.2374198 +22.8469633     148729.2     72.19775      1.556     3.08     4.922964     20.37956     13607.59       153     1.438     1.429  28.08   0
       134    676.1172    685.7932 300.1622139 +22.7768664     400.5816     72.16092      1.484     3.73     4.139986     20.37956     44.12812         8     0.894     0.855  75.66   0
       135    766.0823    682.2383 300.1914025 +22.8028044     695.2467     72.19775      1.303     3.37     4.252223     20.37956     91.02831        12     1.093     0.802  24.17   0
       136    519.0843    682.6628 300.1143258 +22.7288995     151.9396     72.32649      1.105     2.35     4.482434     20.37956     41.43165         5     0.833     0.472  -1.31   0
       137    946.1899    675.1211 300.2498707 +22.8547154      451.573     72.19775      1.346     4.43     5.072191     20.37956      39.2893         8     1.108     0.503  35.18   0
       138    599.8548    670.8763 300.1433067 +22.7497271     1673.748     72.27134      1.379     2.51     4.539371     20.37956      248.651        21     1.098     0.952  29.49   0
       139    781.0366    668.2222 300.2006184 +22.8032596     9345.258     72.25295      1.395     2.80     4.350295     20.37956     1019.819        38     1.183     1.141  24.72   0
       140    282.5740    663.2740 300.0470324 +22.6524187     5001.866     72.25295      1.455     2.65     4.491932     20.37956     626.3982        36     1.253     1.116  33.11   0
       141    364.5711    661.3767 300.0731550 +22.6764640      1102.92     72.23455      1.352     2.72     4.474609     20.37956     152.2076        18     1.027     0.975   4.20   0
       142    240.5551    658.9386 300.0353742 +22.6385725     475.0601     72.27134      1.755     3.90     4.662252     20.37956     52.98758        10     1.063     0.729 -41.32   0
       143    573.1571    657.1470 300.1394539 +22.7377834     611.7023     72.25295      1.336     2.83     4.625758     20.37956     87.10505        11     0.969     0.693  45.40   0
       144    564.5472    648.9966 300.1394212 +22.7328628     3239.814     72.23455      1.385     2.55     4.682422     20.37956     452.9879        24     1.069     1.015  53.71   0
       145    554.7291    642.7864 300.1383819 +22.7281371     1564.386     72.23455      1.382     2.60     4.724324     20.37956     204.7183        17     1.015     0.908  29.48   0
       146    483.0316    641.7911 300.1163837 +22.7063596     263.2604     72.23455      1.479     5.28     4.722443     20.37956     36.13375         7     1.035     0.762 -83.42   0
       147    948.1502    640.7129 300.2616638 +22.8454161     527.1077     72.23455      1.458     4.46     5.046288     20.37956     57.52008        12     1.072     0.900  34.79   0
       148    465.6987    639.6355 300.1116890 +22.7005448     284.9752     72.21616      1.652     3.42     4.689864     20.37956      54.4571         6     1.151     0.678  35.66   0
       149    218.0938    638.8828 300.0349066 +22.6260819     615.6049     72.39996      1.432     3.43     4.860293     20.37956     87.94071        11     0.979     0.807 -34.83   0
       150    232.5372    637.4178 300.0398735 +22.6299937     663.3256     72.21616      1.387     2.74     4.824626     20.37956     92.62954        10     0.944     0.726 -36.69   0
       151   1002.0508    633.9902 300.2806626 +22.8596261     620.0333     72.23455      1.688     5.81     5.117978     20.37956     61.71714        12     1.244     0.968 -24.13   0
       152    289.2166    633.7940 300.0586769 +22.6459524     442.7316     72.17934      1.400     3.14     4.557222     20.37956     51.34526         9     0.893     0.815  45.92   0
       153    257.9291    633.8875 300.0489162 +22.6365962     620.3036     72.39996      1.551     3.97     4.715248     20.37956     64.05334        12     1.047     0.800  49.97   0
       154    578.9321    633.0846 300.1490709 +22.7326059     414.3587     72.34486      1.219     3.01     4.808409     20.37956     62.70008         7     0.879     0.508 -42.08   0
       155    513.6557    632.2888 300.1290045 +22.7128119     454.0014     72.27134      1.839     4.88      4.80305     20.37956     37.81452         6     0.931     0.724 -83.60   0
       156    479.4971    632.4308 300.1183248 +22.7026132      1783.71     72.17934      1.341     2.52       4.7913     20.37956     221.0843        18     0.984     0.970   4.00   0
       157    133.4538    627.2811 300.0123646 +22.5973657     19886.79     72.27134      1.623     3.05     4.924746     20.37956     2175.656        63     1.401     1.326  33.87   0
       158     54.3530    628.7546 299.9873053 +22.5740582     782.9008     72.27134      1.817     4.58     4.678693     20.37956     97.95209        19     1.512     1.024 -14.74   0
       159    564.5517    627.8130 300.1463056 +22.7267824     1106.354     72.25295      1.410     2.63     4.842723     20.37956     153.5632        15     0.961     0.944  65.61   0
       160    599.5192    626.7813 300.1575302 +22.7369662     426.8436     72.21615      1.415     3.25     4.857581     20.37956     59.53092         7     0.942     0.476  79.21   0
       161    318.1488    619.4419 300.0723387 +22.6505102     193.6273     72.23455      1.111     3.40     4.595126     20.37956     36.20516         5     0.766     0.436  22.16   0
       162    982.5640    614.0479 300.2810629 +22.8480597     1133.907     72.25295      1.592     3.78     5.026378     20.37956     101.5286        18     1.107     1.048  53.63   0
       163     79.5517    611.5568 300.0007218 +22.5766857      1591.52     72.25295      1.959     4.53     4.785627     20.37956     130.0622        29     1.628     1.156 -85.74   0
       164    849.1813    612.4310 300.2399901 +22.8076476     567.0244     72.23455      1.532     3.57     4.754792     20.37956     54.98913         8     0.813     0.714  88.02   0
       165    145.9485    612.2171 300.0211419 +22.5967927     301.6753     72.23455      1.249     3.96     4.992017     20.37956     49.52544         7     0.908     0.651 -11.98   0
       166    527.6713    608.3241 300.1411540 +22.7101331     466.3981     72.32649      1.233     3.02     4.988019     20.37956     64.67578        11     0.969     0.765  31.32   0
       167    922.9524    606.8440 300.2648094 +22.8281377     958.0955     72.25295      2.105     3.48     4.988104     20.37956     86.41236        16     1.211     0.861 -12.37   2
       168    321.0360    607.8362 300.0770072 +22.6480456     337.1359     72.30811      1.550     3.56     4.628711     20.37956     42.35348         5     1.102     0.332   8.95   0
       169    667.1227    605.1676 300.1856100 +22.7510184     339.7296     72.21615      1.437     3.18     4.687675     20.37956     41.02771         6     0.750     0.559  35.18   0
       170    484.7545    600.6461 300.1302878 +22.6950650     782.6602     72.27134      1.292     2.57     4.979936     20.37956     107.5461        13     0.921     0.854 -62.22   0
       171    679.8606    597.8635 300.1919513 +22.7527375     470.2942     72.27134      1.460     3.73     4.685966     20.37956     54.01899         8     0.898     0.681  77.64   0
       172    632.6808    599.1758 300.1768276 +22.7389771     541.5648     72.19775      1.168     2.73     4.905017     20.37956     76.97588         9     0.923     0.606  36.53   0
       173    650.1931    597.4772 300.1828345 +22.7437370     689.7788     72.16092      1.397     3.09     4.823952     20.37956     86.20287        12     1.075     0.785  33.84   0
       174    528.8637    596.4833 300.1453720 +22.7070910     1024.108     72.32649      1.486     3.59      5.03198     20.37956      117.073        15     1.061     0.930  33.90   0
       175    715.6204    595.2825 300.2039317 +22.7627105     312.5152     72.19775      1.471     4.39     4.646945     20.37956     51.40136         6     1.195     0.485  89.42   0
       176    962.5979    592.2781 300.2819075 +22.8358246     3402.831      72.1425      1.512     2.79     4.975102     20.37956     348.3154        29     1.227     1.140  32.78   0
       177    494.3091    591.8760 300.1361111 +22.6954112     1712.183      72.3816      1.330     2.42     4.997009     20.37956      245.647        20     1.080     0.924  38.70   0
       178    469.4291    587.3762 300.1298282 +22.6866617     317.4403     72.23455      1.219     2.64     4.924307     20.37956     62.09143         5     0.725     0.463  14.86   0
       179     56.2364    585.5322 300.0019311 +22.5622270     5047.312     72.23455      1.679     3.03     4.716332     20.37956     588.0511        37     1.346     1.254  10.84   0
       180   1002.1973    582.3041 300.2975013 +22.8448157     378.1467      72.1425      1.677     4.67     4.954295     20.37956     47.07658         7     0.929     0.667 -28.57   0
       181    357.7815    578.7069 300.0979007 +22.6507033     9109.618     72.16092      1.368     2.57     4.754465     20.37956     1302.699        38     1.177     1.083  35.69   0
       182    480.2162    575.7791 300.1369531 +22.6865658     8860.641     72.21615      1.322     2.47     4.977638     20.37956     1215.671        39     1.183     1.057  61.86   0
       183    726.6215    572.4986 300.2147612 +22.7594621     343.4955     72.16092      1.125     3.34      4.65887     20.37956     53.33865         7     0.941     0.493  -5.99   0
       184    124.2841    571.5880 300.0276060 +22.5786395     165.1448     72.17934      1.096     4.78     4.749632     20.37956      34.7732         5     1.008     0.642 -66.81   0
       185    891.9107    569.8907 300.2671338 +22.8082227     1971.773     72.39996      1.449     2.88     4.861557     20.37956     222.6109        25     1.122     1.119 -49.91   0
       186    976.5620    567.2595 300.2943911 +22.8328159     12679.44     72.25295      1.507     2.83     4.923086     20.37956     1328.858        46     1.260     1.226  79.19   0
       187    540.7636    565.3540 300.1591892 +22.7017197     11655.19     72.27134      1.291     2.40     5.185103     20.37956     1581.806        43     1.152     1.106  77.58   0
       188    710.3336    561.4045 300.2132896 +22.7513957     491.9915     72.23455      1.204     3.10     4.746301     20.37956     70.10175        10     0.959     0.752  48.67   0
       189    268.2641    560.7665 300.0758834 +22.6187143     1247.307     72.23455      1.391     2.70     4.998847     20.37956      185.225        18     1.106     0.942  24.32   0
       190    514.7957    558.3313 300.1533852 +22.6919207     433.8198     72.19775      1.321     3.17     5.116352     20.37956     60.58467         8     0.921     0.638   5.56   0
       191    472.4735    553.5580 300.1417608 +22.6778655     4422.274     72.21616      1.292     2.24     4.958587     20.37956     636.0814        28     1.107     0.990  54.22   0
       192    815.3140    553.6010 300.2485432 +22.7806013     740.3765      72.1425      1.253     2.33     4.856071     20.37956     112.2139        13     0.920     0.788  44.44   0
       193    450.6902    551.9186 300.1355130 +22.6708657     1257.662     72.34486      1.384     2.62     4.897833     20.37956     176.6683        14     0.980     0.858  19.08   0
       194    205.1765    551.3853 300.0593132 +22.5971043      796.105     72.23455      1.392     2.90      4.94228     20.37956     81.71326        14     1.022     0.833 -13.24   0
       195    892.4227    549.1707 300.2740240 +22.8024220     1618.653     72.23455      1.555     3.40     4.843123     20.37956     147.0007        23     1.233     1.095 -31.33   0
       196    138.6884    548.9440 300.0394375 +22.5764637     375.9514     72.27134      1.590     3.69     4.636926     20.37956       50.551         8     1.167     0.788 -80.73   0
       197    992.8260    547.9962 300.3057223 +22.8321490     166.9293     72.19775      1.079     3.79     4.883553     20.37956     29.33322         5     0.818     0.505 -35.28   0
       198    772.8688    546.3218 300.2376770 +22.7657964     884.8568     72.34486      1.320     2.36     4.787596     20.37956     123.6576        11     0.856     0.734 -76.78   0
       199    589.0999    541.1032 300.1821177 +22.7092409     201916.1     72.43666      1.313     2.51     5.289434     20.37956     26725.44       193     1.408     1.331  -7.65   0
       200    412.6779    547.5743 300.1250940 +22.6582243     299.8809     72.23455      1.353     3.40     4.816397     20.37956     50.75297         6     0.870     0.491   4.49   0
       201    866.2148    544.4501 300.2673850 +22.7932168     191.3925     72.25295      1.219     3.47     4.807669     20.37956     31.73007         5     0.769     0.453  19.35   0
       202    977.4659    542.7114 300.3026471 +22.8260311     239.0901     72.34486      1.247     5.54     4.874511     20.37956      38.9157         7     1.077     0.803 -53.85   0
       203    275.1151    540.9991 300.0844341 +22.6150958     3461.096     72.12408      1.392     2.83     5.075879     20.37956     451.8703        27     1.171     1.087  40.83   0
       204    840.8740    537.2942 300.2618083 +22.7835714     458.4553      72.3816      1.267     3.75     4.819695     20.37956     57.26917         9     0.895     0.747   7.52   0
       205    479.3257    525.3474 300.1530560 +22.6718197      451.661     72.25295      1.220     3.63     4.983548     20.37956     46.70538         5     0.807     0.481  67.42   3
       206    479.7727    521.3900 300.1544803 +22.6708174     2698.442     72.23455      1.282     2.35     4.985756     20.37956     363.0475        22     1.009     0.974 -81.36   2
       207    324.0279    523.8744 300.1052093 +22.6248459     463.0014     72.25295      1.347     3.98     4.991285     20.37956     52.85868         9     0.956     0.671  -1.98   0
       208    891.2409    517.9772 300.2837869 +22.7931039     400.5462     72.27134      1.377     3.23     4.698503     20.37956     46.03541         7     0.758     0.638  73.59   0
       209    797.0790    509.9768 300.2570275 +22.7626056      390.008     72.19775      1.337     3.24      4.88312     20.37956     58.47013         7     0.978     0.596  61.38   0
       210    876.7083    507.7159 300.2825877 +22.7858032     1662.781     72.39996      1.336     2.61     4.626888     20.37956     218.1873        19     1.042     0.951  26.94   0
       211    762.9205    508.3117 300.2469213 +22.7518962     222.4907     72.36324      1.130     2.88     4.861532     20.37956     42.36532         5     0.757     0.419 -18.19   0
       212    747.8760    505.3917 300.2431809 +22.7465510     2546.231     72.19775      1.268     2.26     4.865996     20.37956     350.1767        22     1.070     0.916  57.46   0
       213      6.7900    506.1750 300.0123418 +22.5246322     830.3159     72.23455      1.630     3.73     5.115144     20.37956     76.02238        13     0.988     0.909 -11.94  16
       214    107.9918    505.8138 300.0439033 +22.5548834     386.9751     72.12408      1.874     3.54      4.65186     20.37956     46.18647         5     1.128     0.321  67.55   0
       215    992.2543    502.8305 300.3202134 +22.8189954     392.5731     72.25295      1.406     2.77     4.862967     20.37956     67.31614         7     0.952     0.588 -16.69   2
       216    991.2740    498.5373 300.3213017 +22.8174677     782.8284     72.27134      1.364     2.93     4.858355     20.37956     107.6528        13     1.026     0.823  70.77   2
       217    652.7027    502.0291 300.2146183 +22.7170750     625.4307     72.16092      1.372     2.86      5.14582     20.37956     79.33424         9     0.933     0.635 -65.19   0
       218    535.0364    501.1931 300.1782439 +22.6815794     724.8279     72.23455      1.335     2.97     5.242412     20.37956     89.04195        10     0.900     0.727 -55.39   0
       219   1005.2135    499.4276 300.3253616 +22.8218968     1204.944     72.23455      1.413     2.85     4.903802     20.37956     145.8556        19     1.106     0.953  16.00   0
       220    876.9585    497.6652 300.2859298 +22.7829896     2279.663     72.21615      1.574     5.20     4.573526     20.37956     261.8145        28     1.651     0.982  73.60   0
       221    630.1744    495.8578 300.2096048 +22.7085531     603.4118     72.23455      1.365     2.37     5.223629     20.37956     81.07442         8     0.774     0.635  41.12   0
       222    416.4562    495.6730 300.1431249 +22.6444569     395.1863     72.27134      1.138     3.40     4.901339     20.37956     64.98864         5     1.149     0.291  44.35   0
       223    915.1448    492.8531 300.2994009 +22.7930409     4281.194     72.27134      1.383     2.76     4.606412     20.37956     541.9361        30     1.150     1.097 -51.50   0
       224    468.9304    494.5695 300.1598150 +22.6598670     390.8318     72.23455      1.115     1.90     4.971785     20.37956     71.33333         6     0.714     0.492  -5.74   0
       225    556.1728    492.6028 300.1876147 +22.6854459     277.9743     72.17934      1.002     2.65     5.288483     20.37956     44.51769         5     0.699     0.475 -13.45   0
       226    957.2043    502.4871 300.3093908 +22.8084031     301.1968     72.16092      1.233     3.01     4.756415     20.37956      38.7213         5     0.735     0.442  23.48   0
       227    575.9624    488.7839 300.1950174 +22.6902787     278.7962     72.23455      1.252     1.86     5.287856     20.37956     60.92001         7     0.698     0.614  -2.87   0
       228   1006.9797    483.3269 300.3311413 +22.8177970     645.6833     72.25295      1.299     3.63     4.921768     20.37956     83.70116        13     1.185     0.747  41.81   0
       229    147.0652    482.9837 300.0634604 +22.5600509     946.6032     72.21615      1.359     3.03     4.887147     20.37956     133.0005        14     1.015     0.902  20.10   0
       230    946.9265    480.4094 300.3133544 +22.7989799     226.5503     72.23455      1.155     4.35     4.653009     20.37956     35.19024         6     0.869     0.620 -36.83   0
       231    139.3371    472.8149 300.0643599 +22.5548156     452.0182     72.19775      1.640     4.53     4.867722     20.37956     51.87318         7     0.958     0.697 -72.33   0
       232   1003.5962    472.3669 300.3336446 +22.8136333     348.6672     72.23455      1.342     4.25     4.910946     20.37956     52.77929         7     0.986     0.675 -13.34   0
       233    747.6859    467.3772 300.2554658 +22.7355719     455.0074     72.17934      1.243     3.00     4.943156     20.37956     64.42159         9     0.867     0.795 -59.94   0
       234    793.7239    467.6268 300.2697340 +22.7494318     106.2773     72.25295      1.123     3.48     4.836012     20.37956     34.26682         5     0.755     0.464  13.26   0
       235    356.3760    465.8848 300.1341025 +22.6178968     234.9896     72.19775      1.178     2.92     4.929653     20.37956     40.17515         5     0.729     0.450 -71.86   0
       236    636.3787    464.7967 300.2216232 +22.7014896     274.0992     72.19775      1.244     3.10      5.18672     20.37956     41.18781         6     0.710     0.642  11.92   0
       237    688.6766    463.3591 300.2383826 +22.7167428     804.0392     72.19775      1.213     2.10     5.037278     20.37956      113.549         9     0.774     0.682   4.30   0
       238   1003.0137    456.0103 300.3387739 +22.8087566     552.2844      72.1425      1.348     2.93     4.909019     20.37956     82.64923        11     1.024     0.730  86.86   0
       239    749.3940    455.4478 300.2598715 +22.7326558     818.9404     72.21616      1.244     2.36     4.912481     20.37956     122.4951        14     0.942     0.827  60.57   0
       240    906.6323    451.7691 300.3100866 +22.7786836     937.6476     72.23455      1.391     3.09     4.525863     20.37956     127.3664        13     0.971     0.868 -30.00   0
       241    871.3774    448.7734 300.3000652 +22.7672669     392.1734     72.21615      1.342     3.30       4.3971     20.37956     42.57216         6     0.717     0.641  30.60   0
       242    890.9611    447.8885 300.3064593 +22.7728761      695.937     72.21615      1.349     3.29      4.46699     20.37956     85.49761        12     1.037     0.793 -48.04   0
       243    635.1591    445.9805 300.2273525 +22.6957190     3291.003     72.27134      1.298     2.40      5.15392     20.37956     474.9951        28     1.086     1.023  40.85   0
       244    995.9458    445.3549 300.3400285 +22.8035775     435.6951     72.27134      1.272     2.32     4.882026     20.37956     67.74448         7     0.718     0.622  -0.59   0
       245    781.7405    445.5712 300.2731599 +22.7395051     213.3354     72.23455      1.112     3.46     4.795331     20.37956      34.9633         5     0.788     0.439  20.51   0
       246    111.1301    437.2462 300.0671402 +22.5361509     385.4401     72.21615      1.456     3.89     4.903844     20.37956     46.64032         7     0.804     0.766  24.59   0
       247    640.7320    433.9312 300.2330003 +22.6939269     261.9995     72.28973      1.102     3.23     5.105267     20.37956     49.47671         5     0.809     0.467  24.54   0
       248   1004.8915    424.0620 300.3497326 +22.8001334     915.4321     72.32649      1.354     3.52     4.921706     20.37956     107.5928        15     1.078     0.953  -2.19   0
       249    918.3945    424.8887 300.3224821 +22.7744783     515.8011      72.1425      1.201     2.82     4.573071     20.37956     80.08029         9     0.901     0.660  50.10   0
       250    541.9917    420.7151 300.2065390 +22.6605501     476.9086     72.17934      1.383     2.71     4.947418     20.37956     68.00826         8     0.920     0.577  -5.70   0
       251    745.6827    419.9507 300.2702393 +22.7213444     1065.524     72.23455      1.269     2.31     4.840617     20.37956     180.0951        16     1.116     0.856  17.55   0
       252    249.7258    418.2123 300.1164056 +22.5722424     814.2313     72.25295      1.425     2.94     4.918193     20.37956     85.68628        11     0.964     0.723 -14.09   0
       253     90.3169    416.3972 300.0674398 +22.5239271     239.1987     72.16092      1.531     3.63     5.020268     20.37956     42.19321         5     0.933     0.487   3.31   0
       254    312.1404    413.8721 300.1372266 +22.5897056     3821.851     72.27134      1.360     2.33     4.928347     20.37956      511.461        30     1.171     1.045  60.84   0
       255    259.3100    408.5542 300.1225212 +22.5723430     7656.908     72.21615      1.390     2.44     4.917208     20.37956      1095.33        38     1.187     1.119  58.64   0
       256   1023.8212    403.3323 300.3623685 +22.7998388     515.0487     55.24027      1.092     3.36     4.988758     20.37956     126.3173         8     1.211     0.365  84.23  24
       257    400.1644    402.8770 300.1681818 +22.6129300     4926.478     72.19775      1.316     2.49     4.924061     20.37956     666.9103        27     1.111     0.983  49.78   0
       258    661.9462    399.6557 300.2507356 +22.6904339     908.9997     72.27134      1.970     6.63     4.945275     20.37956     72.32509        17     1.608     0.804 -33.10   0
       259    644.3676    399.6028 300.2452766 +22.6851535     18533.96     72.21616      1.254     2.19     5.020949     20.37956     2725.056        45     1.145     1.045  69.37   0
       260    491.8018    401.3030 300.1972142 +22.6399371     290.0672      72.1425      1.245     2.66     4.925216     20.37956     40.78293         5     0.740     0.432 -15.17   0
       261    271.1964    397.5675 300.1297839 +22.5727522     267.3441     72.23455      1.424     4.24     4.918165     20.37956     36.16038         6     1.044     0.490  -4.57   0
       262    841.2382    390.1130 300.3097112 +22.7413823     365.0495     72.21615      1.405     4.35     4.460913     20.37956     44.05335         8     1.103     0.702 -78.45   0
       263    264.2346    386.5497 300.1311948 +22.5675024     340.7643     72.25295      1.447     3.06     4.913875     20.37956     52.02189         6     0.777     0.497   1.11   0
       264    977.8497    382.3231 300.3548453 +22.7800385     903.5517     72.23455      1.549     2.87       4.8134     20.37956     100.2894        10     0.908     0.747 -15.64   0
       265    514.7278    381.6059 300.2107449 +22.6411484     402.4385     72.17934      1.516     2.97       4.9225     20.37956     56.86351         7     0.903     0.741 -48.95   0
       266    198.9984    379.5248 300.1131893 +22.5459304     2098.744      72.1425      1.415     2.72     4.941575     20.37956     252.5723        24     1.175     1.002  33.64   0
       267    585.0051    369.0358 300.2367081 +22.6585905     6629.147     72.25295      1.278     2.30      5.00616     20.37956     1007.689        32     1.123     1.007  65.05   0
       268    998.6877    369.5233 300.3655010 +22.7825949     1121.092     72.36324      1.355     2.47     4.886042     20.37956     169.8735        18     1.160     0.899  32.81   0
       269    299.7724    368.6288 300.1480641 +22.5730092     737.8127     72.19775      1.417     2.70     4.909117     20.37956     86.72486        11     0.976     0.677 -38.32   0
       270    157.5665    361.6224 300.1061189 +22.5283710     424.7181     72.25295      1.177     4.15     5.006829     20.37956     78.63399        10     1.264     0.611  55.44   0
       271      4.7477    359.2239 300.0594087 +22.4818618     1406.095     70.99112      1.549     2.88     5.121807     20.37956     141.3322        21     1.107     1.036  36.54  16
       272    789.1693    358.0323 300.3038915 +22.7165715     1216.465     72.23455      1.368     2.47     4.678837     20.37956     159.8503        15     0.970     0.865  53.97   0
       273    698.7916    359.1277 300.2753697 +22.6898235     393.0751     72.21615      1.116     2.36      4.86868     20.37956     72.52522         8     0.771     0.638  43.41   0
       274    273.7737    357.5604 300.1435698 +22.5620391     73.55424     72.27134      0.988     3.43     4.907641     20.37956     30.34887         5     0.739     0.461  18.50   0
       275    491.6436    355.2624 300.2121081 +22.6266657     6114.755     72.23455      1.232     2.25     4.923861     20.37956     913.4727        31     1.091     1.010  63.78   0
       276    981.1000    350.0769 300.3663255 +22.7717393     724.4289     72.36323      1.592     4.10     4.827587     20.37956     66.98279        10     0.999     0.684  28.62   0
       277    883.5560    349.7404 300.3360101 +22.7424456     1422.617     72.27134      1.327     2.22     4.522721     20.37956     195.5605        16     0.928     0.892  72.51   0
       278    476.2218    343.9556 300.2109766 +22.6187977     546.0414     72.28973      1.250     2.24     4.924145     20.37956     82.32113         8     0.767     0.644  27.78   0
       279    558.7770    342.0815 300.2372879 +22.6429903     531.4917     72.17934      1.408     3.21       4.8825     20.37956     59.25874         9     0.933     0.636  34.51   0
       280      3.0697    340.6814 300.0649044 +22.4760381     1028.546     65.19421      1.540     3.51      5.19944     20.37956     128.6877        19     1.159     1.095  35.93  24
       281    836.8458    341.0667 300.3242604 +22.7259689     325.4319     72.23455      1.321     3.75     4.591774     20.37956     36.19097         5     0.790     0.514  31.10   0
       282    539.5647    339.3138 300.2322036 +22.6364401      331.383     72.21615      1.437     3.83     4.847373     20.37956     52.41053         6     0.881     0.627 -24.60   0
       283    856.3516    337.4145 300.3315274 +22.7307583      494.684     72.27134      1.252     2.84     4.579213     20.37956     63.78645        10     0.968     0.700  56.04   0
       284    379.0890    334.3884 300.1838513 +22.5869469     2638.389     72.17934      1.348     2.50     4.882801     20.37956     358.9586        26     1.147     1.026  40.32   0
       285     97.5018    331.8952 300.0970963 +22.5018313      1097.22     72.41831      1.546     2.88     5.115389     20.37956     139.2721        17     1.077     0.932  24.91   0
       286    726.5359    329.5967 300.2935987 +22.6896448     313.3165     72.23455      1.362     3.23     4.875681     20.37956     45.53565         6     0.863     0.491   0.52   0
       287    348.5258    323.8883 300.1777491 +22.5747732     30149.87      72.3816      1.344     2.41     4.844791     20.37956     4467.232        68     1.285     1.138  50.41   0
       288    883.0958    321.5896 300.3450022 +22.7342146     1459.618     72.16092      1.272     2.37     4.699065     20.37956     213.2535        16     0.957     0.870  17.60   0
       289    838.6080    319.3511 300.3318569 +22.7202537     314.2807     72.23455      1.210     2.99     4.704117     20.37956     43.97424         5     0.716     0.462 -73.20   0
       290     44.8673    311.6389 300.0873132 +22.4802370     4938.296     72.19775      1.583     3.01     5.272579     20.37956     560.6381        36     1.328     1.200  55.17   0
       291    798.5180    310.5698 300.3222081 +22.7057277     569.9406     72.25295      1.371     3.73     4.744249     20.37956     68.51222        10     1.044     0.740  72.26   0
       292    222.5662    310.4732 300.1429246 +22.5331723     485.0136     72.23455      1.401     2.66     4.908747     20.37956     61.46274         6     0.840     0.454  17.05   0
       293    446.9809    309.0584 300.2131987 +22.6000135     566.2762     72.21615      1.193     3.56     4.918143     20.37956     76.38454         9     1.001     0.618  57.91   0
       294    758.9770    303.6568 300.3121263 +22.6919025     2070.132     72.23455      1.379     2.49     4.851009     20.37956     295.7918        19     1.037     0.914  64.76   0
       295    974.0322    296.5612 300.3814871 +22.7542348      578.306     72.27134      1.432     2.98     4.982177     20.37956     88.85518        11     0.995     0.781 -34.17   0
       296    420.7870    288.2708 300.2117908 +22.5861950     2279.411     72.23455      1.432     2.95     4.914721     20.37956      322.881        23     1.291     0.928  53.36   0
       297    632.6382    287.0690 300.2781426 +22.6493052     230.2658     72.19775      1.072     2.66     4.822381     20.37956     51.69538         6     0.785     0.477  84.78   0
       298    859.9166    281.3396 300.3508346 +22.7157040     499.7305     72.34486      1.211     3.00     4.913487     20.37956     82.35248        11     0.933     0.827  47.92   0
       299    852.2522    281.7344 300.3483167 +22.7135234     289.4024     72.27134      1.211     4.15     4.898908     20.37956     37.55482         7     0.962     0.663  78.97   0
       300    759.1933    279.1638 300.3201407 +22.6849267     344.1558     72.25295      1.327     3.95     4.890956     20.37956     35.41541         6     0.752     0.592  49.10   0
       301    742.2227    278.9344 300.3149260 +22.6797800     449.7922     72.21615      1.280     2.18     4.917526     20.37956     80.95918         8     0.793     0.612  35.20   0
       302    211.1496    269.2614 300.1527449 +22.5179183     95.27089     72.28973      1.034     3.94     4.958792     20.37956     35.59712         6     0.782     0.569  40.15   0
       303    496.5657    267.8021 300.2420189 +22.6030155     1099.199     72.19775      1.274     2.36     4.859711     20.37956     186.0634        15     1.024     0.813  27.84   0
       304    304.4174    268.0545 300.1821424 +22.5455220     432.7416     72.21615      2.063     2.68      4.83205     20.37956     44.14257         5     0.748     0.557   7.40   0
       305     68.9547    268.0578 300.1089361 +22.4749505     276.4995     72.27134      1.189     3.56     5.285749     20.37956     38.61935         5     0.652     0.577  88.37   0
       306    581.7396    265.4219 300.2693123 +22.6278419     239.2875     72.19775      1.402     3.50     4.807017     20.37956     29.36432         5     0.771     0.458 -17.31   0
       307   1007.8560    263.5696 300.4027439 +22.7548678     292.1009     72.25295      1.190     3.59     4.962767     20.37956     41.30458         5     1.075     0.346 -86.56   0
       308    879.9490    261.3325 300.3635722 +22.7159472     213.7421     72.21615      0.980     3.84     4.947668     20.37956     41.69512         6     0.992     0.427  12.82   0
       309    741.5027    259.6261 300.3209658 +22.6740142     2176.996     72.16092      1.229     2.33     4.947493     20.37956     329.1559        18     0.979     0.919  58.28   0
       310   1002.7382    253.9882 300.4042556 +22.7505806     3181.756     72.19775      1.397     2.67     4.916472     20.37956     366.8661        27     1.141     1.076  82.07   0
       311    449.8663    243.2675 300.2354408 +22.5819785     646.9404     72.28973      1.307     2.77     4.917192     20.37956     84.03093         8     0.793     0.667  40.11   0
       312    155.5343    237.6618 300.1457045 +22.4921772     594.5589     72.27134      1.369     3.47     5.213033     20.37956      73.1972         9     1.006     0.707 -11.08   0
       313    124.6951    237.4717 300.1361802 +22.4828793      1254.98     72.34486      1.652     3.66     5.252561     20.37956     136.8199        21     1.219     1.112 -23.54   0
       314   1018.7203    234.5090 300.4155614 +22.7497596      508.461     72.34486      1.446     3.68     4.801746     20.37956     65.80424         9     0.940     0.766 -14.12  16
       315    862.2603    231.2509 300.3678149 +22.7020032     379.9232     72.28973      1.353     3.73     4.991421     20.37956      53.7171         9     0.984     0.709  -0.30   0
       316    208.5791    229.5105 300.1648398 +22.5057343      549.695     72.16092      1.447     2.32     5.039538     20.37956     90.34605         8     0.859     0.641   3.64   0
       317   1003.9336    227.5656 300.4132000 +22.7433382     269.6028     72.23455      1.437     3.10     4.797863     20.37956     41.21889         5     0.736     0.613  76.51   0
       318    884.4698    223.3504 300.3773033 +22.7063782     347.4874     72.23455      1.235     3.64     4.994725     20.37956     50.93792         9     1.032     0.736  33.57   0
       319    813.3101    220.9950 300.3558797 +22.6844033      714.032      72.1425      1.445     2.69     4.997017     20.37956      99.5938        11     0.960     0.713 -17.92   0
       320    403.7634    220.8494 300.2283638 +22.5617280     345.7007     72.25295      1.149     2.50     4.876039     20.37956     67.82979         9     0.892     0.628 -25.79   0
       321    911.2864    210.0836 300.3899697 +22.7105879     2104.486     72.34486      1.347     2.58     4.988638     20.37956     257.6189        27     1.198     1.052  59.58   0
       322    329.8198    207.1965 300.2097845 +22.5356543     2063.977     72.19775      1.308     2.61      4.83982     20.37956     287.9182        23     1.149     0.947  46.07   0
       323    159.6493    202.9161 300.1582528 +22.4834345      298.175     72.21615      1.395     2.02     5.336865     20.37956     57.32088         7     0.682     0.632  61.70   0
       324    809.7236    201.8414 300.3609742 +22.6778226     426.0812     72.19775      1.208     2.60     4.998013     20.37956     82.84035         7     0.970     0.512  47.14   0
       325    566.0544    202.0371 300.2849877 +22.6049298     119.4986     72.25295      0.964     2.45     4.945746     20.37956     47.39674         5     0.607     0.593  -6.81   0
       326      5.7494    195.8958 300.1127032 +22.4352898     430.2334     72.30811      2.136     4.28     5.437067     20.37956      33.2324         6     1.085     0.659  -2.52  16
       327    224.5205    194.5479 300.1811358 +22.5004715     823.6189     72.23455      1.359     2.51     5.020731     20.37956     116.0975        15     1.172     0.793  46.43   0
       328    407.5116    202.3437 300.2355322 +22.5575345     1005.348     72.27134      1.409     3.10     4.899749     20.37956     126.1168        19     1.135     1.057  38.67   0
       329    762.3833    191.5159 300.3495663 +22.6606841     1664.061     72.19775      1.228     2.03     5.024096     20.37956     261.2484        18     1.052     0.847  63.26   0
       330    827.3083    191.1641 300.3699193 +22.6800153       587.54     72.17934      1.364     2.59     4.999297     20.37956     72.69197         7     0.728     0.623  64.96   0
       331    245.9751    187.6477 300.1900452 +22.5049186     472.7269     72.23455      1.209     2.55     5.070959     20.37956     79.29819        10     0.885     0.739  85.46   0
       332    535.7599    184.2813 300.2813124 +22.5907553     275.5871     72.19775      1.302     4.81     4.921864     20.37956      35.9148         8     0.944     0.764  32.03   0
       333    766.3829    183.0128 300.3535706 +22.6594365     841.0321     72.16092      1.405     2.34     5.027323     20.37956     101.0997        11     0.879     0.728 -12.88   0
       334    686.8994    182.3025 300.3290311 +22.6354395     1265.732     72.43666      1.286     2.47     4.967924     20.37956     164.6615        17     1.019     0.881  32.85   0
       335    882.5288    173.8225 300.3927617 +22.6915537     1443.318     72.27134      1.273     2.02     4.998392     20.37956     225.8954        17     0.973     0.872  57.43   0
       336    613.3548    173.9173 300.3088389 +22.6110110     1143.173     72.19775      1.420     2.58     5.047177     20.37956     145.8356        15     1.022     0.854  28.60   0
       337    894.3525    172.5347 300.3968666 +22.6947214     764.6741     72.27134      1.455     3.42     4.997148     20.37956     100.0382        14     1.148     0.830  73.34   0
       338    940.7519    171.9816 300.4115177 +22.7084459     280.0244     72.27134      1.154     3.00     4.996367     20.37956     44.07631         6     0.883     0.451  48.85   0
       339   1011.1730    163.1232 300.4363599 +22.7269662     1140.875     72.23455      1.372     3.27     5.057023     20.37956     143.1179        16     1.153     0.867  58.47   0
       340     35.1473    159.6685 300.1335837 +22.4337028     481.4825     72.25295      1.345     2.33     5.419017     20.37956       85.741        10     0.915     0.688 -89.78   0
       341    244.9265    155.9978 300.1999822 +22.4955145     883.3118      72.1425      1.482     3.83      5.20489     20.37956     92.76763        13     1.073     0.890 -12.85   0
       342    107.0893    150.8555 300.1587971 +22.4527346     2255.971     72.27134      1.470     2.63     5.480004     20.37956     273.2501        28     1.261     1.075  60.16   0
       343    930.0425    148.0221 300.4159469 +22.6983498     889.0515     72.27134      1.515     3.27     5.031645     20.37956      104.708        15     1.056     0.988  29.43   0
       344     56.9447    147.8240 300.1441969 +22.4368357     598.1883     72.27134      1.518     2.66     5.470185     20.37956       69.722         8     0.825     0.629 -43.33   0
       345    264.4693    144.1288 300.2099084 +22.4979606     5795.216     72.30811      1.424     2.53     5.349769     20.37956     696.6795        39     1.293     1.140  51.73   0
       346     48.5412    138.5042 300.1446073 +22.4316413     1384.361     72.30811      1.674     2.81     5.501321     20.37956     174.6262        22     1.232     1.152  77.95   0
       347    248.0413    135.2845 300.2076668 +22.4904985     612.0618     72.19775      1.448     3.00     5.326892     20.37956       92.698        11     1.091     0.770   2.79   0
       348    908.5966    125.8553 300.4164456 +22.6855570     3601.474     72.19775      1.386     2.59      5.08681     20.37956      456.989        28     1.169     1.052  81.63   0
       349   1012.2463    124.6337 300.4491756 +22.7162137     2733.883     72.27134      1.439     2.65     5.475197     20.37956     392.7661        26     1.240     1.010  63.71   0
       350    211.0760    121.9158 300.2005061 +22.4755837     421.2951     72.34486      1.274     2.48     5.400482     20.37956     58.16938         5     0.617     0.578  81.97   0
       351    457.9801    121.0126 300.2776128 +22.5492815     671.9512     72.19775      1.337     2.67     5.240128     20.37956     89.51317         9     0.883     0.658  12.99   0
       352    382.1849    112.6887 300.2567222 +22.5241901     526.0559     72.17934      1.373     3.23     5.406852     20.37956     89.93426         9     1.126     0.538 -62.82   0
       353    917.2473    111.1449 300.4239133 +22.6839137     297.9919     72.27134      1.276     3.41     5.125014     20.37956      28.3398         5     0.973     0.345 -44.28   0
       354    386.1380    111.3437 300.2583883 +22.5249876     488.5041     72.28973      1.518     3.91     5.427059     20.37956     51.80913         7     0.744     0.670  21.42   0
       355    148.3870    109.8241 300.1849362 +22.4533278     595.0806     72.23455      1.202     3.00     5.715365     20.37956     89.14287         9     1.117     0.494 -38.29   0
       356    509.4278    108.2019 300.2977823 +22.5610056     1710.269     72.17934      1.260     2.20     5.277822     20.37956     214.3236        18     1.026     0.820  70.15   0
       357    437.3919    108.8454 300.2751491 +22.5396196     572.2435     72.25295      1.410     2.44      5.39244     20.37956     74.14962         9     0.843     0.714 -35.77   0
       358     46.2736    108.4010 300.1536619 +22.4223188      335.058     72.12408      1.528     4.76     5.616058     20.37956     37.43546         5     1.063     0.604  59.18   0
       359    571.0800    107.5234 300.3172000 +22.5792697     518.9376     72.34486      1.551     2.31     5.234395     20.37956     57.26942         6     0.738     0.498  -3.71   0
       360    333.7538    105.0266 300.2441372 +22.5074828     191.3602     72.25295      1.346     5.00     5.505624     20.37956     42.08305         6     1.115     0.635  69.25   0
       361    253.0742    103.3056 300.2195995 +22.4828206     648.3311      72.3816      1.753     4.23       5.4974     20.37956     57.90992         9     1.118     0.696 -86.79   0
       362    797.6597     97.7329 300.3909722 +22.6442739     268.8913     72.27134      1.189     3.16     5.048458     20.37956     53.49015         5     0.928     0.417  74.22   0
       363    644.8827     93.9575 300.3445859 +22.5974636     248.8159     72.19775      1.338     3.83     5.347244     20.37956     35.92348         5     1.296     0.324  59.44   0
       364    944.1400     92.3262 300.4384026 +22.6865453     421.5665     72.27134      1.482     4.53     5.319623     20.37956     48.87428         8     1.023     0.570 -16.64   0
       365    283.4552     87.9796 300.2340168 +22.4875190     6042.036     72.21615      1.416     2.67     5.640551     20.37956     755.7253        35     1.273     1.068  61.70   0
       366    790.1631     88.8593 300.3915120 +22.6394785     372.2641     72.25295      1.127     3.03     5.179197     20.37956     56.19594         6     0.767     0.556   3.25   0
       367    134.7139     87.5038 300.1879213 +22.4428208     794.4137     72.41831      1.587     3.32     5.829891     20.37956     88.86678        14     1.173     0.831  40.75   0
       368    912.4357     86.5521 300.4303855 +22.6753995     682.1383     72.25295      1.811     4.74     5.262258     20.37956     107.0019         8     1.134     0.563 -74.99   0
       369    254.8820     82.3691 300.2269485 +22.4773480     188.9828     72.23455      1.374     3.41     5.671753     20.37956      39.6508         5     0.765     0.440 -18.54   0
       370    759.5753     79.8080 300.3849118 +22.6277220     293.8968     72.23455      0.983     2.62     5.404346     20.37956     42.10428         5     0.723     0.439  66.70   0
       371    298.8193     79.5463 300.2415295 +22.4896984     237.7047     72.21615      1.081     2.10     5.715579     20.37956     65.32883         6     0.713     0.582 -55.90   0
       372     45.3282     78.2048 300.1631563 +22.4133654     407.0559     72.17934      1.312     3.33     5.786652     20.37956     48.47408         7     0.827     0.611 -62.94   0
       373    529.5049     73.4416 300.3153019 +22.5570259     6444.378     72.25295      1.328     2.24     5.561696     20.37956     913.9325        38     1.224     1.079  59.27   0
       374    415.1623     73.5434 300.2796743 +22.5228179     724.9109     72.23455      1.296     2.26      5.76764     20.37956     105.1426        10     0.843     0.723  30.15   0
       375    586.5463     68.2980 300.3347325 +22.5726239     160.4773     72.32649      1.028     3.47     5.548071     20.37956       44.444         5     0.738     0.473 -74.00   0
       376    723.3064     64.7099 300.3785024 +22.6125262     331.2695     72.39996      1.292     3.81     5.604965     20.37956     50.49236         8     0.944     0.717  33.65   0
       377    782.0400     63.0215 300.3973556 +22.6296167     886.4382     72.27134      1.484     3.27     5.467167     20.37956     104.3661        11     0.996     0.905  58.76   0
       378    874.5657     61.9830 300.4265397 +22.6570021      613.512     72.23455      1.531     3.16     5.490236     20.37956      67.2806        11     1.036     0.832  61.91   0
       379    222.7497     57.3183 300.2250757 +22.4605263     544.5654     72.25295      1.611     3.14     5.910561     20.37956     66.41677         8     1.005     0.571 -18.16   0
       380    580.8540     56.0545 300.3369283 +22.5674001     381.9752     72.27134      1.370     2.90     5.678554     20.37956     63.37329         8     0.831     0.735   0.16   0
       381    657.8814     53.4949 300.3617517 +22.5897205     6186.612     72.39996      1.308     2.35     5.755026     20.37956      1031.69        33     1.208     1.008  70.66   0
       382    432.6421     52.3910 300.2919707 +22.5219734     1402.247     72.25295      1.396     2.56     5.905416     20.37956     198.1859        20     1.161     0.994  45.13   0
       383    769.1082     49.1470 300.3978219 +22.6217567     490.0998     72.28973      1.856     6.30     5.619085     20.37956     39.93433         9     1.501     0.743 -88.66   0
       384    699.0270     50.6949 300.3754792 +22.6012298     934.0865     72.16092      1.456     3.30     5.737224     20.37956     124.7893        15     1.108     0.890  54.38   0
       385    715.0875     47.1619 300.3816290 +22.6050202     595.1542     72.21615      1.468     2.48     5.728293     20.37956      90.4815         9     0.869     0.684   7.06   0
       386    984.8983     44.9505 300.4664750 +22.6851061      604.444     72.30811      1.588     4.49     5.829723     20.37956     61.11586        10     1.273     0.626 -16.10   0
       387    181.6903     44.9124 300.2163298 +22.4446624     682.6272     72.39996      1.496     2.72     6.067612     20.37956     85.95082        10     0.921     0.728   4.91   0
       388    753.4180     42.4451 300.3951036 +22.6151341     555.1492     72.25295      1.128     2.53     5.690222     20.37956     76.46346         8     0.886     0.581 -15.77   0
       389    702.1035     38.4445 300.3804084 +22.5986276     2941.749     72.25295      1.357     2.36     5.819242     20.37956     427.2686        26     1.251     0.936  51.44   0
       390    717.1608     37.0774 300.3855437 +22.6027405     958.9774     72.21615      1.788     4.40     5.784791     20.37956     112.9747        20     1.409     0.963  59.43   0
       391    342.9746     39.2992 300.2683107 +22.4913594     466.1472     72.17934      1.202     2.57     6.071327     20.37956     74.14742         8     0.903     0.596 -16.36   0
       392    788.5540     29.9830 300.4100946 +22.6220632     1481.693     72.25295      1.377     2.82     5.780887     20.37956     175.9453        19     1.104     0.924  75.95   0
       393    726.5900     23.1483 300.3929965 +22.6015563     814.9075     72.23455      1.293     2.65      5.83639     20.37956     114.6966        11     0.934     0.750  26.11   0
       394    532.3676     22.4467 300.3327214 +22.5432238     1216.189     72.27134      1.526     2.88     6.009474     20.37956     157.7518        16     1.004     0.893 -89.72   0
       395    105.0054     22.4104 300.1997843 +22.4152248     529.9305     72.08721      1.315     3.58     6.160903     20.37956     67.11532         7     0.962     0.620  -7.21   0
       396    435.9373     20.7766 300.3032424 +22.5138738     772.5957     72.21615      1.290     2.45     6.165387     20.37956     108.2117        11     0.825     0.803  21.45   0
       397    818.3312     19.4289 300.4227981 +22.6279365     435.4014     72.21616      1.219     2.56     5.900415     20.37956     64.29384         6     0.765     0.547 -46.98   0
       398    788.4422     13.7837 300.4153098 +22.6173702     61.66039     72.25295      1.012     3.20     5.940825     20.37956     30.15512         5     0.732     0.451 -68.81   0
       399    332.4494   1019.0954 299.9468392 +22.7694327     653.6071     72.28973      1.366     4.31     12.73816     20.37956     72.60645        14     1.254     0.849  78.62  19
       400    330.0000   1018.0390 299.9464211 +22.7683948     275.3014     72.21615      1.453     5.22     13.48568     20.37956     46.47455         8     1.707     0.452 -80.98  19
       401    168.9503   1014.2822 299.8975676 +22.7189786     1752.153     72.25295      3.065    15.30      89.7364     20.37956     59.75267        42     3.083     2.110 -22.77  18
       402    184.5369   1014.9383 299.9021989 +22.7238456     601.9283     72.27134      2.210     8.58     89.42662     20.37956     43.10892        16     1.742     1.181  55.15  16
       403    209.3864    997.9578 299.9154491 +22.7264378     2105.997     72.25295      4.888    13.48     73.53563     20.37956     74.65015        48     3.017     1.677 -27.52   3
       404    210.3779   1006.4822 299.9129836 +22.7291788     2614.507     72.19775      5.927    19.91     80.12921     20.37956     65.24582       122     3.886     3.317  43.15  19
