#   1 NUMBER                 Running object number                                     
#   2 X_IMAGE                Object position along x                                    [pixel]
#   3 Y_IMAGE                Object position along y                                    [pixel]
#   4 ALPHA_J2000            Right ascension of barycenter (J2000)                      [deg]
#   5 DELTA_J2000            Declination of barycenter (J2000)                          [deg]
#   6 FLUX_APER              Flux vector within fixed circular aperture(s)              [count]
#   7 FLUXERR_APER           RMS error vector for aperture flux(es)                     [count]
#   8 FLUX_RADIUS            Fraction-of-light radii                                    [pixel]
#   9 FWHM_IMAGE             FWHM assuming a gaussian core                              [pixel]
#  10 BACKGROUND             Background at centroid position                            [count]
#  11 THRESHOLD              Detection threshold above background                       [count]
#  12 FLUX_MAX               Peak flux above background                                 [count]
#  13 ISOAREA_IMAGE          Isophotal area above Analysis threshold                    [pixel**2]
#  14 A_IMAGE                Profile RMS along major axis                               [pixel]
#  15 B_IMAGE                Profile RMS along minor axis                               [pixel]
#  16 THETA_IMAGE            Position angle (CCW/x)                                     [deg]
#  17 FLAGS                  Extraction flags                                          
         1    685.3853     15.8399 300.3929737 +22.6016334     752.6067     72.12624      1.424     3.95     6.430388     20.34382     94.94809        14     1.181     0.833 -56.81   0
         2    490.8819     14.8822 300.3326806 +22.5431459     1132.074     72.23633      1.559     2.90     5.871679     20.34382     119.0302        17     1.140     0.932 -83.71   8
         3    394.5089     13.0618 300.3032614 +22.5137710      912.131     72.19965      1.605     3.44     5.858772     20.34382     91.40353        13     1.075     0.838  20.81   0
         4    776.8807     11.8722 300.4227850 +22.6278668     461.7908     72.23633      1.519     5.46     6.231616     20.34382     43.28704        10     1.036     0.929  87.77   0
         5    246.1818      5.1954 300.2596477 +22.4670940     217.4889     71.75806      1.433     4.46     5.852526     20.34382     24.58661         5     0.783     0.722 -41.19  16
         6    166.0605      3.1507 300.2353872 +22.4425095     3635.493      65.3439      1.612     3.08     5.646063     20.34382     316.9425        35     1.406     1.180   1.11  24
         7    734.0786      4.1625 300.4119369 +22.6128424     530.7835     69.14507      1.334     3.56     6.362051     20.34382     69.98611         9     0.948     0.672 -15.78  16
         8     63.8684     14.9714 300.1997822 +22.4152938     508.8668     72.08951      1.493     3.92     6.619792     20.34382     55.03059         7     1.186     0.459 -27.94   0
         9     79.3248   1011.3709 299.8811227 +22.7059357     5563.081     72.12624     18.273    92.51     74.27062     20.34382     149.8789      2541    19.940    16.545  45.87  27
        10    349.9346    997.6466 299.9697503 +22.7832177     580.4147     72.12624      2.192     6.92     4.606199     20.34382     40.56393        12     1.337     1.033  81.62   0
        11    224.4696    999.2390 299.9301985 +22.7460245     572.8523     72.07114      1.834     5.37     81.45441     20.34382     59.24747        12     1.574     0.773  51.30   0
        12    633.3168    983.8821 300.0624715 +22.8642696     9658.328     72.23633      2.175     4.91     4.312221     20.34382     483.4959        58     1.715     1.590   2.43   3
        13    201.2124   1002.6730 299.9218482 +22.7400292     1001.413     72.12624      4.380    10.25     86.36422     20.34382     43.38249        16     1.980     1.478 -22.39   1
        14    920.7919    970.8417 300.1563444 +22.9467021     602.6667     72.12624      2.003     7.02     4.756533     20.34382     42.69243        12     1.451     0.951  -8.20   0
        15    213.2475    983.9421 299.9316842 +22.7382691     4648.635     72.16296      8.333    25.88     67.23687     20.34382       98.806       372     6.461     4.738 -49.77   3
        16    160.8515    973.9828 299.9186297 +22.7196871     1978.341     72.10788     11.406    20.69     61.74172     20.34382     50.97349       120     5.477     2.171  62.70   3
        17    194.7363    985.3629 299.9254651 +22.7331209     3662.417     72.10788      7.417    22.24     69.41909     20.34382     76.56268       237     4.979     4.336 -82.96   3
        18    147.9962    955.4996 299.9206442 +22.7105278     683.0596      71.9976      3.829     3.49      43.6167     20.34382     30.19094         5     1.134     0.310  21.05   3
        19    142.6522    958.8055 299.9179075 +22.7098719     1029.087     72.08951      5.207     7.65     47.00711     20.34382     46.57863        15     1.949     0.840 -19.79   3
        20    138.3835    953.7857 299.9182129 +22.7071510     2138.682     72.05276     13.280    17.38     41.94037     20.34382     52.85931        69     3.563     2.357 -19.59   3
        21    646.1981    953.1877 300.0764698 +22.8593199     6879.797     71.92397      2.063     4.74     4.348143     20.34382     383.6248        50     1.569     1.548   1.90   0
        22    192.4755    998.5024 299.9204879 +22.7362108     756.3676     72.25466      3.357     4.10     82.92262     20.34382     47.31339         9     1.029     0.714 -75.23   3
        23    525.9590    947.4160 300.0408895 +22.8216064     548.2168     72.12624      1.870     4.48     4.307864     20.34382     28.61371         7     1.321     0.432  10.92   0
        24    232.3335    972.7864 299.9412491 +22.7407972     7251.303     72.07114      8.009    33.13     50.08068     20.34382     165.8712       682    10.411     4.875  64.05  18
        25    554.7111    943.9429 300.0509743 +22.8292322     1576.488      72.1446      1.984     4.92     4.361338     20.34382     87.89285        25     1.374     1.214  19.14   0
        26    448.4948    940.4492 300.0190337 +22.7963730     1022.504     72.16296      1.876     4.57      4.23577     20.34382     64.43798        22     1.253     1.234  -2.85   0
        27    379.0631    938.2661 299.9981303 +22.7749190     6438.157     72.16296      2.026     4.57     4.573815     20.34382     441.6046        50     1.604     1.481 -19.63   0
        28    149.3915    959.7532 299.9196946 +22.7121665     725.6373     72.12624      3.190     3.52     48.32512     20.34382      35.1938         5     0.754     0.474 -78.45   1
        29    411.9759    925.7085 300.0124589 +22.7811885     430.0395     72.03438      1.769     5.18     4.389147     20.34382     34.04138         6     1.072     0.707  19.91   0
        30    925.5104    917.3293 300.1752226 +22.9327425     2208.188     72.27299      2.143     6.09      4.78969     20.34382     107.9274        34     1.528     1.494  36.13   0
        31    714.3376    905.9523 300.1130687 +22.8661848     805.9478      72.1446      2.206     5.87     4.570468     20.34382     57.47659        18     1.585     0.956  63.67   0
        32     71.2787    952.4092 299.8978000 +22.6866139     5752.247     72.07114     29.616   106.38     25.42483     20.34382     1194.024      3931    23.259    13.500 -23.75  19
        33    748.9752    900.4107 300.1256683 +22.8749760      1089.04     72.10788      1.918     5.72     4.650164     20.34382     65.98765        22     1.373     1.149 -61.23   0
        34    526.1600    900.8546 300.0560948 +22.8083010     447.2894     72.10788      2.159     6.07     4.656844     20.34382     40.57807         7     1.135     0.911  44.55   0
        35    771.3279    893.9794 300.1347287 +22.8798287     11578.55     72.12624      1.964     4.49     4.727374     20.34382      714.501        60     1.563     1.536 -32.15   0
        36    961.3596    894.6750 300.1937759 +22.9369746     353.2487     72.08951      1.730     4.96     5.107739     20.34382     28.38081         6     1.213     0.575  26.70   0
        37    816.5712    894.3165 300.1487265 +22.8934854     536.6129     72.10788      1.763     5.70      4.79927     20.34382     36.43676         7     1.529     0.599 -10.66   0
        38      4.2088    982.1591 299.8672806 +22.6750087      1723.23     69.39362     20.342    36.70    -13.18239     20.34382     57.28083       165    10.285     3.635  67.64  27
        39    728.6862    986.3355 300.0913957 +22.8935693     708.1594     72.19965      2.065     6.17     4.136264     20.34382     42.16457        14     1.564     0.685  77.58   0
        40     83.2559    885.8517 299.9231661 +22.6711218     1325.522      72.1446      8.899    10.02     8.077886     20.34382     62.14766        25     2.371     1.233  43.37   1
        41    823.2811    881.8615 300.1548693 +22.8919185     524.6321     72.19965      2.114     4.32     4.833552     20.34382     41.72806         9     1.141     0.953 -10.58   0
        42    476.2388    882.3492 300.0465661 +22.7880181     418.1475     72.12624      1.705     4.58     4.843844     20.34382     54.72292         8     1.316     0.766  12.76   0
        43      3.9640   1020.1644 299.8548419 +22.6858304      2856.46     67.45811     29.762    36.07    -24.88012     20.34382     65.29544       213     8.854     4.079 -33.47  27
        44      2.9600   1010.9586 299.8575247 +22.6828900     2515.325     64.54861     21.625    29.16    -23.39468     20.34382     58.15411       174     7.143     3.304 -76.45  27
        45    779.8094    876.1785 300.1431617 +22.8772577     1558.078     72.10788      1.965     4.47     4.807215     20.34382     99.97211        29     1.450     1.277  56.38   0
        46    110.7809    881.9077 299.9330049 +22.6782515     599.5334     72.03438      3.642     3.79     9.318211     20.34382     28.48002         5     1.451     0.284  77.80   1
        47    963.4822    875.2029 300.2007704 +22.9320152     399.2034     72.01598      1.777     6.00     5.149489     20.34382     33.57393        10     1.114     0.910 -79.19   0
        48    631.9506    873.3612 300.0979909 +22.8321274     387.9727     72.12624      1.864     5.54     4.860418     20.34382     31.58846         6     1.182     0.733  -5.98   0
        49    817.9423    869.5386 300.1572114 +22.8867785     922.4326     72.16296      2.217     7.30      4.85686     20.34382     59.57533        18     1.437     1.050  53.66   0
        50    927.2847    866.9922 300.1921459 +22.9188110     422.2332     72.03438      2.208     5.78     4.928532     20.34382      27.0383         7     1.175     0.800  34.07   0
        51    866.3605    861.4694 300.1749360 +22.8989695     533.7614     72.07114      1.814     6.64     4.938651     20.34382     44.75697        11     1.167     1.060 -65.48   0
        52    717.7424    860.4453 300.1289278 +22.8541357     746.6237      72.1446      2.156     6.35     4.859027     20.34382     40.74352        13     1.350     0.838 -11.55   2
        53    729.2363    856.8906 300.1336664 +22.8565598     568.6118     72.08951      1.716     6.81     4.866303     20.34382     45.21944        17     1.421     1.279 -24.66   0
        54    430.4385    856.0083 300.0408707 +22.7667214     4244.401     72.12624      1.845     3.94     5.028607     20.34382     326.8516        37     1.408     1.350  85.31   0
        55    155.5706    841.8735 299.9599460 +22.6802086     854.0599     72.12624      2.212     7.12     8.422793     20.34382       63.998        16     1.350     1.062 -40.23   0
        56    132.7908    838.7155 299.9538897 +22.6724672     1558.391     72.05276      1.988     4.24      7.42752     20.34382      129.427        32     1.522     1.344  21.10   0
        57    541.3009    990.8016 300.0315552 +22.8386607     2352.125      71.9976      2.097     5.24     4.274402     20.34382     117.0338        36     1.553     1.437   9.39   0
        58    760.6486    835.6182 300.1503755 +22.8598640     314.3343      72.1446      2.117     3.90     4.919157     20.34382     25.14178         5     1.039     0.419  15.02   0
        59   1004.6818    828.1871 300.2289150 +22.9308454     2081.117     72.08951      2.034     5.08     5.082952     20.34382     109.5989        30     1.425     1.397 -41.16   0
        60    958.9273    826.7355 300.2151081 +22.9167223     2290.182      72.1446      1.954     4.47     5.015352     20.34382     129.9889        33     1.467     1.343  24.53   0
        61    663.8943    827.1926 300.1229558 +22.8284445     498.7713      71.9976      1.841     6.53     4.981382     20.34382     35.47057         9     1.278     0.935   7.17   0
        62    742.1104    820.7587 300.1494269 +22.8500397     632.7276     72.10788      1.818     6.27     4.957485     20.34382     41.85443        11     1.189     0.929  -2.34   0
        63    610.4357    814.2646 300.1105005 +22.8087068     4889.915     72.10788      1.784     3.66     5.052856     20.34382     392.4876        35     1.330     1.284 -69.06   0
        64    627.8602    986.3085 300.0599820 +22.8633299     8576.493      72.1813      2.121     5.11     4.309898     20.34382     484.6949        48     1.626     1.485  42.21   3
        65    412.4609    811.1443 300.0498590 +22.7484517      727.394      72.1813      1.955     6.85     5.055711     20.34382     44.39591        16     1.276     1.030 -51.00   0
        66    160.4467    807.8817 299.9725116 +22.6719197     1352.844     72.08951      1.906     4.67     6.281646     20.34382     106.7581        30     1.548     1.287 -39.81   0
        67    631.1304    806.7053 300.1194060 +22.8127394     757.6668     72.21799      1.743     4.61     5.055609     20.34382     59.92843        14     1.295     0.880 -32.98   0
        68    180.4225    805.1780 299.9796022 +22.6771374      457.949     72.10788      1.789     4.20     6.015841     20.34382     42.12897         7     1.182     0.426  76.93   0
        69    547.4243    797.4144 300.0963483 +22.7849780     279.9167     72.12624      1.446     3.26     5.069299     20.34382     36.66027         5     0.948     0.473 -44.60   0
        70    786.4479    794.0580 300.1719302 +22.8556559         4178     72.16296      1.766     3.92     5.066387     20.34382     301.2782        38     1.388     1.322 -62.58   0
        71   1003.1455    794.4689 300.2393971 +22.9206936     1250.917      72.1446      1.865     4.78     4.817871     20.34382     72.58256        21     1.281     1.165  23.78   0
        72    194.7857    788.1760 299.9895951 +22.6765683     498.1246     72.12624      1.813     4.58     5.747452     20.34382      45.1474         6     1.030     0.578 -25.60   0
        73    503.3413    786.2963 300.0862323 +22.7685689     611.7212      72.1813      1.821     5.02     5.101777     20.34382     67.07771        10     1.216     0.733  27.61   0
        74    150.3361    784.1963 299.9770659 +22.6620907     980.1486     72.08951      1.769     4.97     5.741835     20.34382     82.69934        20     1.262     1.162 -77.16   0
        75    564.7880    779.6597 300.1075279 +22.7850849     457.5963     72.08951      1.616     5.46     5.109052     20.34382     48.67376        10     1.086     0.815 -20.75   0
        76    299.4501    776.3590 300.0259939 +22.7045735     54063.67     72.12624      1.831     3.75      5.37421     20.34382     4638.606        93     1.545     1.527   4.27   0
        77    970.2304    775.0167 300.2354480 +22.9052435     895.4191     72.08951      1.926     5.29     4.959651     20.34382       65.128        20     1.362     1.175  35.00   0
        78    557.3079    775.4223 300.1065751 +22.7816257     1597.152     72.03438      1.665     3.56     5.118833     20.34382     161.8958        22     1.259     1.080  39.58   0
        79    227.8961    774.2220 300.0044283 +22.6824970     634.3795     72.01598      2.108     2.35     5.629024     20.34382     52.88752         7     0.876     0.715  48.56   0
        80    586.2208    771.8235 300.1167516 +22.7892594     1006.144     72.10788      1.806     4.58     5.128457     20.34382     77.18061        18     1.375     0.997  -9.99   0
        81    597.2682    770.2418 300.1207075 +22.7921167     472.1261     72.08951      1.502     4.28     5.133729     20.34382     47.75126         9     0.917     0.686 -20.73   0
        82    702.9567    766.0844 300.1549939 +22.8225996     300.5544     72.07114      1.472     3.79     5.226054     20.34382     37.63179         8     0.856     0.726  73.39   0
        83    740.1658    756.8505 300.1695940 +22.8310974     651.0829     72.12624      1.546     3.91     5.371895     20.34382     74.82249        13     1.113     0.821  12.64   0
        84    349.2068    753.6246 300.0488657 +22.7129707     31624.83     72.10788      1.761     3.52      5.37775     20.34382     3083.773        77     1.478     1.453  24.13   0
        85    363.3686    754.2352 300.0530748 +22.7173929     2086.505     72.12624      1.798     3.70     5.362013     20.34382     180.9283        29     1.328     1.227  68.84   2
        86    360.3509    748.2632 300.0540763 +22.7147736     628.3533     72.16296      2.233     4.75     5.370696     20.34382     63.02642        13     1.298     0.792 -46.52   2
        87    872.3389    749.7603 300.2131151 +22.8686611     2865.748     72.10788      1.844     4.14     5.415394     20.34382     183.1579        32     1.433     1.262 -60.69   0
        88    231.7824    745.5244 300.0149632 +22.6754271     785.8893     72.10788      1.755     4.46     5.450943     20.34382     68.14216        18     1.229     1.083  17.68   0
        89    630.0929    745.6102 300.1389402 +22.7948807     1000.675     72.05276      1.756     4.29     5.195789     20.34382     87.25657        20     1.258     1.103  -8.75   0
        90     36.5641    741.5590 299.9555543 +22.6157211       498.28     72.18131      1.539     3.81     5.552513     20.34382     59.49488         7     0.995     0.493 -29.89   0
        91    477.3812    740.4728 300.0930407 +22.7476279     744.4094     72.10788      1.494     3.07     5.332852     20.34382     84.54393        14     1.026     0.884 -88.85   0
        92    878.2625    737.4674 300.2189580 +22.8669028     538.9583     72.16296      1.743     4.99      5.50425     20.34382     42.43366         8     1.037     0.826  31.10   0
        93    380.1603    736.9086 300.0639317 +22.7174543     373.5414     72.10788      1.921     2.97     5.366449     20.34382     35.14737         6     0.795     0.634 -86.68   0
        94    336.1346    736.9969 300.0502010 +22.7042773     280.3392     72.12624      1.538     4.74     5.363309     20.34382     44.05389         7     1.123     0.568  29.42   0
        95    423.2039    735.6412 300.0777425 +22.7299970     442.4888     72.12624      1.684     6.27     5.350179     20.34382     36.59008        13     1.179     0.937  23.82   0
        96    632.1793    734.5026 300.1432000 +22.7923155     248.1517     72.03438      1.487     4.83     5.223417     20.34382      27.6127         6     0.951     0.694 -79.14   0
        97     65.1257    735.0828 299.9665358 +22.6224334     521.6177     72.21799      1.752     4.62     5.576262     20.34382     48.76648         9     0.995     0.773 -33.27   0
        98    856.3179    733.1152 300.2135274 +22.8590781     490.0673     72.23633      1.747     4.42     5.548744     20.34382     37.35258         7     1.212     0.458 -21.07   0
        99    230.0098    730.0793 300.0194307 +22.6704628     435.0549     72.07114      1.457     4.48     5.401842     20.34382     44.15915         7     1.174     0.486 -83.89   0
       100    553.0491    719.8098 300.1233216 +22.7643776     494.3982     72.12624      1.662     3.83     5.237803     20.34382     57.77464        10     1.131     0.769 -83.00   0
       101    522.5323    718.6169 300.1142040 +22.7548874     784.1079     72.10788      1.801     4.06     5.294343     20.34382     62.79911        15     1.256     0.829  20.75   0
       102    431.9398    717.6592 300.0863053 +22.7274533     324.3093      72.1813      1.551     2.85     5.396085     20.34382      33.2967         6     0.809     0.713  -9.72   0
       103    938.8312    715.1161 300.2451179 +22.8786209     4574.971     72.10788      1.832     3.90     5.516958     20.34382     327.4627        43     1.447     1.422 -57.96   0
       104    544.2625    715.9717 300.1218318 +22.7606415     1347.567     72.10788      1.624     3.25     5.251623     20.34382     147.6551        20     1.121     1.089 -54.26   0
       105    464.1686    715.4156 300.0970689 +22.7364716     316.5931     72.08951      1.515     3.47     5.403737     20.34382     38.44008         5     0.738     0.471  14.89   0
       106    625.4148    711.1887 300.1486681 +22.7835911     273.0223     72.03438      1.511     4.31     5.270829     20.34382     35.77775         5     1.107     0.503 -28.47   0
       107    928.2444    709.0810 300.2437758 +22.8737152     8803.391     72.08951      0.981     5.95     5.669476     20.34382     2132.521        35     1.323     0.753  71.54   0
       108    306.1985    700.3385 300.0527968 +22.6847765      427.309     72.07114      1.974     6.47       5.3276     20.34382      36.8593         8     1.177     1.000 -87.23   0
       109    156.4210    700.5596 300.0061357 +22.6399172     373.6972      72.1446      1.179     3.45     5.626423     20.34382     33.08163         5     1.088     0.315  68.62   0
       110    753.7775    697.7996 300.1930271 +22.8182091     2659.552     72.03438      1.775     3.68     5.589371     20.34382     218.9585        36     1.712     1.186   0.55   0
       111    290.2912    699.9844 300.0479623 +22.6799044     930.3367     72.03438      1.666     3.79      5.30397     20.34382     85.66816        15     1.109     0.941  -6.99   0
       112    958.4152    696.7884 300.2571843 +22.8792177     1779.343     72.05276      1.896     3.82     5.516325     20.34382     135.1004        26     1.307     1.259 -69.11   0
       113    835.8970    683.7091 300.2232125 +22.8387615     572.7148     72.29131      1.697     4.93      5.69219     20.34382     50.51789        11     1.024     0.860   1.36   0
       114    139.4322    683.7466 300.0063153 +22.6299962     665.0933     72.12624      1.659     4.71     5.795216     20.34382     72.88599        13     1.225     0.952 -55.57   0
       115    872.0608    674.7374 300.2374072 +22.8470153     148946.1      72.1446      1.719     3.50     5.752391     20.34382     11291.96       160     1.586     1.518 -60.44   0
       116    634.1698    678.4500 300.1620335 +22.7768100      320.629     72.12624      1.463     3.86     5.384712     20.34382     47.38683         7     1.010     0.554  74.89   0
       117   1019.1302    676.6757 300.2826681 +22.8916170     1267.269      72.1813      1.932     4.15     5.072842     20.34382       86.078        22     1.311     1.120 -18.45  16
       118    724.5818    675.2012 300.1912678 +22.8029681     739.8101     72.03438      1.586     4.03     5.582987     20.34382     67.23212        12     1.194     0.718 -13.66   0
       119    904.9222    668.2740 300.2497585 +22.8549998     309.8323     72.21799      1.509     4.23     5.911483     20.34382     41.28046         7     0.782     0.652   9.02   0
       120    558.3677    663.4654 300.1432849 +22.7497880     1681.703     72.10788      1.524     3.10     5.452986     20.34382     175.6519        22     1.181     1.022  25.45   0
       121    739.5334    660.8608 300.2005878 +22.8033269     9563.661      72.1446      1.620     3.36     5.632061     20.34382     891.8336        46     1.348     1.276 -79.77   0
       122    240.9857    655.6410 300.0470290 +22.6523889     4983.741     72.12624      1.721     3.53     5.481369     20.34382     474.5488        39     1.370     1.310  25.10   0
       123    323.1288    653.8647 300.0731631 +22.6765113     1176.222      72.1446      1.695     3.86     5.370401     20.34382     117.4713        19     1.227     1.061 -27.02   0
       124    199.1400    651.6505 300.0353093 +22.6386936     604.2833     72.16296      1.542     3.09     5.651693     20.34382     68.68461         8     0.948     0.641   2.70   0
       125    531.4214    649.5231 300.1394208 +22.7377070     800.6926     72.10788      1.479     3.21     5.677424     20.34382       93.849        14     1.057     0.862 -32.72   0
       126    771.0978    647.5692 300.2147468 +22.8089634      1765.93     72.05276      0.674     2.61     5.715494     20.34382      786.904         6     0.564     0.359  88.73   0
       127    522.9777    641.4958 300.1393984 +22.7328705     3296.409     72.01598      1.569     2.99     5.801562     20.34382     325.4583        27     1.197     1.122  66.66   0
       128    513.1586    635.0594 300.1384310 +22.7280787      1430.05     72.08951      1.550     3.82     5.884819     20.34382     137.7151        21     1.329     1.096  58.84   0
       129    441.7148    634.9298 300.1162256 +22.7066268     378.5584     72.21799      1.395     4.09     5.667764     20.34382     37.62939         7     0.752     0.679  73.01   0
       130    906.3353    633.4901 300.2614996 +22.8454235      557.379     72.21799      1.932     4.00     5.802399     20.34382     46.26592         8     1.001     0.792  42.44   0
       131    424.4543    632.4050 300.1116719 +22.7007275     382.0836     72.10788      1.985     5.09     5.558257     20.34382      29.0236         7     1.014     0.724  -5.68   0
       132    176.7470    631.2944 300.0349570 +22.6261347     587.9932      72.1813      1.611     4.45     5.882048     20.34382     70.78657        13     1.205     0.856 -46.64   0
       133    190.9533    629.7584 300.0398740 +22.6299545     648.0922     72.16296      1.607     4.43     5.849483     20.34382     75.45312        13     1.066     0.929 -54.45   0
       134    960.1594    626.5276 300.2805554 +22.8595400     603.4219     72.08951      1.825     4.81     5.602551     20.34382      45.2178        12     1.135     0.894  -1.31   0
       135    247.8504    627.0165 300.0584622 +22.6462304     344.7507     72.12624      1.411     2.37     5.601473     20.34382     57.18191         6     0.859     0.441 -52.38   0
       136    216.5451    626.8434 300.0487804 +22.6367928     595.3657     72.10788      1.759     3.39     5.798121     20.34382     63.58316        10     1.036     0.730 -11.10   0
       137    537.2274    625.7911 300.1489381 +22.7326300     376.9252     72.10788      1.334     3.66     5.981496     20.34382     58.33265        10     1.101     0.665  29.48   0
       138    437.9998    625.0485 300.1182786 +22.7026753     1756.617     72.08951      1.521     3.18     5.677344     20.34382     164.0602        20     1.236     0.940 -40.71   0
       139   1013.7064    622.8203 300.2984713 +22.8745071     857.1395     72.03438      1.675     5.07     5.237888     20.34382     65.43561        15     1.302     0.836  43.62   0
       140     91.9282    619.7174 300.0123445 +22.5973715     19902.46     72.23633      1.873     3.76     6.272125     20.34382       1888.9        72     1.596     1.510  26.69   0
       141    523.1148    620.3302 300.1463162 +22.7268318     1085.236     72.21799      1.515     2.96     6.062635     20.34382     111.2915        18     1.102     0.956 -38.30   0
       142    558.2596    619.9376 300.1573907 +22.7372517     204.6749      72.1446      1.267     2.29     5.966394     20.34382     43.72772         5     0.743     0.476  32.14   0
       143    578.1795    612.9807 300.1658559 +22.7412226     276.6265     72.10788      1.633     3.20     5.892937     20.34382     40.40701         6     0.843     0.761  -7.13   0
       144    605.8685    608.3826 300.1759760 +22.7481987     366.1973     72.10788      1.636     3.40     5.706485     20.34382      32.4468         5     0.754     0.444 -18.99   0
       145    941.2526    606.6916 300.2810990 +22.8481751     1063.518     72.16296      1.764     3.58     5.646852     20.34382     90.88223        20     1.208     1.069   0.71   0
       146     38.2651    603.6606 300.0008788 +22.5766663     1528.435      72.1446      2.151     5.08     6.099008     20.34382     101.5978        32     1.695     1.345  71.14   0
       147    807.7313    604.8314 300.2400525 +22.8076532     396.6895     72.08951      1.291     5.29     5.783045     20.34382     51.38955        11     1.154     0.844  80.40   0
       148     13.0318    621.3098 299.9873049 +22.5741607     811.9127     72.05276      2.123     6.24     5.871208     20.34382     59.65487        17     1.519     1.138  83.65   0
       149    486.0089    600.7215 300.1411288 +22.7100782     450.1144     72.07114      1.368     3.73     6.199075     20.34382     62.33743        11     0.998     0.768  71.13   0
       150    881.3141    599.4849 300.2647395 +22.8281541     976.7611     72.23633      2.112     3.50     5.673007     20.34382      76.1792        14     1.045     0.920  55.64   0
       151    279.3712    600.0759 300.0770183 +22.6479475     245.4693     72.08951      1.234     3.39     5.398236     20.34382     41.38821         7     0.734     0.679 -86.85   0
       152    443.4578    593.5148 300.1302197 +22.6952545     805.5538     72.21799      1.675     2.97     5.854119     20.34382     72.00531        12     0.891     0.858  57.26   0
       153    591.6981    591.2993 300.1771093 +22.7390443     1272.179     72.32794      0.703    -4.94     5.921015     20.34382      725.455        11     0.779     0.492 -46.98   0
       154    608.7797    590.2584 300.1827695 +22.7438635     549.3587     72.10788      1.442     2.76     5.819038     20.34382     63.41177        11     0.891     0.797 -25.49   0
       155    638.3729    590.4286 300.1919355 +22.7527793     452.6394     72.08951      1.626     3.75     5.826232     20.34382       47.343         7     0.865     0.650 -20.85   0
       156    487.6472    589.0887 300.1454170 +22.7072277     962.2056     72.08951      1.651     3.53     6.214856     20.34382     105.3789        17     1.218     0.913  32.30   0
       157    921.1234    584.8145 300.2819238 +22.8358574     3309.881     72.12624      1.619     3.31     5.568099     20.34382     291.1477        33     1.353     1.197 -47.55   0
       158    452.8528    584.4576 300.1360863 +22.6954690     1692.341     72.16296      1.520     3.00     5.984016     20.34382     178.8834        22     1.147     1.036  -3.90   0
       159   1019.2477    583.3108 300.3130341 +22.8648042     686.4447     72.07114      1.490     4.01     5.196587     20.34382     65.73198        13     1.108     0.899  -9.83  16
       160    818.4023    582.1645 300.2507422 +22.8043336     389.3875     72.08951      2.064     5.09     5.698635     20.34382     33.98559         6     1.070     0.684 -45.37   0
       161     14.7281    577.7659 300.0019727 +22.5621748     4972.086     72.10788      1.891     3.93     6.099509     20.34382     439.1364        40     1.540     1.370  47.92   0
       162    960.3558    574.9993 300.2973533 +22.8447822     435.6772     72.10788      1.750     3.67     5.387359     20.34382     44.78141         6     1.089     0.436 -16.43   0
       163    482.2458    574.9788 300.1483172 +22.7015557     236.5977     72.16296      1.503     5.77     6.231881     20.34382     31.09007         9     1.082     0.866  41.83   0
       164    316.2175    571.1219 300.0978859 +22.6506810     9196.622     72.10788      1.590     3.04     5.512184     20.34382     900.1303        47     1.327     1.290 -69.95   0
       165    438.6908    568.2950 300.1369255 +22.6865818     9160.285     72.29131      1.509     2.83     5.944493     20.34382     1009.251        38     1.219     1.192  58.42   0
       166    203.3276    565.0490 300.0647374 +22.6150896     307.0171     72.08951      1.801     5.29     5.737218     20.34382     37.53032         6     1.096     0.720 -64.51   0
       167    850.3914    562.4030 300.2671369 +22.8082328      1834.61     71.92398      1.632     3.40     5.549648     20.34382     174.0049        25     1.288     1.085 -80.45   0
       168    935.0935    559.8745 300.2943823 +22.8328692     12680.21     72.25466      1.653     3.32     5.376612     20.34382     1026.874        50     1.411     1.321 -67.40   0
       169    499.2585    557.8674 300.1591719 +22.7017386     11738.67      72.1446      1.517     2.89     6.254971     20.34382     1267.074        50     1.311     1.236  84.37   0
       170    668.9401    553.7072 300.2133867 +22.7513846     712.4985      72.1813      1.904     3.43     5.730579     20.34382     72.31894        12     1.126     0.797 -85.06   0
       171    226.7544    553.1148 300.0758993 +22.6186878     1415.403     72.08951      1.807     3.45     5.654468     20.34382     144.4915        23     1.358     1.101  49.45   0
       172    384.9573    552.3368 300.1253796 +22.6658924     294.9727     72.10788      1.493     5.53     5.855952     20.34382     33.74103         8     1.211     0.711 -30.59   0
       173    473.7971    550.7318 300.1535599 +22.6920583     396.0906     72.08951      1.372     5.18     6.223861     20.34382     35.89815        10     1.072     0.707 -39.73   0
       174    773.8727    546.4758 300.2484461 +22.7807376     832.8807      72.1813      1.470     2.85     5.642775     20.34382     97.11288        15     1.003     0.893   1.67   0
       175    430.8743    545.9467 300.1417488 +22.6778197      4435.02     72.12624      1.543     3.08      6.01102     20.34382     418.9583        37     1.483     1.196   8.39   0
       176    409.2827    544.4363 300.1355173 +22.6709144     1216.593     72.08951      1.544     3.51     5.932355     20.34382     137.7237        19     1.189     1.077 -76.54   0
       177    163.4965    543.9819 300.0591903 +22.5970975     679.7537     72.01598      1.740     4.42     5.622961     20.34382     65.97665        15     1.155     1.000  -5.68   0
       178    850.7703    541.8192 300.2739393 +22.8024283     1652.154     72.10788      1.598     3.62     5.474386     20.34382     149.0544        24     1.288     1.079 -44.11   0
       179    731.4584    538.8685 300.2376924 +22.7658471     835.8921     72.12624      1.478     3.14     5.637125     20.34382     98.54935        16     1.109     0.949 -36.64   0
       180    547.6035    533.6168 300.1821040 +22.7092583     206942.4     72.03438      1.547     2.76     6.254862     20.34382     25285.52       194     1.533     1.442 -19.22   0
       181    935.7874    535.7676 300.3024271 +22.8261447     249.1932     72.08951      1.485     4.57     5.278513     20.34382      41.3698         6     1.148     0.517  44.60   0
       182    233.6710    533.4222 300.0844446 +22.6151074     3509.802     72.12624      1.656     3.29     5.592878     20.34382      358.654        35     1.330     1.243  68.54   0
       183    799.6080    530.0148 300.2618160 +22.7837131     636.6135     72.01598      2.265     3.88     5.591622     20.34382     51.43147         8     0.967     0.652 -49.07   0
       184    721.8404    529.0693 300.2378758 +22.7601496     1531.588     72.08951      0.544     1.14     5.634013     20.34382     890.8943         5     0.531     0.326  66.51   0
       185    718.0622    524.0387 300.2383315 +22.7575719     4782.365     72.10788      0.498    -0.60     5.633224     20.34382     3041.405         9     0.489     0.414  84.86   0
       186    438.1942    514.2349 300.1543240 +22.6709040     2832.721     72.10788      1.547     2.92     6.008295     20.34382     297.0226        36     1.610     1.150  84.61   0
       187    282.2638    516.5726 300.1050325 +22.6248373     283.2331     72.10788      1.202     4.14     5.515428     20.34382     41.15802         7     0.997     0.491   3.80   0
       188    594.9534    511.4706 300.2040453 +22.7170813     361.2035     72.08951      1.824     3.27     6.166111     20.34382     33.99379         5     0.744     0.604 -82.41   0
       189    849.9575    510.3951 300.2838891 +22.7931498     352.6674     72.12624      1.410     4.30     5.452951     20.34382     42.21966         7     0.779     0.677  -4.62   0
       190    542.8424    509.5824 300.1884243 +22.7009258     155.2365     72.12624      1.305     3.48     6.234911     20.34382     30.89225         5     0.811     0.431  20.35   0
       191    755.4041    503.1450 300.2567567 +22.7627500     292.2986     72.07114      1.195     3.98     5.566571     20.34382     50.08839         7     0.994     0.546  12.19   0
       192    835.2772    500.3712 300.2825647 +22.7858718     1744.137     72.10788      1.632     3.44     5.459857     20.34382     176.4373        26     1.239     1.204 -32.82   0
       193    722.0147    500.8753 300.2470841 +22.7520974     297.2101     72.12624      1.567     5.23     5.609164     20.34382     30.03461         6     1.263     0.613  89.91   0
       194    706.4057    497.9895 300.2431552 +22.7465928     2733.167     71.96079      1.527     2.78     5.628628     20.34382     284.7561        29     1.231     1.106  -3.26   0
       195    950.8630    496.1935 300.3199805 +22.8192770      500.627     72.07114      1.545     3.24     5.253838     20.34382     49.29845         9     0.910     0.683  61.12   1
       196    915.3679    495.3062 300.3091932 +22.8083955     249.1124     72.03438      1.442     3.44     5.320799     20.34382     34.13786         5     0.749     0.457  74.96   0
       197    493.6526    493.8489 300.1782114 +22.6816662     627.6041      72.1446      1.396     3.07     6.207308     20.34382     102.8416        13     1.065     0.850 -60.76   0
       198    611.0894    494.6817 300.2145235 +22.7170905      370.423     72.21799      1.308     3.62     6.124675     20.34382     64.72038         6     1.002     0.414  13.51   0
       199    963.8914    492.1241 300.3253672 +22.8220068     1342.424     72.25466      1.602     3.69     5.232453     20.34382     104.8315        20     1.159     1.116   6.20   0
       200    835.5535    490.6216 300.2858162 +22.7831511     2309.724      72.1446      1.805     3.54     5.445533     20.34382     212.6658        33     1.542     1.118  79.85   0
       201    949.6729    491.4094 300.3211623 +22.8175448     802.1614     72.10788      1.798     4.08     5.255483     20.34382     66.73991        15     1.134     1.019 -19.06   0
       202    374.7382    488.7092 300.1428562 +22.6445536     277.0766     72.19965      1.583     3.37     5.855299     20.34382     45.46391         6     0.924     0.600 -29.65   0
       203    589.1845    488.6183 300.2096669 +22.7087858     805.4853     72.08951      2.030     3.18     6.160649     20.34382     84.53749        11     1.145     0.690  15.07   2
       204    873.7465    485.4453 300.2994097 +22.7930984      4373.39      72.1446      1.562     2.82     5.410916     20.34382     472.1712        35     1.285     1.173 -75.71   0
       205    427.3102    487.3484 300.1596637 +22.6599183     285.7736     72.12624      1.371     3.82     5.912446     20.34382     49.55089         5     0.842     0.497  45.81   0
       206    514.1807    485.3745 300.1873557 +22.6853821     313.6738     72.12624      1.433     3.37     6.201446     20.34382     33.10189         5     0.785     0.419  21.35   0
       207    611.5195    481.8416 300.2188258 +22.7135292     295.0867     72.08951      1.378     3.94     6.111781     20.34382     36.09109         6     0.970     0.498  87.11   0
       208    534.2156    481.0995 300.1949838 +22.6901566     491.5199     72.01598      1.408     3.76     6.202531     20.34382     58.82925         8     0.942     0.714  80.03   0
       209    965.3527    475.9463 300.3310753 +22.8177912     793.3617      72.1446      1.694     3.73     5.254717     20.34382     79.62289        15     1.159     0.861  62.14   0
       210    105.7566    475.5325 300.0634577 +22.5601325     962.8857     72.08951      1.597     3.45     5.620516     20.34382     109.3411        15     1.117     0.940  -3.36   0
       211    766.9137    469.5994 300.2712355 +22.7565528     252.4221      71.9976      1.230     3.75     5.490245     20.34382     52.42054         6     0.826     0.489  -2.15   0
       212    961.7058    465.2812 300.3333994 +22.8136319     362.4876     72.25466      1.544     4.78     5.309055     20.34382     38.66267         8     0.946     0.685   2.45   0
       213     98.0894    465.3087 300.0643925 +22.5548983     384.7718     72.27299      1.605     4.99     5.702867     20.34382     58.18218         8     0.994     0.907 -65.86   0
       214    706.1164    459.9630 300.2554094 +22.7355749     499.5561     72.08951      1.331     2.92     5.578368     20.34382     62.55433        11     0.863     0.850  84.16   0
       215    314.8763    458.4082 300.1340612 +22.6179082     355.3762     72.07114      1.437     3.43     5.758628     20.34382     37.85953         5     0.817     0.417 -21.70   0
       216    647.0991    455.9707 300.2383108 +22.7167510     675.3098     72.03437      1.359     3.05     5.780485     20.34382     82.17983        12     0.970     0.808  10.89   0
       217    961.7059    448.3312 300.3389015 +22.8087565     657.0781     72.25466      1.606     4.56     5.386949     20.34382     63.16261        13     1.076     0.892 -79.17   0
       218    707.8365    447.8774 300.2598684 +22.7326157     837.4355     72.07114      1.376     4.60     5.551635     20.34382      95.2581        14     1.295     0.810  76.28   0
       219    865.2061    444.4344 300.3100583 +22.7787478     1032.891     72.10788      1.496     2.92     5.430698     20.34382     118.5541        17     1.092     0.882 -39.78   0
       220    823.1165    442.2574 300.2976369 +22.7655202     271.5325     72.19965      1.359     4.33     5.430698     20.34382     39.04126         5     0.787     0.677  19.49   0
       221    849.3853    440.9176 300.3062649 +22.7729998     715.2072     72.08951      1.590     3.85     5.430698     20.34382      86.3191        13     1.116     0.928  45.37   0
       222    593.6724    438.5089 300.2273306 +22.6957287     3249.694     72.27299      1.486     2.67     5.915738     20.34382     405.8622        26     1.150     1.078 -89.18   0
       223    954.2739    437.6019 300.3400649 +22.8034456     527.9938     72.01598      1.601     3.58     5.423027     20.34382     54.57751         9     0.911     0.846  32.00   0
       224     70.0696    429.7763 300.0672138 +22.5362953     431.4281     72.10788      1.797     4.45      5.92083     20.34382     40.66594         7     1.259     0.448  61.48   0
       225    365.6738    426.2685 300.1603016 +22.6239000     147.7978      72.1813      1.248     4.91     5.811408     20.34382     27.35183         6     1.464     0.466  87.82   0
       226    434.0484    425.5396 300.1818235 +22.6441795     466.7921     72.16296      1.597     4.42     5.708367     20.34382     42.51262        10     1.083     0.700  71.13   0
       227    978.5570    423.9540 300.3520727 +22.8067880     376.7342      72.1446      1.798     6.07     5.533463     20.34382     28.08082         8     1.328     0.781  -2.74   0
       228   1005.0601    418.0661 300.3622555 +22.8130264     1331.145      72.1446      1.552     3.92     5.634025     20.34382     122.0043        24     1.291     1.147  34.07   0
       229    877.0390    417.5880 300.3224630 +22.7745692     654.6009     72.10788      1.577     3.60     5.432495     20.34382     71.11888        13     1.102     0.880  67.53   0
       230    963.6158    416.5077 300.3498266 +22.8001740      919.631     72.03438      1.677     4.05     5.534222     20.34382     89.05677        17     1.270     0.973 -26.23   0
       231    704.2527    412.5809 300.2702070 +22.7213949     1025.453     72.08951      1.475     2.74     5.511826     20.34382     126.5845        16     1.061     0.926  71.53   0
       232    499.9932    413.2523 300.2063460 +22.6604066     562.6257     72.08951      1.470     2.58     5.713283     20.34382     62.88443         7     0.723     0.650 -30.76   0
       233    208.6239    410.5611 300.1165327 +22.5723174     625.2548     72.12624      1.496     3.42     5.651198     20.34382     57.17083        11     0.948     0.793 -64.34   0
       234    270.6709    406.3176 300.1372117 +22.5896966     3779.575     72.23634      1.570     2.88     5.793258     20.34382     445.0042        32     1.244     1.175  61.15   0
       235   1003.8421    405.1262 300.3660749 +22.8089391     4394.286     72.08951      1.673     3.19     5.635657     20.34382     422.5031        36     1.329     1.283 -63.50   0
       236    414.2853    402.8877 300.1830215 +22.6317493     716.1747     72.23633      0.575     0.74     5.678288     20.34382      414.567         5     0.452     0.412   7.17   0
       237    217.8489    401.0070 300.1225024 +22.5723386     7671.209     72.10788      1.583     3.18     5.692912     20.34382     695.9947        41     1.329     1.274  75.46   0
       238    983.8503    396.1484 300.3627488 +22.8003731     1878.523      72.1446      1.642     3.12     5.591114     20.34382     191.8782        24     1.220     1.138  83.26   0
       239    358.6996    395.2896 300.1681839 +22.6129101     4812.358     72.27299      1.506     2.85      5.82335     20.34382     581.7703        32     1.261     1.149  60.84   0
       240    602.8643    392.1140 300.2452512 +22.6851464     18670.06     72.19965      1.439     2.76     5.799159     20.34382     2096.284        52     1.277     1.196 -83.54   0
       241    620.7911    392.2521 300.2507922 +22.6905553     900.4055     72.10788      2.003     7.68     5.772354     20.34382     57.34134        20     1.710     0.978 -20.31   0
       242    446.1913    392.1824 300.1964291 +22.6382329     386.8288     72.05276      2.179     4.89     5.670375     20.34382      25.4216         5     1.288     0.526  28.35   0
       243    401.7000    392.7317 300.1823990 +22.6250601     1260.516     72.19965      0.686     0.86     5.709938     20.34382     660.1879         5     0.524     0.417  28.15   0
       244    799.6773    382.9590 300.3095717 +22.7414499     481.7158     72.08951      1.642     3.76     5.488904     20.34382     56.92463         7     0.891     0.661 -18.46   0
       245    936.5279    374.7104 300.3549379 +22.7800427     813.3707     72.27299      1.706     4.24     5.520549     20.34382     79.31628        17     1.185     1.038  80.94   0
       246    157.5494    371.9605 300.1131729 +22.5459213     2065.211     72.12624      1.651     3.48     5.820159     20.34382     197.2988        28     1.308     1.188  36.23   0
       247    957.2720    362.1664 300.3654814 +22.7826424     1127.048     72.10788      1.584     4.01     5.563857     20.34382     108.8959        18     1.365     0.861 -64.41   0
       248    543.5217    361.5327 300.2366864 +22.6585814     6675.753     72.21799      1.470     2.54     5.812647     20.34382     822.4253        37     1.248     1.125  70.57   0
       249    258.3620    360.7489 300.1481679 +22.5729180     712.8223     72.10788      1.495     2.97     5.853112     20.34382     98.24668        12     0.998     0.815  33.80   0
       250    115.7770    354.0317 300.1060005 +22.5282503     429.3031     72.10788      1.414     3.49     5.930357     20.34382     57.35352        12     1.002     0.945 -50.41   0
       251    747.7302    350.8282 300.3037994 +22.7166571     1199.648     72.08951      1.584     3.32     5.540262     20.34382     122.8507        19     1.219     0.980  69.89   0
       252    657.2933    352.1466 300.2751807 +22.6899569     444.4828     72.16296      1.321     3.10      5.81501     20.34382     56.66162         9     0.954     0.668  -5.13   0
       253    450.2193    347.7664 300.2120947 +22.6266757     6205.812     72.10788      1.468     2.76     5.683659     20.34382     680.3097        35     1.211     1.157  57.48   0
       254    842.3035    342.4696 300.3360036 +22.7425654     1463.385     72.23633      1.553     2.72     5.541282     20.34382     155.4823        22     1.194     1.040 -71.73   0
       255    939.4878    342.6668 300.3662587 +22.7717100     583.7747     72.19965      1.459     3.79     5.542697     20.34382     66.17936        14     1.132     0.897  41.24   0
       256    434.9508    336.2693 300.2110705 +22.6187975     497.5738     72.10788      1.413     4.88     5.715392     20.34382     59.24113         8     0.962     0.705  59.53   0
       257    517.3350    334.4960 300.2373013 +22.6429664     548.1484     72.21799      1.544     3.75     5.787524     20.34382     60.10521         9     1.034     0.781  65.63   0
       258    497.7782    332.4634 300.2318696 +22.6365242     273.3159     72.08951      1.471     4.10     5.757124     20.34382     35.27657         7     1.008     0.476   9.68   0
       259    815.0447    330.1670 300.3314932 +22.7308671     623.9327     72.16296      1.454     2.69      5.54061     20.34382     67.83263         9     0.786     0.732  44.65   0
       260    337.7925    326.9976 300.1838338 +22.5870240     2565.849     71.92397      1.472     2.95     5.842144     20.34382     286.9308        24     1.124     1.091  83.56   0
       261     56.0515    324.1198 300.0971364 +22.5017557     1069.914     72.10788      1.839     4.12     5.999308     20.34382     96.81483        23     1.314     1.204  71.93   0
       262    685.1014    322.6645 300.2934127 +22.6898067       188.41     72.19965      1.136     3.84      5.76341     20.34382     39.60354         5     0.851     0.498 -55.00   0
       263    307.0850    316.3299 300.1777380 +22.5747578     30069.47     72.21799      1.535     2.85     5.849463     20.34382     3176.813        72     1.421     1.302  60.31   0
       264    841.8141    314.1234 300.3450472 +22.7342652      1314.94     72.12624      1.450     3.31     5.541282     20.34382     154.8855        21     1.135     1.030  48.53   0
       265    797.1154    311.7001 300.3318927 +22.7201884     327.4576     72.27299      1.392     3.30     5.540262     20.34382     43.34723         7     0.855     0.581  34.64   0
       266      3.4357    303.9559 300.0873234 +22.4801913     4839.562     66.60855      1.786     3.60     6.003284     20.34382      444.825        38     1.475     1.329  66.43  24
       267    881.2206    303.2350 300.3608717 +22.7429274     285.3792     72.12624      1.416     4.76     5.531665     20.34382     37.31152         6     1.175     0.547 -29.77   0
       268    757.0526    302.9515 300.3222381 +22.7056792     459.4078      72.1446      1.303     2.57     5.540262     20.34382     80.28604         9     0.863     0.687  15.59   0
       269    181.4252    303.1067 300.1429345 +22.5333018     477.6227     72.05276      1.646     3.02     6.073954     20.34382     64.33819         7     0.901     0.698  -2.18   0
       270    405.9046    301.8805 300.2131827 +22.6002130     508.7225     72.21799      1.355     3.38     5.810781     20.34382     62.49904        10     0.883     0.872   5.61   0
       271    717.5394    296.2665 300.3120876 +22.6919274     1922.068      72.1446      1.517     2.72     5.621797     20.34382     223.8751        22     1.175     1.019 -77.97   0
       272    526.0534    290.9311 300.2541488 +22.6330547     376.8441     72.12624      1.460     2.73      5.87677     20.34382     56.75526         7     0.792     0.772  58.79   0
       273    932.7296    289.1030 300.3815266 +22.7542764     571.4664     72.23633      1.479     4.05     5.489686     20.34382     66.29863        10     0.907     0.778 -17.11   0
       274    379.5084    280.8243 300.2117952 +22.5862540     2210.164     72.05276      1.681     3.48     5.835404     20.34382     210.7092        27     1.413     1.005  66.98   0
       275    591.7122    279.9221 300.2781741 +22.6495527     365.6763     72.25466      1.265     2.59     5.861811     20.34382     65.95044         6     0.919     0.418 -77.76   0
       276    818.4797    273.9546 300.3507991 +22.7157259      749.697     72.08951      1.614     3.13      5.58829     20.34382     77.75211        11     1.024     0.732 -45.34   0
       277    717.6813    271.7836 300.3200731 +22.6849286     249.8974     72.08951      1.169     3.41     5.679883     20.34382     36.94157         5     0.785     0.428  73.81   0
       278    700.8013    271.8605 300.3147861 +22.6798973     391.5298     72.07114      1.418     2.26     5.739073     20.34382     50.63306         6     0.710     0.550  30.23   0
       279    669.1254    271.0862 300.3051639 +22.6701913     326.7913     72.21799      1.386     3.32     5.839035     20.34382     40.10297         7     0.871     0.760 -54.41   0
       280    170.1498    261.8281 300.1528156 +22.5180650     262.3533     72.12624      1.233     4.56      6.15291     20.34382     30.17014         7     1.001     0.589  73.90   0
       281    455.1833    260.2274 300.2420356 +22.6030024     1191.125     72.12624      1.465     2.78     5.835044     20.34382      131.606        15     1.025     0.840  89.07   0
       282    540.6785    257.1769 300.2696521 +22.6277307     418.3447     72.08951      2.124     4.95     5.893009     20.34382      26.9079         7     1.359     0.510 -68.76   0
       283    966.5181    256.7396 300.4025678 +22.7550743     343.2856     72.19965      1.310     3.39     5.500283     20.34382     49.26346         8     1.032     0.620  -8.67   0
       284    700.1247    252.0842 300.3209892 +22.6740071     2206.403     72.19965      1.481     3.03     5.793748     20.34382     232.1453        25     1.174     1.101 -78.43   0
       285    961.3232    246.7018 300.4042021 +22.7506314     3163.763     72.25466      1.660     3.29     5.506804     20.34382     280.3755        32     1.299     1.230 -81.87   0
       286   1022.2897    242.1061 300.4247212 +22.7675488     491.2058     63.45186      1.433     4.48     5.472326     20.34382     42.66856         8     1.058     0.544  36.76  24
       287    332.9948    237.9964 300.2112070 +22.5600115     186.1683     71.92397      1.404     3.76      5.83725     20.34382     23.91534         5     0.651     0.624  -0.03   0
       288    408.4748    235.9089 300.2353790 +22.5820219     573.7249     72.25466      1.379     3.96     5.814193     20.34382     75.27361        10     1.139     0.728 -64.89   0
       289     83.2708    230.1094 300.1360867 +22.4829158     1492.718     72.27299      1.809     3.78     6.092433     20.34382     131.1018        26     1.454     1.117 -40.46   0
       290    114.3127    230.2517 300.1456917 +22.4922603     598.9246      72.1446      1.343     2.20      6.11657     20.34382     76.72462         7     0.774     0.578 -28.26   0
       291    977.1926    227.4960 300.4153832 +22.7498522     456.0887      71.9976      1.495     2.74     5.502321     20.34382     53.92476         6     0.684     0.632 -31.75   0
       292    821.0823    224.1209 300.3677727 +22.7021685     304.4878     72.23633      1.295     3.91     5.732872     20.34382     34.16358         6     0.748     0.584  51.12   0
       293    167.0749    222.0329 300.1647637 +22.5057112     418.1567     72.10788      1.486     3.95      6.17276     20.34382     44.18196        11     1.034     0.734  -1.94   0
       294    843.4973    216.0634 300.3773767 +22.7065583     294.5027     72.19965      1.147     2.38     5.671175     20.34382     46.69605         6     0.746     0.497  84.41   0
       295    771.5383    213.9251 300.3556284 +22.6844074     638.2543     72.16296      1.339     2.66     5.818861     20.34382     98.03862        13     0.956     0.843  17.29   0
       296    361.8742    213.5804 300.2281127 +22.5616454     308.8344     72.10788      1.479     4.07     5.809977     20.34382     57.84115         6     0.996     0.476 -40.20   0
       297    869.9975    202.6361 300.3899970 +22.7106248     1988.725     72.10788      1.563     2.92     5.668401     20.34382     256.0882        25     1.256     1.107 -82.68   0
       298    288.3896    199.7724 300.2097202 +22.5356637     2200.321     72.10788      1.578     3.11     6.001855     20.34382     256.4897        27     1.261     1.119  84.52   0
       299    366.1842    195.0323 300.2354681 +22.5576053     1076.945     72.08951      1.518     3.14     5.811457     20.34382     114.7697        19     1.143     0.994  10.60   0
       300    768.0449    194.6319 300.3607950 +22.6778116      625.238     72.16296      1.354     2.62     5.822143     20.34382     76.99046         9     0.876     0.654  47.18   0
       301    118.2881    194.2246 300.1586088 +22.4831024     354.7578     72.07114      1.922     5.62     6.188651     20.34382     41.20813         7     1.323     0.674 -76.16   0
       302    875.2230    191.9963 300.3950771 +22.7091268     368.5986     72.07114      1.561     4.45     5.731123     20.34382     36.62783         8     1.050     0.677  -4.22   0
       303    300.9457    186.8990 300.2178011 +22.5357255     428.2915     72.19965      1.929     4.72     6.010544     20.34382     38.10378         7     1.077     0.588  53.81   0
       304    183.5800    186.9146 300.1812832 +22.5005673     719.2618     72.03438      1.459     2.87     6.190487     20.34382     89.87195        13     1.062     0.793 -61.51   0
       305    720.9085    184.1055 300.3495116 +22.6606754     1534.227     72.27299      1.345     2.96     5.830181     20.34382     199.9543        21     1.102     1.033 -72.74   0
       306    785.6473    183.9662 300.3697420 +22.6800111     595.9057      72.1446      1.416     3.31     5.825356     20.34382     77.25142        12     1.032     0.804  -1.96   0
       307    204.7258    180.3125 300.1900007 +22.5050061     476.1366     72.25466      1.499     3.48      6.16979     20.34382     60.67254         9     1.008     0.726 -66.33   0
       308    992.7390    176.9626 300.4366212 +22.7399587      783.312     72.12624      1.478     3.21     5.628456     20.34382     89.13741        14     1.058     0.895  27.13   0
       309    724.9821    175.8680 300.3534523 +22.6595250      780.689     72.10788      1.643     2.81     5.827398     20.34382     81.21634        11     0.931     0.738  86.85   0
       310    645.4307    174.8577 300.3289833 +22.6354225     1239.109     72.12624      1.435     3.15     5.879116     20.34382     150.9793        20     1.124     1.017 -72.15   0
       311    466.2286    170.9742 300.2744157 +22.5806519     445.3486     72.08951      1.645     4.75     5.803825     20.34382     39.31577         8     1.155     0.584  29.38   0
       312    841.1420    166.3913 300.3927476 +22.6915611     1500.101     72.07114      1.523     2.82     5.862863     20.34382     166.2331        20     1.114     0.998 -81.20   0
       313    571.8315    166.5950 300.3087285 +22.6110127     962.4436     72.08951      1.386     2.37     5.937061     20.34382     139.1472        15     0.981     0.860  44.01   0
       314    853.0811    165.3923 300.3967956 +22.6948460     805.7454     72.03438      1.637     3.66     5.877268     20.34382     90.01625        15     1.141     0.948 -54.85   0
       315    899.2662    164.4651 300.4115042 +22.7083980      275.218     72.16296      1.377     3.43     5.886834     20.34382     31.51949         5     0.757     0.449  20.89   0
       316   1013.8625    156.4254 300.4498730 +22.7403656     1637.878     72.10788      1.559     3.05     5.605712     20.34382      182.907        23     1.219     1.117 -70.30   0
       317    969.6121    156.0672 300.4361777 +22.7270260     955.3901     72.10788      1.391     3.89     5.757772     20.34382     125.5926        14     1.159     0.840  40.67   0
       318    203.9684    148.8201 300.1999739 +22.4957298     735.9185     72.10788      1.506     2.83     6.204922     20.34382     99.09502        12     0.963     0.825 -48.60   0
       319     65.6340    143.0677 300.1588221 +22.4526270     2328.407     72.10788      1.840     3.64     6.427469     20.34382     227.6988        33     1.465     1.292  66.45   0
       320    888.8344    140.8187 300.4159155 +22.6984717     779.3636     72.10788      1.584     2.84     5.911537     20.34382     90.98197        11     0.919     0.777  17.62   0
       321     14.8422    140.0902 300.1439995 +22.4365499     404.9585     72.10788      1.503     4.09     6.542994     20.34382     53.43075        10     1.088     0.903 -27.72   0
       322    223.1001    136.5051 300.2099170 +22.4979225     5727.292     72.30963      1.668     3.28     6.136065     20.34382     579.5206        39     1.379     1.232  78.68   0
       323    205.6963    138.0312 300.2040085 +22.4931472     396.4968     72.05276      1.495     5.34     6.195735     20.34382      42.1048         8     1.235     0.651  24.01   0
       324      7.2764    131.1631 300.1445415 +22.4317181     1218.455     72.07114      1.732     4.09     6.571841     20.34382     114.4601        24     1.425     1.101 -46.04  16
       325    206.2675    127.8919 300.2074726 +22.4904045     638.8685     72.23633      1.447     2.78      6.19164     20.34382     66.05289         7     0.827     0.609 -26.07   0
       326   1021.9568    124.4569 300.4627630 +22.7335836      17775.8     64.89648      1.675     3.37     5.605303     20.34382     1926.833        51     1.546     1.223  89.87  24
       327    867.2656    118.4661 300.4164324 +22.6855857     3817.306     72.16296      1.645     2.77     5.919521     20.34382     454.5574        34     1.319     1.205 -81.54   0
       328    970.8328    117.3011 300.4491254 +22.7162323     2836.177     72.08951      1.664     3.00     5.778152     20.34382     313.4185        28     1.293     1.160  78.24   0
       329    416.6180    113.1995 300.2776958 +22.5491848     689.8027     72.03437      1.561     4.09     5.813925     20.34382      70.2588        12     1.026     0.919 -45.16   0
       330    169.2697    114.0947 300.2004369 +22.4753555     431.1179     72.21799      1.531     3.17     6.396022     20.34382     48.77375         6     0.853     0.514  57.37   0
       331    341.0381    105.1810 300.2567672 +22.5242456     843.0139     72.10788      2.145     3.58     5.928077     20.34382     55.98149        11     1.007     0.749   5.11   0
       332    106.7562    102.5419 300.1847414 +22.4533061      649.427     72.12624      1.627     3.95     6.570061     20.34382     60.94044         9     1.222     0.612 -23.03   0
       333    467.9910    100.7287 300.2977341 +22.5609816     1690.019     72.08951      1.487     2.82     5.799057     20.34382     197.6891        23     1.173     1.053  66.66   0
       334    395.7735    101.5050 300.2749966 +22.5395805     543.7559     72.05276      1.493     3.83     5.843896     20.34382     58.69914         8     0.987     0.618 -36.06   0
       335    529.6729    100.1846 300.3171217 +22.5792923     502.5276     72.10788      1.626     3.40     5.824567     20.34382     53.52228         7     0.883     0.578  34.86   0
       336    211.7734     96.3915 300.2193945 +22.4830012     381.4325     72.10788      1.480     2.16     6.131622     20.34382     50.99557         5     0.680     0.466 -17.16   0
       337    684.4675     94.9328 300.3670580 +22.6241156     200.4282     72.16296      1.198     3.67     5.997497     20.34382     33.55123         6     0.791     0.499 -88.32   0
       338    756.4514     90.8192 300.3908327 +22.6444735     358.2395     72.08951      1.264     3.29     5.945578     20.34382     45.88556         5     0.739     0.473 -74.20   0
       339    242.0657     80.4230 300.2339929 +22.4874856     5870.143     72.08951      1.597     3.16      6.00555     20.34382     645.5217        36     1.352     1.196  58.43   0
       340    748.2828     81.4383 300.3913260 +22.6393299     379.9404     72.07114      1.224     3.79     5.993591     20.34382     41.45429         7     0.958     0.472 -10.68   0
       341     93.3168     80.0001 300.1878679 +22.4428024     548.2982     71.97919      1.521     3.55     6.619792     20.34382     69.46299        10     1.006     0.831  53.53   0
       342    871.4462     77.9292 300.4308750 +22.6751694     480.5645     72.08951      1.593     6.26     5.929074     20.34382     43.98632        11     1.199     0.920  -8.07   0
       343    213.6457     74.5928 300.2270410 +22.4772969     326.6647     72.12624      1.418     3.14      6.04794     20.34382      51.5365         6     0.940     0.396  19.96   0
       344    257.5895     71.9408 300.2415714 +22.4896973     395.3199     72.05276      1.527     4.86     5.989319     20.34382     53.46449         8     1.104     0.618 -52.99   0
       345      4.0678     71.1224 300.1630018 +22.4135090     409.5277     68.97247      1.716     5.16     6.619792     20.34382     31.41421         8     0.988     0.762 -24.59  16
       346    488.1703     65.9279 300.3152965 +22.5570154     6150.687     72.10788      1.511     2.89     5.822286     20.34382     600.3182        40     1.384     1.145  75.41   0
       347    373.6811     65.8291 300.2796806 +22.5227076     582.3918     72.12624      1.496     2.66     5.881217     20.34382     91.04942        12     1.007     0.741  26.68   0
       348    545.3636     60.6552 300.3348198 +22.5726201     262.6707     72.12624      1.146     3.73     5.928953     20.34382     43.19603         7     0.981     0.703 -37.95   0
       349    740.8615     56.0298 300.3972460 +22.6297979     922.5814     72.12624      1.805     3.80     6.111176     20.34382     86.40973        12     1.190     0.687 -46.90   2
       350    681.6205     57.8310 300.3781943 +22.6125891     140.6635     72.10788      1.054     2.62     6.204987     20.34382     46.61441         5     0.819     0.535 -37.75   0
       351    833.0281     54.9641 300.4263333 +22.6570665     285.5341     72.12624      1.292     3.62      5.98127     20.34382     50.32531         5     0.659     0.573   0.55   0
       352    181.1418     49.7890 300.2249679 +22.4604316     489.5034     72.07114      1.552     3.34     6.029413     20.34382     64.09575         8     1.014     0.516 -56.97   0
       353    539.8953     48.7671 300.3369685 +22.5675639     288.9991     72.08951      1.274     3.86     5.951468     20.34382     47.79047         9     1.062     0.590  -0.27   0
       354    616.5886     46.1040 300.3617264 +22.5897530     6137.788     72.01598      1.509     2.74     6.190227     20.34382     702.9048        37     1.296     1.172 -71.06   0
       355    391.4706     45.1451 300.2919207 +22.5220870     1403.856     72.12624      1.389     2.98     5.860025     20.34382     159.2547        17     1.024     0.985 -70.53   0
       356    727.4919     42.5824 300.3974352 +22.6219279      388.091     72.03438      1.825     6.39     6.196095     20.34382     36.49795         8     1.417     0.810  79.21   0
       357    657.8899     43.5709 300.3754185 +22.6013846     946.4221     72.08951      1.595     3.30     6.273275     20.34382     104.9313        16     1.095     0.965  29.87   0
       358    673.7415     39.7709 300.3815905 +22.6050349     618.4603     72.10788      1.524     2.51     6.321636     20.34382     79.38971         9     0.827     0.723 -85.21   0
       359    943.6374     37.0580 300.4666439 +22.6849977     539.4491     72.10788      1.425     5.02     6.106487     20.34382     66.83112        11     1.236     0.857 -59.96   0
       360    140.6845     37.3450 300.2164176 +22.4447359     601.2621      72.1813      1.436     3.25     6.157042     20.34382     68.97122        10     1.013     0.670 -17.95   0
       361    712.2515     34.6087 300.3952676 +22.6150731     484.8168     72.10788      1.644     5.78     6.266905     20.34382     45.08889        11     1.211     0.832 -49.51   0
       362    660.8399     30.9571 300.3804251 +22.5986382     2763.169     72.19965      1.500     2.96     6.347573     20.34382     298.5738        30     1.253     1.162  66.69   0
       363    302.3218     31.8727 300.2684732 +22.4915759     376.8079     72.21799      1.400     3.68     5.908746     20.34382      60.2461         6     0.957     0.560  18.04   0
       364    675.9192     29.7700 300.3855098 +22.6028090     953.3745     72.10788      2.036     5.18     6.373975     20.34382     76.80657        20     1.625     0.984  50.52   0
       365    747.0806     22.6895 300.4099882 +22.6220643     1552.653     72.21799      1.601     3.11     6.247795     20.34382     156.6729        24     1.230     1.089   4.79   0
       366    907.4019     21.7494 300.4602974 +22.6697529     201.7677     72.08951      1.348     3.45     6.067852     20.34382     34.07946         5     0.723     0.476 -77.62   0
       367     71.5230    916.6876 299.9094927 +22.6764436     4626.881     72.23633     26.754    65.26     9.689704     20.34382     99.68494      1353    16.070     7.354 -29.27  19
       368    289.9253   1011.5424 299.9465574 +22.7691971     1184.326     72.16296      2.150     6.63     7.149437     20.34382      72.3305        26     1.499     1.432  62.47   0
       369    125.0450   1008.2298 299.8963570 +22.7187602     1228.848      72.1446      2.796     8.70     93.51682     20.34382     49.13922        15     1.765     1.203  31.11   2
       370    131.4016   1006.4037 299.8989272 +22.7201447     402.9576     71.88714      1.920     5.84     91.42115     20.34382     31.20243         5     1.326     0.725 -45.92   0
       371     33.8064   1002.6624 299.8698087 +22.6897731     1216.987     72.07114     13.905    13.98     15.46105     20.34382     52.78095        25     3.226     1.684  65.83  19
       372    167.5572    996.2316 299.9134778 +22.7280804     3077.511     72.16296      6.782    28.01     81.28016     20.34382     61.27135       203     5.474     3.980  82.42  18
       373    193.6316   1001.5457 299.9198574 +22.7374306     1383.893     72.12624      3.328     9.89     85.69052     20.34382     53.79707        24     2.358     1.156 -48.65   3
