#   1 NUMBER                 Running object number                                     
#   2 X_IMAGE                Object position along x                                    [pixel]
#   3 Y_IMAGE                Object position along y                                    [pixel]
#   4 ALPHA_J2000            Right ascension of barycenter (J2000)                      [deg]
#   5 DELTA_J2000            Declination of barycenter (J2000)                          [deg]
#   6 FLUX_APER              Flux vector within fixed circular aperture(s)              [count]
#   7 FLUXERR_APER           RMS error vector for aperture flux(es)                     [count]
#   8 FLUX_RADIUS            Fraction-of-light radii                                    [pixel]
#   9 FWHM_IMAGE             FWHM assuming a gaussian core                              [pixel]
#  10 BACKGROUND             Background at centroid position                            [count]
#  11 THRESHOLD              Detection threshold above background                       [count]
#  12 FLUX_MAX               Peak flux above background                                 [count]
#  13 ISOAREA_IMAGE          Isophotal area above Analysis threshold                    [pixel**2]
#  14 A_IMAGE                Profile RMS along major axis                               [pixel]
#  15 B_IMAGE                Profile RMS along minor axis                               [pixel]
#  16 THETA_IMAGE            Position angle (CCW/x)                                     [deg]
#  17 FLAGS                  Extraction flags                                          
         1    517.7921     16.0687 300.3327108 +22.5431248     1138.456     72.48763      1.446     3.35     5.399886     20.45617     131.7655        18     1.157     0.950  51.10   0
         2    421.5195     14.6912 300.3031778 +22.5139132     795.5301     72.63526      1.346     2.31     5.399994     20.45617     104.7226        12     0.915     0.744  37.25   0
         3    803.3355     13.4294 300.4225582 +22.6277989     484.3759     72.52457      1.604     4.36     5.945091     20.45617     52.43145         9     1.144     0.633 -34.75   0
         4    760.8105      5.0765 300.4120043 +22.6126751     706.1163     71.98713      1.466     2.74     5.914935     20.45617     82.51083        10     0.856     0.799   6.52  16
         5    192.8639      4.1312 300.2354455 +22.4424171     3736.283     69.50766      1.524     3.06     5.430032     20.45617     414.1292        30     1.285     1.139  70.61  24
         6    323.3406      4.4970 300.2759204 +22.4815908      311.375     70.63514      1.346     3.43      5.50568     20.45617     42.62326         5     0.760     0.448  21.17  16
         7    615.7455      1.5430 300.3679329 +22.5682591     375.3658     57.65013      1.343     2.49     5.872344     20.45617     48.71762         5     0.691     0.479  15.84  24
         8    199.9641   1005.0451 299.9127042 +22.7318922     1117.963     72.54302      3.203     8.77     83.88212     20.45617     43.49741        19     1.888     1.137 -49.68   3
         9    269.3535   1016.2830 299.9306296 +22.7559371     3131.787     72.48763      8.120    38.88     33.34897     20.45617     75.05913       303     7.534     5.569  77.63  27
        10    221.0377    986.8578 299.9251745 +22.7330004     4566.021      72.5061      8.744    33.72     65.69273     20.45617     90.35612       353     6.977     4.696 -83.66  19
        11    241.7936    985.5719 299.9320483 +22.7388598     6131.505      72.5061     12.457    49.10      48.9887     20.45617     110.5232       747    10.572     7.666 -72.22  19
        12    259.8577    974.9926 299.9411085 +22.7412456     9417.491     72.48763     14.701    41.40     28.22514     20.45617     184.6817      1146    13.863     5.855  68.08  19
        13    110.2849   1012.2875 299.8824657 +22.7070540     3950.656     72.63526     13.549    74.21     89.09197     20.45617     146.2523      1482    14.961    10.215  38.36  27
        14    581.8182    945.1060 300.0510500 +22.8292374     1571.562     72.43219      1.836     4.75     4.277059     20.45617     103.0656        26     1.415     1.227  55.84   0
        15    475.4982    941.5707 300.0190888 +22.7963417     1050.312     72.43219      1.881     5.39     4.532047     20.45617     75.73997        20     1.276     1.269  82.79   0
        16    406.1737    939.5647 299.9981600 +22.7749750     6677.644      72.5061      1.901     4.23     4.599113     20.45617     551.8523        46     1.477     1.443  16.87   0
        17     98.8071    942.3188 299.9016577 +22.6835480     5760.729     72.43219     27.546    12.09     24.23946     20.45617     1337.546      4455    21.419    16.830 -81.84  18
        18    508.8108   1001.4284 300.0099896 +22.8235090      323.648      72.5061      1.588     3.48     4.259848     20.45617      31.3082         5     0.806     0.433 -20.58   0
        19    439.0551    927.4337 300.0123410 +22.7813558     378.9563     72.52457      1.548     5.15     4.595594     20.45617     44.54417         6     1.226     0.612  23.31   0
        20    376.1411    998.3425 299.9696925 +22.7828299     386.7198     72.57993      1.747     6.12     4.438542     20.45617     44.64684        11     1.253     1.109  17.49   0
        21    568.5047    992.0952 300.0316171 +22.8387320     2407.357     72.67212      1.941     4.76     4.273356     20.45617      139.094        32     1.496     1.303  14.34   0
        22    952.6334    918.6478 300.1752601 +22.9327751     2220.736     72.54303      2.076     5.36      4.40531     20.45617     101.7649        34     1.533     1.448  83.91   0
        23    655.1548    987.5360 300.0600954 +22.8634043     8709.532     72.52457      2.018     4.81     4.163761     20.45617     525.5024        46     1.554     1.466  35.65   3
        24    660.5444    985.3119 300.0624984 +22.8643817     9589.783     72.54303      2.009     4.79     4.156898     20.45617     506.1897        54     1.565     1.523  67.60   3
        25    754.9595    988.2840 300.0909579 +22.8935384     640.6848     72.46915      1.999     7.24     4.164895     20.45617      41.9864        15     1.329     1.104 -88.43   0
        26    450.8834    914.9102 300.0200964 +22.7813092     233.1628     72.61682      1.532     5.48     4.596712     20.45617     30.63789         7     1.060     0.801  22.72   0
        27    603.2197    915.9623 300.0671961 +22.8272880     468.7215     72.52457      1.705     3.89     4.255994     20.45617     35.26418         5     0.854     0.507 -25.65   0
        28      6.7774   1007.1276 299.8519764 +22.6745039     2881.677     72.54303     15.034    51.49    -22.70277     20.45617     71.78455       674    13.775     5.342  88.18  26
        29    741.4012    907.5093 300.1130066 +22.8662812     737.5461      72.4137      2.168     6.35     4.329126     20.45617     45.43908        13     1.318     0.860  37.97   0
        30    553.4525    902.4138 300.0561000 +22.8084782      434.905     72.54303      1.682     5.74     4.300422     20.45617     32.51481         8     1.186     0.783  23.48   0
        31    776.0482    901.6280 300.1257205 +22.8749757     974.5221     72.52457      1.718     5.07     4.351025     20.45617     69.65129        17     1.211     0.988  19.19   0
        32    933.6774    899.5042 300.1755723 +22.9215965     351.2351     72.63526      1.806     5.35     4.384466     20.45617     31.65419         7     0.929     0.870 -80.32   0
        33    189.8094    979.7464 299.9177764 +22.7215902      1855.03      72.5061      6.207    18.14     63.72698     20.45617     57.87106        61     4.812     1.901  63.75   3
        34    798.4197    895.2415 300.1347727 +22.8798457     11509.18     72.54303      1.844     4.19     4.372568     20.45617     687.2711        52     1.464     1.424   8.13   0
        35      3.1593    973.2411 299.8618753 +22.6637044     1640.233     65.76588      8.497    13.08    -14.08319     20.45617     49.77709        46     2.712     1.756  82.15  27
        36    947.5035    971.7402 300.1563887 +22.9464897     727.7487     72.57993      1.894     6.75     4.284138     20.45617     49.71616        16     1.434     1.022  46.69   0
        37    185.6613    967.4158 299.9204975 +22.7168094     784.0303     72.45068      2.218     4.73     53.49054     20.45617     56.45105        11     1.058     0.831  42.38   1
        38    850.3041    883.0096 300.1549301 +22.8918792     586.0903     72.43219      1.946     5.89      4.40711     20.45617     35.15574         9     1.123     0.869 -56.19   0
        39    503.9524    883.2847 300.0469049 +22.7881460     527.1496     72.48763      2.033     6.60     4.488265     20.45617     50.08604         9     1.209     1.010 -45.58   0
        40    194.2547    998.7809 299.9129667 +22.7283826     2793.201     72.48763      5.545    16.59     79.29723     20.45617     62.46722       115     3.756     2.746  16.32   3
        41    806.9456    877.3100 300.1432626 +22.8772503     1563.987     72.54303      1.880     4.09     4.410524     20.45617     105.9824        26     1.315     1.255  49.36   0
        42    167.1904    955.5410 299.9186166 +22.7078613     1698.428     72.46915      5.473    12.40     48.09074     20.45617     53.10369        31     2.718     1.575  32.18   2
        43    657.0106    874.2488 300.0975215 +22.8314368     422.7298     72.52457      1.740     4.25     4.261839     20.45617     32.87336         5     1.067     0.483  36.08   0
        44    844.9479    870.9780 300.1571723 +22.8868183     867.2427      72.5061      2.277     5.85     4.431984     20.45617     51.55388        17     1.332     0.994  14.55   0
        45    953.5444    867.6395 300.1921337 +22.9183931     281.0647      72.5061      1.407     3.54     4.478148     20.45617      38.3468         5     1.108     0.326  19.46   0
        46    893.4142    862.5248 300.1750378 +22.8989106     703.3527     72.52457      2.236     7.61     4.453292     20.45617     44.71578        12     1.386     1.261 -43.23   0
        47    638.3621    864.1420 300.0949972 +22.8229452     215.3737      72.5061      1.610     5.76     4.258444     20.45617     25.73663         6     1.518     0.616 -13.28   0
        48    744.9603    861.1321 300.1291981 +22.8540293     691.9774     72.46915      1.586     4.47     4.397819     20.45617     61.33141        15     1.212     0.892 -28.02   0
        49    755.0000    858.0842 300.1333189 +22.8561626     602.0528     72.37671      1.777     3.89     4.404876     20.45617     53.06033         9     1.055     0.669 -53.84   2
        50    457.3731    857.3160 300.0408457 +22.7667260     4169.922      72.5061      1.704     3.59     4.597402     20.45617     348.7112        36     1.359     1.280  -1.94   0
        51    501.1913    845.4850 300.0583360 +22.7764681     349.7287     72.45068      1.617     4.57     4.492648     20.45617     42.14207         7     1.060     0.738  54.06   0
        52    673.2713    954.4305 300.0765105 +22.8593319     6825.444      72.5061      1.919     4.60     4.198329     20.45617     402.0231        45     1.532     1.435  28.09   0
        53    182.9033    843.0748 299.9600748 +22.6803191     832.6074     72.65369      2.274     5.13     7.159273     20.45617     63.05088        13     1.480     0.777 -22.32   0
        54    160.4454    839.6896 299.9541921 +22.6726106     1573.457     72.48763      2.081     4.12     7.333919     20.45617     123.5402        23     1.479     1.143  79.88   2
        55     34.7102    829.5359 299.9184088 +22.6319719     334.0311     72.61682      1.564     4.32     4.882226     20.45617     31.87439         5     1.197     0.444  59.90   0
        56    985.8707    827.8794 300.2151493 +22.9166510     2113.105     72.61682      1.974     4.62     4.528105     20.45617     122.3795        30     1.408     1.311   9.82   0
        57    691.1724    827.9005 300.1232378 +22.8283663     506.4236     72.45068      1.903     4.98     4.301377     20.45617     45.47937         7     1.279     0.550 -42.50   0
        58    769.1889    821.5911 300.1496078 +22.8499328     587.9081      72.3952      1.605     4.65     4.425946     20.45617     53.90623        15     1.150     0.955 -31.99   0
        59    192.1149    821.8781 299.9698302 +22.6770020     382.9183     72.61682      1.511     5.12     6.197145     20.45617     36.15102         9     1.002     0.739  86.34   0
        60    612.6016    821.0453 300.1009834 +22.8028494     2501.202      72.5061      0.649     1.99     4.262999     20.45617     1106.743         7     0.566     0.363  -3.63   0
        61    637.4487    815.4625 300.1105400 +22.8086935     4904.816     72.56149      1.710     3.54     4.266153     20.45617     413.3312        36     1.300     1.267 -55.27   0
        62    127.0783    815.6137 299.9516447 +22.6556939     413.2389     72.52457      1.567     4.65       5.7932     20.45617     44.97906         7     0.986     0.623  52.98   0
        63    439.5844    812.2761 300.0499509 +22.7484646     631.4614      72.5061      1.702     3.53     4.587729     20.45617     68.16557         9     0.857     0.799 -49.80   0
        64    187.7856    809.1210 299.9726309 +22.6720435     1420.154     72.52457      1.730     3.84      5.70984     20.45617     131.2687        21     1.281     1.055  20.35   0
        65    657.8417    807.8636 300.1193649 +22.8126232     740.7983     72.48763      1.652     5.23     4.267962     20.45617     64.59199        14     1.126     0.960 -44.27   0
        66    207.5704    806.2924 299.9797032 +22.6771669      348.816     72.46915      1.103     2.62     5.505871     20.45617     41.51204         5     0.695     0.467 -71.34   0
        67    574.8377    798.5866 300.0965201 +22.7850815     392.0787      72.5061      1.970     5.01      4.28643     20.45617     32.44952         6     1.254     0.576 -74.99   0
        68    813.4767    795.3149 300.1719591 +22.8556540      4324.02     72.61682      1.755     3.89     4.517957     20.45617     317.6173        32     1.287     1.249  14.44   0
        69    221.8252    789.1495 299.9897089 +22.6765244     492.1515     72.52457      1.611     4.46     5.262273     20.45617      44.3653        11     1.071     0.913 -68.60   0
        70    530.3307    787.6957 300.0861978 +22.7686136     646.0672     72.63526      1.624     4.15     4.389717     20.45617     59.00433        13     1.072     0.844  -7.11   0
        71    176.7170    785.6575 299.9768158 +22.6619919     1098.333     72.59838      1.804     4.21     5.343199     20.45617     93.76495        18     1.294     0.962   9.54   0
        72    591.8956    781.2694 300.1074631 +22.7852218     592.0728     72.63526      1.679     4.93     4.352401     20.45617     52.32068        10     1.025     0.764 -36.59   0
        73    326.4676    777.6367 300.0260043 +22.7046042     53839.33     72.48763      1.696     3.48     4.981576     20.45617      5483.79        88     1.460     1.401  34.75   0
        74    584.3497    776.7919 300.1065678 +22.7816744     1818.854      72.5061      1.706     3.42     4.369677     20.45617     180.7324        25     1.259     1.093  59.06   0
        75    997.3835    776.0821 300.2355817 +22.9052130     952.8481     72.46915      1.826     6.01     4.681651     20.45617     74.29686        16     1.156     1.098  38.62   0
        76    255.0795    775.8820 300.0043647 +22.6826916      494.432     72.65369      1.523     3.56     5.147376     20.45617      62.4397         9     1.025     0.773  48.47   0
        77    300.3141    775.2527 300.0186416 +22.6960770      309.138     72.54303      1.632     4.35     5.041719     20.45617     38.20688         5     0.769     0.701  54.27   0
        78    613.2605    772.7589 300.1168855 +22.7891812     987.5406     72.48763      1.675     3.84     4.381044     20.45617     97.26209        17     1.247     0.894  16.90   0
        79     12.4587    772.1487 299.9301474 +22.6088372     943.2084     72.56149      2.293     6.09     4.115382     20.45617     66.69354        17     1.500     1.148 -14.86   0
        80    624.0396    769.7877 300.1212097 +22.7915584     1444.133      72.5061      1.023    -0.18     4.393109     20.45617     800.8237        11     1.244     0.488  88.09   0
        81    729.6144    767.7236 300.1547821 +22.8226021     513.2343     72.52457      1.533     3.79     4.498269     20.45617     57.52328        10     0.907     0.820  88.86   0
        82    523.9218    765.1163 300.0915411 +22.7602096     307.4471     72.61682      1.368     4.98     4.468633     20.45617     30.53507         6     0.974     0.719 -52.87   0
        83    767.4435    758.0980 300.1697038 +22.8311710      798.446      72.5061      1.592     3.73     4.583581     20.45617      79.7933        14     1.105     0.928 -12.86   0
        84    376.2297    754.9141 300.0488754 +22.7130039     31730.99      72.5061      1.585     3.20     4.815332     20.45617     3478.071        71     1.376     1.351  56.32   0
        85    390.6193    755.4145 300.0531914 +22.7174620     1991.459     72.45068      1.609     2.97     4.762847     20.45617     227.8288        23     1.212     1.074  31.30   0
        86    899.2960    751.0551 300.2131120 +22.8686445     2763.752     72.57993      1.657     3.54     4.817056     20.45617     205.4546        29     1.285     1.206  23.10   0
        87    387.3631    749.4242 300.0541248 +22.7147662     799.9623     72.52457      2.428     3.58     4.779499     20.45617     64.28884        15     1.217     0.877  -6.20   0
        88    657.4368    746.8615 300.1390676 +22.7949823     868.4485     72.52457      1.558     4.32     4.485607     20.45617     81.38367        16     1.239     0.967 -60.47   0
        89    493.6263    747.2570 300.0879111 +22.7460007     508.4748      72.5061      1.747     4.21     4.549316     20.45617     45.50824        10     1.153     0.841 -15.65   0
        90    258.8202    746.6840 300.0150178 +22.6754349     711.0041     72.45068      1.667     4.79     5.090555     20.45617     77.37898        14     1.154     1.023 -85.76   0
        91    504.3963    741.7014 300.0930705 +22.7476339     1057.196      72.3952      1.751     3.68       4.5441     20.45617     101.1853        19     1.228     1.053 -53.32   0
        92     63.6662    741.9810 299.9558652 +22.6155485     462.2356     72.46915      1.691     3.04     4.544505     20.45617     51.90192         5     0.864     0.751  22.38   0
        93    905.9053    738.6164 300.2192167 +22.8670495     501.2098     72.43219      1.677     5.65     4.888158     20.45617     50.46768         9     1.243     0.724 -16.11   0
        94    450.0942    736.7885 300.0777590 +22.7299456     377.6491     72.45068      1.457     3.56     4.631167     20.45617     51.07025         6     0.839     0.603  -0.12   0
        95    659.2249    735.9394 300.1431745 +22.7923811     283.1407      72.5061      1.315     3.37     4.530016     20.45617     35.63246         5     0.787     0.505  30.61   0
        96     91.9560    736.0192 299.9665957 +22.6223252      577.995     72.52457      1.609     5.91     4.688825     20.45617     60.65844         9     1.176     0.835 -25.30   0
        97    256.4179    730.8783 300.0194070 +22.6701787     495.0402      72.5061      1.502     2.71     5.076736     20.45617     85.52179        10     0.931     0.819  20.88   0
        98    579.5070    721.3403 300.1230815 +22.7642992     481.1577     72.57993      1.698     3.87     4.621324     20.45617     50.90619         9     1.084     0.704 -67.88   0
        99    549.4005    720.0361 300.1141274 +22.7549018     720.0139     72.46915      1.629     3.72     4.627293     20.45617     72.65354        12     1.110     0.760  -3.84   0
       100    458.8795    719.1155 300.0862374 +22.7275053     320.5346     72.65369      1.321     3.51     4.692324     20.45617     46.94341         6     0.912     0.445  41.19   0
       101    965.7452    716.3306 300.2451295 +22.8785650     4480.399     72.54303      1.730     3.82      5.03581     20.45617     329.6553        38     1.411     1.298  28.04   0
       102    571.3965    717.1511 300.1219164 +22.7606655     1400.121      72.5061      1.491     3.27     4.645199     20.45617     143.3959        21     1.216     1.004  75.03   0
       103    491.5406    717.0214 300.0970877 +22.7366942     363.0988     72.48763      1.359     2.69     4.667382     20.45617     52.54008         5     0.711     0.607   4.11   0
       104    653.0836    712.0548 300.1490228 +22.7836805     412.3753     72.56149      1.386     2.77     4.635958     20.45617     55.05785         7     0.835     0.645 -32.57   0
       105    954.2415    707.7595 300.2443254 +22.8726566     1689.043     72.59838      1.707     4.02     5.084764     20.45617     121.6252        26     1.305     1.249  42.27   0
       106    317.2203    701.3865 300.0479066 +22.6799467     918.2706     72.46915      1.557     3.42     5.034197     20.45617     104.6777        15     1.079     0.953  78.18   0
       107    780.5516    698.8906 300.1930325 +22.8180876     2585.919      72.5061      1.618     3.48      4.70547     20.45617     254.1676        31     1.270     1.232 -56.31   0
       108    985.5444    697.8207 300.2573232 +22.8791731     1654.631      72.5061      1.781     4.08     5.132241     20.45617     117.1625        24     1.338     1.133  22.07   0
       109      2.7808    688.8604 299.9542043 +22.5820448     855.0084     63.94902      1.999     5.58     4.528477     20.45617       72.682        18     1.355     1.237  54.88  24
       110    165.6587    685.2352 300.0060108 +22.6298621     614.5552      72.5061      1.720     5.66     4.980216     20.45617     73.39046        12     1.527     0.997  35.29   0
       111    862.6594    685.1008 300.2231183 +22.8387181       661.93     72.59838      1.865     5.89     5.006512     20.45617     50.96812        13     1.254     0.780  13.09   0
       112    899.0512    675.9405 300.2374464 +22.8469841     148639.7     72.56149      1.594     3.27     5.170077     20.45617     11611.52       150     1.472     1.462 -72.70   0
       113    661.5343    679.3978 300.1622678 +22.7768319     386.2672      72.5061      1.289     3.28     4.762786     20.45617      39.8063         6     0.847     0.489  -1.50   0
       114    751.4990    676.3082 300.1913126 +22.8028963     681.6254     72.69054      1.440     3.13     4.676849     20.45617     103.3492        12     1.054     0.785 -19.01   0
       115    504.0007    676.9500 300.1139883 +22.7289223     200.7019     72.48763      1.139     3.73      4.88551     20.45617     27.18495         5     0.653     0.611   0.04   0
       116    931.6767    668.8794 300.2499189 +22.8547243     501.7473     72.61682      1.497     5.99      5.30938     20.45617     56.18314        12     1.291     0.781 -20.68   0
       117    585.3254    664.7515 300.1432817 +22.7497902     1610.386      72.5061      1.397     2.85      4.96247     20.45617     212.5814        20     1.169     0.952 -11.44   0
       118    766.5095    662.0693 300.2006186 +22.8033014     9292.054     72.65369      1.466     3.07     4.723388     20.45617      926.655        39     1.191     1.180 -79.76   0
       119    267.9054    656.9420 300.0470035 +22.6524034     4866.218     72.57993      1.528     3.26     5.041589     20.45617     547.9416        34     1.294     1.180  10.99   0
       120    349.9677    654.9940 300.0731698 +22.6764474     1095.375      72.5061      1.444     3.46     5.205194     20.45617     127.5096        19     1.175     0.949  28.28   0
       121    225.8073    652.7753 300.0352619 +22.6385845     427.5758     72.48763      1.459     3.70     5.024446     20.45617     62.62403         9     0.920     0.800  43.54   0
       122    558.2740    650.6641 300.1394317 +22.7376380     767.9489     72.54303      1.482     3.26     5.040421     20.45617     85.51801        14     1.043     0.862 -12.10   0
       123    550.0742    642.7207 300.1394582 +22.7328993     3389.541     72.61682      1.456     2.93     5.081495     20.45617     358.8397        26     1.141     1.097 -81.38   0
       124    540.2253    636.5519 300.1383945 +22.7281763     1492.005      72.5061      1.433     2.63     5.114184     20.45617     183.2914        20     1.068     1.003 -63.58   0
       125    933.9388    634.6988 300.2617299 +22.8455764     523.8193     72.57993      1.538     3.87     5.375555     20.45617     51.31792         9     0.979     0.642  52.55   0
       126    468.5027    635.4648 300.1164121 +22.7063701     407.1503     72.61682      1.627     3.47     5.156306     20.45617     51.29459         6     1.055     0.502  33.71   0
       127    203.5134    632.3850 300.0349517 +22.6260474     638.8484     72.45068      1.464     4.07     4.949729     20.45617     56.51096        12     1.075     0.900   1.41   0
       128    217.8651    630.9595 300.0398783 +22.6299416     682.7506     72.46915      1.617     4.92     4.958182     20.45617     67.88326        12     1.118     0.809 -28.83   0
       129    243.5430    627.9941 300.0488285 +22.6367898     549.9428     72.46915      1.339     3.65     4.962924     20.45617      84.4039        12     1.129     0.819  46.44   0
       130    987.0853    627.8581 300.2805359 +22.8595218     495.8532     72.61682      1.513     3.96     5.400992     20.45617     46.08706         9     1.037     0.764 -26.45   0
       131    274.9421    628.1086 300.0585589 +22.6462368     398.8447     72.56149      1.269     3.48     4.975627     20.45617     47.21566         6     0.894     0.473 -27.14   0
       132    564.3226    627.0801 300.1489772 +22.7326765     600.6346     72.61682      1.410     2.99     5.193285     20.45617      61.1311         9     0.867     0.693 -16.80   0
       133    465.0359    626.0820 300.1183806 +22.7026367     1716.051     72.45068      1.414     3.12     5.212503     20.45617     178.2252        21     1.147     1.044 -89.33   0
       134    498.5264    625.3228 300.1290557 +22.7124553     236.4062     72.61682      1.351     4.78     5.219183     20.45617     34.15306         6     0.954     0.679  68.53   0
       135    118.9100    620.9661 300.0123535 +22.5973995     19797.66     72.48763      1.661     3.52     4.875096     20.45617     2061.108        62     1.443     1.363  31.81   0
       136     39.7251    622.4830 299.9872473 +22.5740853     781.9828     72.61682      1.963     4.60      4.74032     20.45617     71.70042        16     1.199     1.142  26.11   0
       137    585.3353    620.9028 300.1575296 +22.7371981     258.9426     72.61682      1.183     4.16     5.263017     20.45617     47.55415         8     1.062     0.658  85.10   0
       138    549.8948    621.4590 300.1463091 +22.7267387     1040.382     72.57993      1.387     2.82     5.208852     20.45617     121.7367        15     0.993     0.896 -72.45   0
       139    968.0748    607.8970 300.2810878 +22.8480916     1033.465     72.65369      1.520     3.17     5.445567     20.45617     107.6356        17     1.122     0.937 -52.14   0
       140    633.4725    608.4314 300.1765783 +22.7480375     275.8152      72.5061      1.367     4.06     5.388558     20.45617      38.1579         5     1.179     0.400  52.50   0
       141     65.0916    605.2498 300.0007284 +22.5767489     1537.989     72.52457      2.095     4.87     4.794712     20.45617     118.2814        28     1.658     1.161 -66.69   0
       142    834.9544    605.7736 300.2402496 +22.8076223     498.6645     72.52457      1.410     4.11     5.065168     20.45617     61.25199        11     1.035     0.749 -67.56   0
       143    131.4368    605.5919 300.0212416 +22.5967443      515.673      72.5061      2.008     4.78     4.882557     20.45617     46.82851         6     1.129     0.574  67.44   0
       144    908.1622    600.8585 300.2646809 +22.8281305     710.9618     72.52457      1.548     4.43     5.370149     20.45617     66.88093        15     1.278     0.899 -84.96   2
       145    904.1274    600.3362 300.2635919 +22.8267723     540.3154     72.54303      1.989     5.01     5.357722     20.45617     35.94209         9     1.215     0.585 -26.15   3
       146    513.3651    602.3712 300.1411319 +22.7103101     408.7354     72.52457      1.258     3.05     5.352155     20.45617     57.97332         9     1.026     0.589   9.39   0
       147    306.1940    601.4807 300.0769311 +22.6479618     304.5176     72.43219      1.507     4.75     5.098814     20.45617     39.48527         7     1.138     0.596  24.22   0
       148    470.0482    594.7090 300.1301317 +22.6951289     766.0623     72.52457      1.496     3.61     5.375077     20.45617     77.44797        14     1.086     0.890 -55.97   0
       149    618.2141    593.1479 300.1767882 +22.7390755     394.3118     72.54303      1.347     2.56      5.45394     20.45617     58.18567         6     0.725     0.562  44.44   0
       150    635.4208    591.1624 300.1827945 +22.7436598     604.2192     72.52457      1.448     2.91     5.436964     20.45617     66.74307        10     0.897     0.770 -72.77   0
       151    665.0921    591.2447 300.1920138 +22.7525719     427.4858     72.48763      1.339     5.00      5.39263     20.45617     59.38719         9     0.976     0.725  21.99   0
       152    514.3078    590.2920 300.1453488 +22.7071231      1025.74     72.67213      1.545     3.27     5.431046     20.45617     88.13637        16     1.053     0.974 -38.70   0
       153    948.1508    586.0061 300.2819815 +22.8358331     3288.182     72.48763      1.557     3.32     5.434593     20.45617     274.3336        34     1.290     1.265  25.19   0
       154    479.7538    585.8206 300.1360406 +22.6954845     1572.599     72.56149      1.364     2.82     5.423538     20.45617     223.0948        18     1.008     0.960  24.89   0
       155    844.7277    583.3972 300.2505658 +22.8041172     248.5648     72.45068      1.282     4.00     5.060091     20.45617     36.79626         6     0.903     0.507  43.03   0
       156    817.6703    582.7208 300.2423473 +22.7958205     276.4709     72.61682      1.380     5.08     4.923777     20.45617      33.8046         7     0.915     0.797 -32.60   0
       157     41.7111    579.1412 300.0019408 +22.5622451     5119.807     72.57993      1.755     3.69     4.750658     20.45617     456.2119        38     1.390     1.354 -49.66   0
       158    987.4738    576.4609 300.2973525 +22.8448605     192.7238     72.54303      1.368     3.83     5.455991     20.45617     31.72177         6     1.004     0.419  17.22   0
       159    343.2117    572.3724 300.0979037 +22.6507008     9209.254      72.5061      1.465     2.75     5.442408     20.45617     1131.407        42     1.269     1.147  52.17   0
       160    465.6668    569.4868 300.1369590 +22.6865719     9219.733     72.61682      1.437     2.62     5.445925     20.45617     1176.657        38     1.182     1.148  73.34   0
       161    711.8271    566.1933 300.2147160 +22.7593722     351.9545      72.5061      1.435     2.28     5.167978     20.45617     59.33634         7     0.815     0.574  30.04   0
       162    877.3293    563.5714 300.2671735 +22.8081799     1949.688      72.5061      1.538     2.91     5.125944     20.45617     203.6129        22     1.157     1.036  66.89   0
       163    110.0657    565.5012 300.0276172 +22.5788301     280.8963     72.59838      1.358     3.33     4.898421     20.45617     33.58151         6     0.784     0.499  -3.51   0
       164    962.0875    561.0845 300.2944245 +22.8328399     12692.88     72.63526      1.533     3.09     5.442275     20.45617     1169.332        50     1.330     1.269 -60.80   0
       165    526.2499    559.1407 300.1591850 +22.7017534     11632.54     72.56149      1.355     2.61     5.678053     20.45617     1386.267        45     1.188     1.123  62.88   0
       166    695.9343    555.1685 300.2133427 +22.7514439     505.4006      72.5061      1.310     2.85     5.278995     20.45617     67.37022         8     0.801     0.667  42.04   0
       167    253.6351    554.3516 300.0758850 +22.6186754     1411.428     72.54303      1.493     3.43     4.903232     20.45617     169.1406        21     1.156     1.084  51.84   0
       168    412.3592    554.1294 300.1253499 +22.6661864     272.6239     72.46915      1.189     2.79     5.349085     20.45617     48.39046         5     0.853     0.517 -39.77   0
       169    500.8723    552.4478 300.1534551 +22.6922270     405.4387     72.48763      1.452     3.72     5.628702     20.45617     54.54215         9     1.011     0.768  -8.19   0
       170    800.8381    547.4848 300.2485420 +22.7806522     821.6909     72.48763      1.308     2.74     4.875619     20.45617      115.723        13     0.950     0.818  17.81   0
       171    457.9288    547.1827 300.1417928 +22.6778470     4344.629     72.52457      1.385     2.78     5.483886     20.45617     472.7016        29     1.140     1.071  46.13   0
       172    436.2920    545.6753 300.1355458 +22.6709304     1211.346     72.67213      1.362     2.76      5.40953     20.45617     159.6251        17     1.003     0.978  42.01   0
       173    190.5610    544.9397 300.0593229 +22.5970642     802.8123      72.5061      1.547     3.54     4.901649     20.45617     100.8322        15     1.178     0.917  22.18   0
       174    877.7986    542.9645 300.2740122 +22.8023963     1637.501     72.46915      1.469     3.25     5.044218     20.45617     148.3083        20     1.123     1.022 -40.32   0
       175    574.5687    534.8687 300.1821174 +22.7092566       205915     72.48763      1.401     2.55     5.804039     20.45617     28608.36       189     1.426     1.365 -16.22   0
       176    758.4207    539.9511 300.2377630 +22.7657846      904.297      72.5061      1.418     2.45      5.06306     20.45617     137.0175        15     1.014     0.916 -32.32   0
       177    398.5497    540.7690 300.1253897 +22.6582109     317.3571     72.54303      1.283     3.60     5.384831     20.45617      59.1729         6     1.088     0.440  44.98   0
       178    963.0187    536.7870 300.3026058 +22.8261322     151.1602     72.46915      1.560     4.74     5.415226     20.45617     23.19093         5     0.947     0.672  29.40   0
       179    260.5923    534.6679 300.0844408 +22.6151099     3467.922     72.48763      1.512     2.80     4.901288     20.45617      453.143        30     1.195     1.134  40.86   0
       180    826.3450    530.9777 300.2618566 +22.7835448     496.3963     72.52457      1.535     3.46     4.902828     20.45617     60.12565         9     0.998     0.609  35.43   0
       181    606.2465    521.4340 300.1963486 +22.7148861      150.996     72.54303      1.140     3.42     5.766874     20.45617     32.47416         5     0.731     0.463  18.09   0
       182    465.2496    515.2046 300.1544556 +22.6708554     2770.299     72.48763      1.420     2.52     5.413748     20.45617     291.3395        22     1.048     0.996  61.52   2
       183    309.8297    517.4443 300.1053519 +22.6249230     427.1528     72.54303      1.391     4.75     5.080732     20.45617     53.12964        10     0.979     0.787 -86.71   0
       184    914.5141    515.5340 300.2943731 +22.8055014     231.6036     72.61682      1.251     4.50     5.147872     20.45617       36.216         6     0.930     0.714   6.38   0
       185    876.8146    511.7870 300.2838292 +22.7931382     341.8665     72.43219      1.468     4.12     4.968331     20.45617     52.48844         7     1.202     0.404   3.33   0
       186    894.8754    506.9704 300.2910271 +22.7971602     161.9316      72.5061      1.286     3.91     5.022072     20.45617     40.20965         5     1.079     0.605  -2.40   0
       187    782.4922    504.0336 300.2569309 +22.7626689     452.1031     72.45068      1.208     3.12     5.004322     20.45617     54.00642         6     1.037     0.430 -16.19   0
       188    862.1889    501.4649 300.2826188 +22.7857919     1782.967     72.43219      1.508     2.75     4.906743     20.45617     224.2423        23     1.183     1.061 -32.17   0
       189    749.1793    501.2262 300.2474561 +22.7518867     443.2601     72.48763      1.882     4.88     5.222943     20.45617     38.39756         7     1.130     0.596 -33.88   0
       190    733.4063    499.0974 300.2432302 +22.7465516     2560.664      72.4137      1.312     2.57     5.324112     20.45617      305.142        21     1.040     0.968 -85.83   0
       191    978.0791    496.6979 300.3203229 +22.8191119     484.5592     72.63526      1.544     4.16     5.368262     20.45617     58.55076         8     1.109     0.644 -15.39   2
       192    976.1199    492.5524 300.3210575 +22.8173333     852.4885     72.52457      1.878     3.98     5.348307     20.45617      61.8148        12     1.003     0.969 -72.64   2
       193    638.2060    495.5566 300.2147086 +22.7170230     400.0133     72.52457      1.306     3.07     5.712669     20.45617     64.03702        10     0.856     0.831 -70.21   0
       194    520.5800    495.0556 300.1782278 +22.6816445     499.3488     72.48763      1.273     2.55     5.696055     20.45617     77.86285         8     0.805     0.657 -38.63   0
       195    990.7383    493.1735 300.3254179 +22.8218872     1221.086      72.5061      1.547     3.02     5.446228     20.45617     128.3428        20     1.188     1.077  89.08   0
       196    862.3525    491.4448 300.2859231 +22.7829600     2361.876     72.52457      1.782     4.31     4.896994     20.45617     236.0759        29     1.605     1.108  77.58   0
       197    615.7985    489.6091 300.2096576 +22.7086025     729.4547     72.32118      1.631     2.56     5.822528     20.45617     79.20347        10     0.882     0.711  87.02   0
       198    900.6342    486.6651 300.2994164 +22.7930457     4423.083      72.5061      1.495     2.66     4.951875     20.45617     528.2198        31     1.164     1.116 -54.68   0
       199    454.2438    488.9258 300.1595607 +22.6600092     491.2667     72.48763      1.473     5.27     5.295443     20.45617      67.9629         8     1.108     0.708 -85.83   0
       200    638.6028    483.1896 300.2188473 +22.7135879     158.9901     72.32118      1.155     3.40     5.750358     20.45617     35.07433         5     0.743     0.449 -70.89   0
       201    561.1352    482.5774 300.1949107 +22.6902083     318.2498     72.48763      1.195     3.06      5.87601     20.45617      56.6577         6     0.790     0.494  -1.32   0
       202    992.4819    477.3225 300.3311084 +22.8178503     748.8004     72.61682      1.420     3.12     5.458552     20.45617     78.06814        13     1.055     0.778 -31.30   0
       203    132.6522    476.5617 300.0635154 +22.5600742     1063.978     72.52457      1.719     3.01     4.927776     20.45617     127.4692        17     1.166     0.999  38.84   0
       204    793.8152    470.4330 300.2713704 +22.7564000     390.2215     72.48763      1.202     2.86     4.947378     20.45617     71.26998         6     0.959     0.516  66.61   0
       205    399.0173    470.1140 300.1484746 +22.6380580     220.6839     72.45068      1.130     3.65     5.219057     20.45617     37.71597         5     0.622     0.616 -73.87   0
       206    125.1781    466.9492 300.0643118 +22.5550741     474.7368      72.5061      1.259     2.52     4.946844     20.45617     69.26015         7     0.843     0.541 -35.39   0
       207    988.1706    466.1155 300.3334013 +22.8133368     275.4479      72.5061      1.390     2.16     5.446717     20.45617     39.09316         5     0.898     0.710 -89.95   0
       208    732.9247    461.1462 300.2554009 +22.7354987     378.3913     72.54303      1.215     2.87     5.337929     20.45617     56.65969         8     0.818     0.641  32.62   0
       209    621.8375    458.7749 300.2215492 +22.7015503      405.825     72.52457      1.315     4.86     5.764067     20.45617      48.7697         8     1.127     0.610  45.72   0
       210    674.2570    456.9451 300.2384781 +22.7167232     637.4439     72.56149      1.246     2.48     5.561007     20.45617     102.0317        12     0.888     0.799 -11.76   0
       211    988.6891    449.7608 300.3388724 +22.8087882     498.6491     72.48763      1.259     3.03     5.483366     20.45617     76.50177         7     1.002     0.437  25.76   0
       212    734.6526    449.2522 300.2598006 +22.7325971     818.4407     72.54303      1.365     3.65     5.297367     20.45617     110.7962        14     1.144     0.820  73.86   0
       213    892.1772    445.5945 300.3101113 +22.7787043     1122.882     72.48763      1.544     2.69     4.963316     20.45617     124.3113        15     0.970     0.933 -57.97   0
       214    876.4392    441.9456 300.3063864 +22.7729442     691.0662      72.5061      1.386     3.02     4.944283     20.45617     73.20841        13     0.971     0.855   4.81   0
       215    856.7872    441.8613 300.3002840 +22.7670374     327.0875     72.46915      1.367     3.17     4.927298     20.45617     41.24301         5     0.717     0.692 -67.26   0
       216    620.6577    439.7757 300.2273487 +22.6957368     3462.442      72.5061      1.397     2.52     5.714927     20.45617     473.3409        28     1.159     1.033  75.11   0
       217    981.2676    438.8222 300.3401071 +22.8034210     482.7959      72.5061      1.582     3.23     5.440206     20.45617     63.80017        13     1.101     0.901  24.61   0
       218     96.8039    431.3230 300.0670539 +22.5363404     412.0837      72.4137      1.605     3.81     4.926623     20.45617     38.98944         8     0.913     0.644  10.19   0
       219    392.1268    427.4930 300.1601640 +22.6237506     357.1649     72.63526      1.408     3.13     5.247831     20.45617     40.51357         6     0.780     0.498   4.56   0
       220    460.7757    426.5960 300.1818271 +22.6440599     337.9315     72.46915      1.225     2.63     5.186774     20.45617     68.99586         6     0.884     0.488   3.95   0
       221    903.8090    418.9330 300.3223941 +22.7745187     588.3047      72.5061      1.310     2.35     5.022518     20.45617     95.07793        10     0.891     0.678  23.22   0
       222    990.3188    417.8065 300.3497533 +22.8000849     926.2126     72.43219      1.586     3.33     5.548722     20.45617       97.365        15     1.041     0.963  52.16   0
       223    731.2299    413.7559 300.2702551 +22.7213681     1127.186     72.54303      1.290     2.46     5.230636     20.45617      149.253        14     0.916     0.856  74.31   0
       224    526.9821    414.2236 300.2064602 +22.6603372     445.3153      72.5061      1.403     2.66     5.531637     20.45617     62.00489         8     0.788     0.729  -5.13   0
       225    235.2402    411.6885 300.1164752 +22.5721989     707.9989     72.48763      1.557     3.12     5.252814     20.45617      72.8466        13     0.997     0.873 -14.34   0
       226    297.5542    407.4715 300.1372299 +22.5896621     3843.096     72.48763      1.449     2.43     5.377855     20.45617     558.6425        29     1.142     1.110  16.02   0
       227    244.7599    402.2811 300.1224894 +22.5723503     7700.976     72.46915      1.460     2.80     5.299688     20.45617     911.8376        39     1.261     1.132  54.77   0
       228   1010.7325    397.3686 300.3627579 +22.8003143     1770.369      72.5061      1.475     2.84     5.725696     20.45617      214.076        23     1.178     1.054  27.73   0
       229    385.5474    396.5153 300.1681696 +22.6128805     4905.292     72.54303      1.403     2.41     5.266245     20.45617     685.3346        32     1.200     1.059  71.06   0
       230    629.7990    393.3211 300.2452743 +22.6851227     18791.39      72.3952      1.323     2.40     5.503616     20.45617     2745.366        51     1.224     1.108  65.06   0
       231    647.3532    393.5781 300.2506610 +22.6904532     822.8321     72.54303      1.851     6.00     5.494956     20.45617     62.57483        13     1.465     0.691 -34.55   0
       232    486.4242    389.8025 300.2017546 +22.6411715     348.0022     72.45068      1.447     3.41     5.203139     20.45617     26.12989         5     0.755     0.446 -69.45   0
       233    873.7286    389.3729 300.3226044 +22.7570145     260.5453     72.48763      1.249     3.04     4.962556     20.45617     42.27807         5     0.849     0.593 -47.81   0
       234    826.7396    383.7694 300.3097671 +22.7413387    -65.59999     72.54303      1.353     3.63     5.053755     20.45617      55.3515         9     0.986     0.734  -1.05   0
       235    250.2303    380.3446 300.1313096 +22.5676897      364.086     72.52457      1.312     4.22     5.355052     20.45617     42.42611         7     1.003     0.539 -25.62   0
       236    963.8658    375.7808 300.3551375 +22.7800805     832.7864     72.46915      1.709     5.15     5.312063     20.45617      80.3713        17     1.403     0.965 -39.22   0
       237    500.5021    375.1694 300.2108872 +22.6411833     406.9297     72.45068      1.322     2.75     5.260404     20.45617     58.35728         5     0.739     0.459 -70.07   0
       238    673.2269    374.5052 300.2649138 +22.6927178     260.8882     72.43219      1.242     2.37     5.475211     20.45617     48.46119         5     0.704     0.465  20.42   0
       239    184.4893    373.3185 300.1131413 +22.5459700     2126.479     72.61682      1.573     2.99     5.370278     20.45617      248.663        21     1.138     1.065 -76.76   0
       240    570.4874    362.7817 300.2367054 +22.6585835     6661.445     72.45068      1.332     2.34     5.339759     20.45617     933.7368        35     1.163     1.083  89.94   0
       241    840.3455    365.3123 300.3200000 +22.7401034     380.6258     72.54303      2.654     5.01      5.05777     20.45617     27.68509         6     0.954     0.744  14.27   0
       242    984.2623    363.5137 300.3654834 +22.7826549     1121.985     72.61682      1.415     2.61     5.489611     20.45617     130.7506        15     0.956     0.837 -28.97   0
       243    285.1943    362.0598 300.1481202 +22.5729151     769.3702     72.46915      1.433     3.14     5.384427     20.45617      83.3313        12     0.925     0.890 -27.37   0
       244    142.9757    355.3739 300.1060543 +22.5283750      478.459     72.46915      1.370     3.59     5.448621     20.45617     58.46215        10     0.994     0.705  37.56   0
       245    774.6724    351.9335 300.3038616 +22.7165987     1171.468     72.54303      1.369     2.62     5.282841     20.45617     153.3609        15     1.066     0.819  78.58   0
       246    684.0911    352.7122 300.2753714 +22.6897056     554.4689     72.67213      1.404     3.57     5.443077     20.45617      65.0752        10     1.001     0.671  60.88   0
       247    477.0760    348.9873 300.2120876 +22.6266430     6333.514     72.52457      1.346     2.59     5.189664     20.45617      798.906        31     1.142     1.049  86.96   0
       248    966.4313    343.8345 300.3663045 +22.7716583     690.6608     72.52457      1.682     3.68     5.328262     20.45617     65.65614        14     1.138     0.862  51.63   0
       249    869.0911    343.5114 300.3360400 +22.7424368     1365.004     72.67212      1.338     2.48      4.99963     20.45617     216.8642        17     1.003     0.941  26.73   0
       250    461.7093    337.8278 300.2109233 +22.6188336     511.7391     72.48763      1.358     2.35     5.202879     20.45617     62.85065         8     0.747     0.674 -32.35   0
       251    544.2351    335.4897 300.2373830 +22.6428776     442.1225     72.48763      1.219     3.21     5.302745     20.45617     67.87947         8     0.990     0.589  56.96   0
       252    822.1807    334.2119 300.3244262 +22.7257226     226.2695     72.46915      1.405     4.55     5.208726     20.45617      26.9771         6     0.939     0.626 -66.56   0
       253    524.8387    333.6032 300.2319535 +22.6365267     247.8533     72.54303      1.276     2.38     5.272202     20.45617     41.50876         5     0.709     0.450  20.55   0
       254    841.9319    331.6155 300.3314286 +22.7308872     479.5744      72.5061      1.195     2.57     5.142119     20.45617     70.18633         9     0.804     0.707 -59.75   0
       255    364.6888    328.1348 300.1838647 +22.5869864     2699.179     72.61682      1.411     2.55     5.316807     20.45617     323.9345        25     1.116     1.052  71.15   0
       256     83.0590    325.5225 300.0971107 +22.5018448     1014.383     72.54303      1.547     3.72     5.576434     20.45617     102.1738        17     1.120     0.989  32.34   0
       257    333.9710    317.5748 300.1777305 +22.5747502     30367.12      72.5061      1.414     2.60     5.361047     20.45617     4061.884        66     1.305     1.185  61.80   0
       258    868.6195    315.4673 300.3449918 +22.7342296     1399.093     72.46915      1.361     2.35     5.149389     20.45617     196.7588        19     1.094     0.976 -31.31   0
       259    823.9762    313.1255 300.3318275 +22.7201956     247.5455     72.54303      1.119     2.81      5.24214     20.45617     48.17274         5     0.751     0.621  -0.98   0
       260     30.2309    305.2500 300.0872666 +22.4801892     5032.949     72.54303      1.689     3.26     5.474227     20.45617     567.9915        41     1.456     1.287  57.55   0
       261    784.1398    304.4327 300.3222250 +22.7057728     412.7173     72.54303      1.083     2.53     5.276859     20.45617     71.15915         8     0.856     0.598  13.11   0
       262    432.6488    303.0878 300.2131454 +22.6001465     583.8832      72.5061      1.246     2.14     5.265466     20.45617     92.77385         7     0.796     0.556 -13.53   0
       263    744.5052    297.5695 300.3120940 +22.6919360     1971.961      72.4137      1.332     2.13     5.242781     20.45617     269.7632        18     0.977     0.950  61.09   0
       264    552.6641    291.9501 300.2541334 +22.6328871     407.8699     72.56149      1.179     2.69     5.294829     20.45617     60.19545         7     0.811     0.607  13.29   0
       265    959.4654    290.6238 300.3813944 +22.7542660     521.4821     72.48763      1.337     2.72     5.396492     20.45617      79.8498        12     0.937     0.832 -29.91   0
       266    406.1935    281.9182 300.2117764 +22.5861393     2192.669     72.43219      1.523     3.34     5.306104     20.45617     218.4544        23     1.355     0.918  66.36   0
       267    618.7740    280.7722 300.2783555 +22.6494678     254.7759     72.46915      1.488     2.82     5.225674     20.45617      41.3652         6     0.719     0.623 -63.83   0
       268    845.3076    275.0730 300.3508246 +22.7156345     532.1956     72.63526      1.260     2.96     5.317958     20.45617     80.57277        10     0.889     0.776  34.74   0
       269    745.0146    272.7326 300.3203095 +22.6849460     254.5042     72.48763      1.242     3.75     5.285304     20.45617     40.85158         6     0.859     0.624 -37.05   0
       270    727.7814    272.8998 300.3148828 +22.6798360     343.5089      72.4137      1.078     2.34     5.270272     20.45617     86.30844         6     0.925     0.507 -59.55   0
       271    520.1800    267.0323 300.2520978 +22.6159976     187.4722      72.5061      1.474     4.18     5.284529     20.45617      26.2389         5     1.394     0.358 -84.09   0
       272    481.9921    261.3087 300.2420613 +22.6029171      1252.39      72.4137      1.357     2.85      5.25868     20.45617      170.942        18     1.061     0.923  79.09   0
       273    289.3731    261.8004 300.1819443 +22.5453658      255.019     72.46915      1.026     2.06     5.401404     20.45617     52.99275         5     0.674     0.465 -74.19   0
       274    196.5147    261.8369 300.1530459 +22.5175558     364.5661     72.48763      1.868     5.56     5.612928     20.45617     37.39131         6     1.140     0.782  63.56   0
       275    567.4073    259.1613 300.2693615 +22.6278759     129.9989     72.52457      1.017     2.44     5.278165     20.45617     37.23743         5     0.714     0.446  68.31   0
       276    993.4559    257.9103 300.4026136 +22.7550223     346.1626     72.54303      1.307     2.83     5.510768     20.45617     45.92118         7     0.846     0.580 -12.69   0
       277    888.2679    254.3276 300.3709541 +22.7225217     204.1611     72.56149      1.283     2.35     5.378574     20.45617     38.93272         5     0.785     0.632  46.47   0
       278    726.9672    253.2983 300.3209868 +22.6739553     2249.873     72.48763      1.357     2.55      5.32404     20.45617     315.6526        24     1.109     1.014 -78.94   0
       279    988.2932    247.8146 300.4042769 +22.7505728     3243.834     72.43219      1.537     3.01      5.49943     20.45617     351.1965        31     1.218     1.179  72.46   0
       280    534.7218    246.4516 300.2633021 +22.6144358     324.9635      72.5061      1.190     2.79     5.298822     20.45617     39.93727         5     0.704     0.488 -10.92   0
       281    435.0609    237.0261 300.2353234 +22.5818836      588.449      72.5061      1.331     3.07     5.284451     20.45617     79.60001        10     0.866     0.770  77.28   0
       282    140.8590    231.1387 300.1456935 +22.4920617     668.8169     72.56149      1.469     4.01     5.895997     20.45617     71.01028        11     1.099     0.871 -63.60   0
       283    110.1947    231.2153 300.1361344 +22.4828951      1280.02      72.3952      1.658     3.91     5.910318     20.45617     113.7472        20     1.268     1.066 -44.15   0
       284   1004.2695    228.7314 300.4154525 +22.7498604     595.4016     72.56149      1.699     3.21     5.499428     20.45617     67.47697         8     0.848     0.692  88.36   0
       285    847.6577    225.0675 300.3677765 +22.7019532     428.0262     72.54303      1.559     4.26      5.43267     20.45617     40.60799         6     1.040     0.498  39.90   0
       286    194.1030    223.3590 300.1647742 +22.5057802     566.0681     72.52457      1.381     3.78     5.842462     20.45617     61.05581         9     1.074     0.563 -13.59   0
       287    989.0176    220.7894 300.4132680 +22.7430128     335.0447     72.46915      1.231     4.47     5.496836     20.45617     42.53581         7     1.057     0.537  56.77   0
       288     49.9944    219.9041 300.1210883 +22.4616062     325.5248      72.4137      1.356     4.01     5.882775     20.45617     46.03299         6     1.030     0.507 -79.37   0
       289    870.1370    217.3465 300.3772921 +22.7064578     249.5799     72.56149      1.221     4.39     5.436716     20.45617     40.83952         7     1.171     0.467   4.79   0
       290    798.5322    214.7099 300.3558147 +22.6842740     686.3215     72.65369      1.337     2.87     5.425166     20.45617     95.14403        12     0.996     0.772 -69.11   0
       291    389.0923    214.2108 300.2284115 +22.5615598     368.9674     72.45068      1.320     3.62     5.266541     20.45617     50.51194         8     0.804     0.705 -51.97   0
       292    935.1234    208.0725 300.4005739 +22.7232317     273.0813     72.57993      1.578     4.04     5.498116     20.45617     41.65999         6     1.038     0.665 -30.10   0
       293    889.0524    208.2354 300.3861474 +22.7094958      374.686     72.52457      1.464     2.45     5.455693     20.45617     49.65787         7     0.719     0.646 -15.57   0
       294    896.8688    203.8519 300.3900073 +22.7105730     2142.032     72.48763      1.485     2.99     5.464129     20.45617     230.9286        23     1.131     1.039 -69.36   0
       295    315.2348    200.8156 300.2097682 +22.5355898      2189.86      72.5061      1.475     3.05     5.292185     20.45617     289.7064        26     1.290     1.020  85.18   0
       296    393.1624    196.3038 300.2354850 +22.5576322     1108.301      72.5061      1.437     2.55     5.276231     20.45617     128.6586        17     1.051     0.966 -50.82   0
       297    144.3314    196.5345 300.1579938 +22.4831625     548.7302     72.56149      2.046     6.53     5.896594     20.45617     41.21067        11     1.623     0.737 -20.99   0
       298    795.3413    195.7279 300.3609751 +22.6778589     550.6772     72.54303      1.127     2.16     5.406336     20.45617      100.977         7     0.815     0.491 -24.88   0
       299    210.0202    188.1388 300.1811450 +22.5004307     724.4487     72.46915      1.469     3.08     5.743079     20.45617     81.05896        12     0.965     0.817  52.90   0
       300    328.1819    188.1408 300.2179069 +22.5358254     376.8891     72.46915      1.763     4.34     5.278192     20.45617      37.8938         5     0.848     0.631  57.59   0
       301    747.7738    185.2292 300.3495477 +22.6606048     1815.996      72.5061      1.422     2.88     5.322239     20.45617     262.8729        21     1.154     0.962  79.18   0
       302    812.4821    185.2582 300.3697152 +22.6799759     646.7086     72.57993      1.557     3.48     5.409567     20.45617     95.09333        12     1.086     0.801  -4.09   0
       303    231.4740    181.5701 300.1899480 +22.5049703     514.8386     72.52457      1.414     3.57     5.654858     20.45617     77.71994        11     1.086     0.876  -8.71   0
       304   1019.5339    178.0302 300.4366585 +22.7398345     891.3049      72.5061      1.538     3.16     5.523902     20.45617     94.34119        15     1.128     0.835 -27.46  16
       305    521.6892    177.7030 300.2815363 +22.5907697     247.7058     72.69054      1.422     3.95     5.300576     20.45617     36.71035         6     0.890     0.501 -43.85   0
       306    752.0283    176.7119 300.3536358 +22.6594280     845.5204     72.48763      1.397     2.70     5.307722     20.45617     101.7382        12     0.937     0.776  57.43   0
       307    672.4706    175.6704 300.3291737 +22.6353196     1307.445     72.59838      1.410     2.74     5.226669     20.45617     167.5376        18     1.191     0.873  82.79   0
       308    493.3967    172.0687 300.2745515 +22.5806794     483.6854     72.48763      1.329     2.96     5.299447     20.45617     53.75146         7     0.749     0.647 -78.56   0
       309    868.0380    167.6504 300.3927520 +22.6915317     1591.338      72.5061      1.498     3.04     5.429223     20.45617     204.7399        25     1.304     1.207  70.55   0
       310    598.5800    167.5021 300.3087963 +22.6108543     988.7808     72.43219      1.413     3.18     5.239773     20.45617     133.2325        16     1.148     0.819  74.97   0
       311    879.8640    166.7425 300.3967354 +22.6948084     922.4146     72.56149      1.333     2.67     5.443813     20.45617     114.5781        13     0.929     0.825 -89.57   0
       312    996.6857    156.8947 300.4363799 +22.7269180     1120.256     72.69054      1.581     3.48     5.564505     20.45617     122.7939        19     1.135     1.116  58.52   0
       313     20.3615    153.3858 300.1334444 +22.4336226     563.0043     72.52457      1.665     3.77     5.924078     20.45617     66.25237         8     1.126     0.763 -71.13   0
       314    230.4518    149.4605 300.2000398 +22.4954381     874.6232     72.56149      1.789     3.71     5.594252     20.45617     112.3771        15     1.377     1.006  52.21   0
       315     92.4928    144.3513 300.1587939 +22.4526410     2272.968     72.54303      1.692     3.19     5.821869     20.45617     277.3253        24     1.307     1.091  57.16   0
       316    915.6244    142.1476 300.4158656 +22.6984284     645.4018     72.52457      1.250     2.71     5.649602     20.45617     100.8739        11     0.929     0.775  41.38   0
       317     41.8164    141.6984 300.1439011 +22.4366949     519.7933      72.4137      1.659     4.59     5.945928     20.45617     46.57719         8     1.048     0.571 -17.07   0
       318    249.9312    137.8104 300.2098761 +22.4979252     5551.604     72.48763      1.480     2.79     5.484257     20.45617     686.7393        32     1.231     1.114  70.01   0
       319    113.7715    149.3919 300.1637754 +22.4604643     295.0022      72.5061      1.862     3.77     5.815594     20.45617     30.32177         5     1.002     0.408  83.82   0
       320     34.0969    132.3325 300.1445377 +22.4316917     1145.698     72.61682      1.562     3.10     6.019164     20.45617     123.8495        23     1.259     1.077  27.12   0
       321    233.2179    128.6846 300.2076350 +22.4902969     663.8927     72.46915      1.460     2.94     5.530157     20.45617     87.69054        12     1.082     0.759   3.52   0
       322    894.1179    119.6313 300.4164553 +22.6855158     3547.547      72.5061      1.461     2.80     5.720225     20.45617     471.6155        30     1.228     1.122  78.02   0
       323    997.8693    118.4275 300.4492201 +22.7162000     2659.655      72.5061      1.508     2.70     5.931514     20.45617     343.4627        27     1.196     1.149 -71.60   0
       324    196.8759    115.5637 300.2005837 +22.4756411     374.4187     72.46915      1.240     2.86     5.561378     20.45617     55.54498         7     0.864     0.555  77.53   0
       325    443.5051    114.7480 300.2775977 +22.5492630     586.4865     72.57993      1.102     2.58      5.31807     20.45617     116.3939         8     0.841     0.679 -70.92   0
       326    558.0804    112.7656 300.3139234 +22.5829916     325.9937     72.45068      1.394     3.81     5.355758     20.45617     35.92858         5     0.811     0.513  50.18   0
       327    367.8345    106.4705 300.2567236 +22.5242270     695.1703      72.5061      1.695     2.51     5.286635     20.45617     81.11671         9     0.886     0.676 -88.51   0
       328    371.8795    105.1571 300.2584084 +22.5250606     398.5226     72.48763      1.387     3.12     5.288048     20.45617     56.39107         7     0.827     0.672 -43.50   0
       329    133.5638    103.8617 300.1846874 +22.4533137     686.6042     72.52457      1.521     3.67     5.606939     20.45617         86.6        10     1.181     0.547 -21.45   0
       330    494.8698    101.9776 300.2977317 +22.5609684     1631.484     72.52457      1.357     2.59     5.351027     20.45617     225.1193        19     1.058     0.959  63.63   0
       331    423.1621    102.9545 300.2750865 +22.5397820     508.3311     72.56149      1.495     4.39     5.306378     20.45617      56.3468         7     1.044     0.525 -28.50   0
       332    556.7509    100.9669 300.3173336 +22.5792008     515.4313     72.54303      1.511     3.94     5.371302     20.45617     65.74358        10     1.283     0.665 -29.05   0
       333    238.3613     97.1557 300.2194542 +22.4827771      477.884     72.57993      1.649     5.13      5.44354     20.45617     40.36206         9     1.060     0.744  62.08   0
       334    783.3260     91.6306 300.3909760 +22.6443159     318.5381     72.52457      1.279     3.77     5.453315     20.45617     42.90612         7     0.971     0.470   7.30   0
       335    929.3270     86.1229 300.4383018 +22.6864032     275.6407     72.59838      1.268     3.52     6.134624     20.45617     45.89683         7     0.957     0.664  23.92   0
       336    775.6362     82.6827 300.3914783 +22.6394408     365.9847     72.48763      1.110     2.81     5.503078     20.45617     62.39092         6     0.838     0.472 -39.25   0
       337    732.7228     82.8301 300.3780509 +22.6266443     336.0077     72.48763      3.022     4.06     5.489802     20.45617     30.22466         5     0.724     0.711  70.33   0
       338    268.9008     81.6237 300.2339891 +22.4874595     6141.717     72.45068      1.541     2.92     5.415433     20.45617     759.7391        37     1.337     1.146  55.22   0
       339    898.2902     79.6465 300.4307175 +22.6752567     338.4131     72.48763      1.139     2.79     5.966439     20.45617     45.62405         5     0.716     0.458 -14.34   0
       340    240.3095     75.4706 300.2270882 +22.4771287     394.6733     72.67213      1.471     3.45     5.447828     20.45617     35.76627         5     0.748     0.461  19.07   0
       341    120.1916     81.1930 300.1878763 +22.4427950     830.7755      72.3582      1.773     3.23     5.563576     20.45617     86.54348        12     1.062     0.732  51.70   0
       342     30.6697     72.4968 300.1628652 +22.4134775     387.6728     72.63526      1.689     3.23     6.231852     20.45617     60.54739         5     0.929     0.451 -15.39   0
       343    515.0093     67.0729 300.3153166 +22.5569600     6330.328      72.5061      1.388     2.89     5.373438     20.45617     810.6771        34     1.236     1.062  79.12   0
       344    400.3335     66.7072 300.2797271 +22.5225265     732.1573     72.65369      1.650     3.14     5.341436     20.45617     95.87456        11     1.021     0.717  67.67   0
       345    572.0125     61.5974 300.3348475 +22.5724462     315.7171     72.33969      1.397     3.70     5.465776     20.45617      41.9135         6     0.809     0.487   5.10   0
       346    708.8492     58.6442 300.3784470 +22.6125433      265.657     72.54303      1.198     1.81     5.598254     20.45617     51.16199         5     0.679     0.442  20.90   0
       347    767.5001     56.7217 300.3973551 +22.6295371     857.2307     72.63526      1.618     4.37     5.642889     20.45617     101.7074        15     1.430     0.852  63.71   0
       348    208.2470     51.1029 300.2250111 +22.4605234     528.9715     72.54303      1.426     3.14       5.4609     20.45617     58.65528         9     0.983     0.638  44.78   0
       349    566.4755     49.5805 300.3370168 +22.5673329     529.8555      72.5061      1.539     2.53     5.457305     20.45617     60.97343         8     0.769     0.743 -25.80   0
       350    643.3979     47.2147 300.3617511 +22.5896715     6290.997     72.33969      1.363     2.52     5.666354     20.45617     827.7499        35     1.284     1.043  80.76   0
       351    418.3055     46.2520 300.2919508 +22.5220258     1495.081     72.57993      1.413     2.82     5.360525     20.45617     172.4569        19     1.047     0.990 -65.98   0
       352    684.4269     44.9025 300.3752876 +22.6012828     843.4188     72.46915      1.275     1.80     5.668373     20.45617     130.6064        13     0.905     0.843   4.66   0
       353    859.1620     55.8381 300.4262275 +22.6567016     636.0194     72.57993      1.417     3.11     5.948485     20.45617     196.4591         9     1.174     0.915  24.10   0
       354    700.4349     41.0928 300.3815118 +22.6049763     769.5439     72.45068      1.638     2.14     5.693783     20.45617     91.16273         9     0.838     0.620 -15.72   0
       355    167.1380     38.8889 300.2161832 +22.4447014     631.1693     72.59838      1.368     3.24     5.446012     20.45617     81.84383        12     0.945     0.902  -4.52   0
       356     14.5595     39.3826 300.1685884 +22.3991384     281.3816     72.52457      1.282     4.32     6.424045     20.45617     46.65508         7     1.211     0.651  31.15   0
       357    970.3337     38.3289 300.4665872 +22.6849090     592.3788     72.54303      1.392     4.79     6.159214     20.45617     63.36215         8     1.133     0.575  77.97   0
       358    738.9420     36.1165 300.3951285 +22.6150649     422.8868     72.59838      1.228     2.56     5.725535     20.45617     69.52611         9     0.783     0.734 -72.30   0
       359    702.7006     31.1520 300.3854393 +22.6027941     994.5972     72.54303      1.791     4.33      5.74898     20.45617     92.22391        16     1.476     0.777  52.48   0
       360    687.6694     32.1716 300.3804236 +22.5985903     2660.247      72.5061      1.347     2.48     5.743758     20.45617     372.6061        25     1.193     1.003  76.97   0
       361    328.5181     32.8906 300.2683321 +22.4913035     478.5279     72.61682      1.321     2.91     5.447762     20.45617      76.9743         8     0.920     0.616 -54.69   0
       362    774.0971     23.7548 300.4100951 +22.6220244     1665.415     72.52457      1.471     2.98     5.830807     20.45617     194.4954        20     1.264     0.911  70.17   0
       363    711.9648     16.9742 300.3929211 +22.6014865     598.6741     72.52457      1.303     2.87     5.823211     20.45617     101.9149        13     1.034     0.773  19.91   0
       364    178.1760   1018.7495 299.9014705 +22.7292832     513.3071     72.52457      1.704     5.16     97.14012     20.45617     33.52347         8     1.274     0.590  38.94  16
       365     90.5911     16.2145 300.1997282 +22.4152586     657.2689      72.4137      2.043     3.62     5.456948     20.45617     70.30847        11     1.013     0.872  -6.62   0
       366    316.7464   1012.8605 299.9464871 +22.7691755     1954.028     72.56149      5.763     5.93     5.743489     20.45617     90.19518        36     1.724     1.514 -13.28  16
       367    172.4031   1013.7711 299.9012951 +22.7261231     664.5856     72.46915      0.844     4.62     93.46396     20.45617     28.35139         5     1.367     0.444 -59.32   0
       368    152.6111   1012.6689 299.8955000 +22.7198671     371.8611     72.52457      2.350     3.53     92.86584     20.45617     47.71412         5     1.082     0.332 -45.78   3
       369    152.3179   1008.8105 299.8966641 +22.7186728     1778.928     72.46915      3.817    15.89      89.6199     20.45617      61.3288        56     3.937     1.782  -9.29  19
       370    194.7160    991.5319 299.9154683 +22.7264422      1754.47     72.61682      6.884    14.72     73.23618     20.45617     52.59188        49     3.353     1.796 -60.22   3
