#   1 NUMBER                 Running object number                                     
#   2 X_IMAGE                Object position along x                                    [pixel]
#   3 Y_IMAGE                Object position along y                                    [pixel]
#   4 ALPHA_J2000            Right ascension of barycenter (J2000)                      [deg]
#   5 DELTA_J2000            Declination of barycenter (J2000)                          [deg]
#   6 FLUX_APER              Flux vector within fixed circular aperture(s)              [count]
#   7 FLUXERR_APER           RMS error vector for aperture flux(es)                     [count]
#   8 FLUX_RADIUS            Fraction-of-light radii                                    [pixel]
#   9 FWHM_IMAGE             FWHM assuming a gaussian core                              [pixel]
#  10 BACKGROUND             Background at centroid position                            [count]
#  11 THRESHOLD              Detection threshold above background                       [count]
#  12 FLUX_MAX               Peak flux above background                                 [count]
#  13 ISOAREA_IMAGE          Isophotal area above Analysis threshold                    [pixel**2]
#  14 A_IMAGE                Profile RMS along major axis                               [pixel]
#  15 B_IMAGE                Profile RMS along minor axis                               [pixel]
#  16 THETA_IMAGE            Position angle (CCW/x)                                     [deg]
#  17 FLAGS                  Extraction flags                                          
         1    483.3123     15.6749 300.3325096 +22.5433043     860.3889     72.42919      1.300     3.07     6.778063     20.39814     102.9677        15     1.033     0.880  36.65   8
         2    387.1375     13.6262 300.3032179 +22.5139395     661.5406     72.30039      1.366     2.52     6.452219     20.39814     99.70713        11     0.930     0.719 -67.43   0
         3    768.9826     12.3138 300.4226492 +22.6277775     446.7382     72.24512      1.511     3.73     5.973346     20.39814     44.92021         7     0.861     0.571  22.47   0
         4    158.4986      3.4567 300.2353483 +22.4425858     3694.068     66.88599      1.725     2.99     6.259723     20.39814     377.9271        36     1.408     1.266  29.13  24
         5    726.4146      4.3733 300.4119448 +22.6127642      621.604     69.99861      1.466     4.17     6.086367     20.39814      86.8532        12     1.225     0.847  25.65  16
         6     56.3881     15.5490 300.1996727 +22.4154896     525.3142     72.31881      1.690     3.98     6.413803     20.39814     54.48683         8     1.091     0.563 -36.99   0
         7     72.7601   1010.6707 299.8817705 +22.7060081      5767.55     72.26355     16.850    81.86     72.47799     20.39814     176.3695      2367    17.401    15.028  54.14  27
         8     64.5022    953.5326 299.8977848 +22.6871487     5518.675     72.39241     29.507   120.79     32.91919     20.39814     1295.681      4419    23.461    17.256 -61.94  19
         9    342.4517    997.9144 299.9698199 +22.7832466     770.2299     72.31881      4.607     8.90     5.139301     20.39814     40.38384        16     2.171     1.018 -35.07   0
        10    186.7771    985.4576 299.9254289 +22.7329841     4016.991     72.30039      8.990    21.29     67.48491     20.39814     80.67273       261     5.082     4.400 -43.28   3
        11    205.4075    985.0966 299.9313419 +22.7384688     4676.335     72.18981      8.490    26.41      65.6881     20.39814     85.52765       376     6.495     4.629 -50.88  19
        12    224.8898    973.0252 299.9413289 +22.7408503     7184.646     72.24512      7.313    27.95     52.34491     20.39814     155.6645       658     9.799     4.917  60.99  18
        13    625.9808    984.4339 300.0625178 +22.8643763     8988.527     72.31881      2.129     5.16     5.140366     20.39814     486.9622        52     1.740     1.480  55.14   3
        14    167.1871    999.7891 299.9146743 +22.7312174     1095.885     72.20825      3.074    10.20     82.92068     20.39814      56.8615        22     3.033     0.956  73.19   3
        15    150.7165    966.8871 299.9202517 +22.7168416     1136.572      72.4108      8.271     9.21     54.04549     20.39814     50.50209        17     2.540     0.932  75.57   3
        16    153.7514    976.6091 299.9180340 +22.7205399     2268.507     72.31881      6.670    18.34     62.95372     20.39814     54.73425        85     3.610     2.589  79.14   3
        17    913.2374    970.5244 300.1566289 +22.9464453     889.2332     72.24512      2.341     6.64     4.569495     20.39814     45.73277        18     1.477     1.283  52.04   0
        18    107.9228    965.9799 299.9072382 +22.7037441      1126.41     72.30039      5.619     8.38     53.15467     20.39814     41.08115        15     2.247     0.874  39.75   1
        19    142.7528    961.5558 299.9195085 +22.7129239      592.315     72.33721      4.796     5.02     49.59138     20.39814     30.89167         5     1.130     0.630  62.92   1
        20    131.1877    955.6398 299.9178355 +22.7077581     2209.164     72.30039     10.069    15.54     44.24644     20.39814     97.56357        67     3.010     2.229  25.09   3
        21    638.5874    953.5524 300.0764907 +22.8592892      6845.87     72.31881      2.092     4.75     4.796747     20.39814     323.9718        55     1.635     1.594  28.53   0
        22    151.0400    950.7540 299.9255985 +22.7123121     851.0609     72.37402      5.617     7.16     39.79233     20.39814     48.20638        12     1.523     0.943  76.70   0
        23    547.0955    944.2331 300.0510096 +22.8291945     1613.527     72.28197      2.067     4.80      4.52707     20.39814     109.2042        32     1.503     1.441  27.14   0
        24    518.7031    946.0677 300.0415674 +22.8212111     424.1663      72.4108      2.160     3.32      4.62011     20.39814     37.24696         4     1.194     0.268  73.34   2
        25    441.2167    940.6519 300.0191934 +22.7964295      1020.44     72.30039      1.907     5.23     4.830361     20.39814     79.04272        24     1.447     1.263  29.02   0
        26    371.4241    938.6592 299.9981097 +22.7749339     6492.963     72.30039      2.038     4.49     5.102665     20.39814     389.8483        48     1.583     1.536  18.87   0
        27    163.0596   1000.9120 299.9130252 +22.7303012     2118.245     72.37402      5.174    17.45     84.16119     20.39814     68.31387        74     4.438     2.012 -84.53  19
        28    533.7339    991.3564 300.0315211 +22.8387144      2367.81     72.28197      2.138     5.17     4.949127     20.39814      124.087        36     1.595     1.419 -41.71   0
        29    157.5181    997.1992 299.9125092 +22.7275742     3103.562     72.18981      5.383    15.90     80.77017     20.39814     73.80194        96     3.245     3.040  23.23   3
        30    917.9775    917.7902 300.1752581 +22.9327165      2091.14     72.30039      2.156     5.02     4.664712     20.39814     121.9991        34     1.598     1.359   9.54   0
        31    707.5124    907.3534 300.1130005 +22.8666769     810.4174     72.28197      2.748     7.77      4.59112     20.39814     50.15276        16     1.881     0.899  77.98   2
        32    620.6703    986.8376 300.0600808 +22.8634748     9022.643     72.26355      2.254     5.95     5.178201     20.39814     424.1207        52     1.744     1.629   6.56   3
        33    102.6822    902.9033 299.9261178 +22.6840841     993.0731     72.44757      5.423     4.91     16.34254     20.39814     34.19292         5     1.139     0.598  55.77   2
        34    741.4589    900.9155 300.1256788 +22.8749980     1059.034      72.4108      2.081     7.13     4.701529     20.39814     63.79524        27     1.573     1.309  -1.15   0
        35    160.0819    991.7236 299.9150875 +22.7267732     2350.624      72.4108      7.920    14.00     76.31606     20.39814     69.88273        53     2.746     2.374 -36.53   3
        36    184.4090   1005.8679 299.9180541 +22.7381268     1349.309     72.30039      2.738     3.37     86.90476     20.39814     64.74059         5     1.139     0.288 -66.67   2
        37    763.7839    894.4296 300.1347497 +22.8798231     11508.95     72.30039      1.990     4.77     4.806694     20.39814     678.5641        57     1.573     1.536 -25.22   0
        38    955.0099    894.6120 300.1943527 +22.9371469     479.5711     72.18981      2.257     7.63     4.718789     20.39814     33.27162        10     1.378     1.180 -32.06   0
        39    134.4031   1007.0839 299.9021052 +22.7234742     658.9101     72.22669      2.604     9.57      89.6784     20.39814     39.69754        15     2.621     0.975  28.65   0
        40    217.7054    999.9826 299.9303264 +22.7464267     665.8954     72.22669      1.911     6.55     78.48403     20.39814     54.21959        16     1.358     1.081  88.25   0
        41    468.5100    882.9560 300.0464531 +22.7880524     464.7732     72.30039      1.904     3.98     4.877004     20.39814     31.41608         5     1.335     0.340 -40.80   0
        42    772.1181    876.5897 300.1431492 +22.8771958     1357.363     72.26355      1.858     5.76     4.877817     20.39814     87.89767        23     1.434     1.159  46.14   0
        43    954.1666    875.7493 300.2002224 +22.9314747      411.958     72.31881      1.872     4.32     4.841967     20.39814     35.79507         6     0.981     0.542 -67.17   0
        44    624.6278    874.1261 300.0979656 +22.8323027     419.1895     72.31881      1.464     4.99     4.518435     20.39814     34.64454         9     1.089     0.647  21.06   0
        45    810.5139    870.2946 300.1571717 +22.8868882     1016.652     72.48431      2.255     5.95     4.911302     20.39814     59.17413        17     1.284     1.034  46.47   0
        46    858.7469    861.2583 300.1751565 +22.8987379     615.0839     72.35562      2.055     7.15     4.918968     20.39814     42.85635        16     1.367     1.068   3.77   0
        47    711.0298    859.9208 300.1295185 +22.8541093     782.9519     72.30039      2.515     5.32     4.777752     20.39814     48.41498        12     1.533     0.742  53.73   2
        48    721.5211    857.4343 300.1335981 +22.8565380      515.213     72.24512      1.724     6.20     4.853748     20.39814     51.93931        12     1.309     0.826  43.50   0
        49    422.7679    856.4041 300.0408390 +22.7667211     4288.091     72.28197      1.938     4.37     5.048482     20.39814      309.141        35     1.407     1.388  63.36   0
        50    193.2148   1003.3399 299.9216156 +22.7400433     1408.911     72.26355      5.388    18.72     83.41344     20.39814     54.91808        46     3.611     2.695 -33.63  19
        51    466.7419    844.5972 300.0583720 +22.7765122     320.0634     72.26355      1.678     3.85     4.925681     20.39814     30.98889         5     1.008     0.422 -82.81   0
        52    148.0443    841.7047 299.9601187 +22.6801368     612.4563     72.31881      1.780     6.53     8.871745     20.39814      56.1837        10     1.298     0.921 -73.62   0
        53    125.0727    838.9517 299.9538691 +22.6724579       1551.1     72.30039      2.070     4.65     8.694323     20.39814     126.6022        28     1.466     1.363  28.91   0
        54    997.0967    828.4752 300.2289920 +22.9307432     2262.891     72.46594      2.155     5.78     4.905426     20.39814     116.5149        36     1.609     1.477 -41.82   0
        55    951.1998    827.1073 300.2151095 +22.9166093     2132.897     72.17136      2.090     5.30     4.983968     20.39814     108.8148        33     1.543     1.392 -12.43   0
        56    656.5731    827.1311 300.1231997 +22.8283789     541.3508     72.30039      2.073     6.86     4.840694     20.39814      42.3381        13     1.650     0.799 -36.07   0
        57    734.4879    820.9122 300.1495133 +22.8499324     671.4272     72.46594      1.700     5.35     5.053201     20.39814     44.66943        13     1.163     0.934  24.29   0
        58    602.8355    814.5945 300.1105251 +22.8086795     4903.919     72.31881      1.834     4.11     4.777599     20.39814     337.3733        39     1.417     1.317  40.09   0
        59    405.1902    811.5200 300.0499543 +22.7485699     557.6962     72.24512      2.048     5.04     5.126509     20.39814     55.69638        10     1.237     0.812   1.76   0
        60    152.9440    808.1827 299.9725374 +22.6719899     1326.247     72.28197      1.971     4.42     6.119791     20.39814     103.5863        25     1.405     1.227  66.81   0
        61    623.2276    807.2226 300.1192766 +22.8126719     816.7156     72.30039      1.838     5.14     4.880163     20.39814      67.1199        20     1.359     1.116  46.97   0
        62    173.1177    805.6250 299.9796437 +22.6773055     458.7108     72.28197      1.607     3.22     5.812195     20.39814     53.94031         6     0.915     0.562  67.60   0
        63    995.8907    794.9169 300.2395232 +22.9207375     1091.833     72.42919      2.147     6.36      4.90108     20.39814     63.45925        21     1.498     1.161  23.24   0
        64    778.9401    794.4600 300.1719738 +22.8556476     4416.085     72.37402      1.900     4.21     5.218652     20.39814     276.7659        41     1.454     1.423  12.20   0
        65    473.4150   1000.0344 300.0099088 +22.8231225     383.1956     72.30039      1.791     5.51      4.52202     20.39814     31.44447         6     1.211     0.707  25.94   0
        66    495.8722    786.8217 300.0862235 +22.7686559     652.2706     72.31881      1.635     4.55     4.947584     20.39814     48.35818        13     1.064     0.932 -47.75   0
        67    142.3838    784.6111 299.9769128 +22.6620611     1000.066     72.24512      1.944     4.56     5.604068     20.39814     81.07969        21     1.446     1.146  57.34   0
        68    557.3355    780.3837 300.1074646 +22.7852238     542.9246     72.28197      1.600     4.79     4.882171     20.39814     44.40153        11     1.180     0.761  18.02   0
        69    291.8412    776.7167 300.0259783 +22.7046053     53833.19     72.26355      1.870     4.02     5.292353     20.39814     4511.034       107     1.622     1.568  22.42   0
        70    550.0268    775.8738 300.1066529 +22.7817390     1682.247     72.30039      1.828     4.87     4.898154     20.39814     117.9937        30     1.472     1.308 -15.73   0
        71    962.4889    775.5142 300.2354021 +22.9051621     790.6884     72.44757      1.883     5.32     5.103266     20.39814      62.8371        15     1.213     1.066 -14.74   0
        72    220.8578    774.9476 300.0044645 +22.6828177     479.3007     72.35562      1.849     7.27     5.376276     20.39814     38.92093        12     1.479     1.000 -37.61   0
        73    578.6842    771.7954 300.1169079 +22.7891537     941.1913     72.22669      1.724     5.26     4.955948     20.39814     65.37142        18     1.195     1.074  55.09   0
        74    589.9223    770.4492 300.1208475 +22.7921338     696.3622     72.30039      1.862     4.21     4.978412     20.39814     55.13256        15     1.322     0.798 -28.99   0
        75    694.7603    766.7899 300.1547157 +22.8224872     477.3561     72.30039      1.574     5.41     5.183579     20.39814     45.23283        10     1.044     0.791  49.34   0
        76    732.6588    757.0719 300.1696906 +22.8310464     902.4945     72.33721      1.929     6.00     5.199701     20.39814     55.82487        14     1.297     0.809 -18.28   0
        77    341.6036    753.9993 300.0488493 +22.7130014     31817.72     72.07906      1.809     3.64     5.292353     20.39814     2521.985        73     1.507     1.463  -7.92   0
        78    355.8916    754.3652 300.0531783 +22.7173888     2065.497     72.28197      1.968     3.75     5.283182     20.39814      178.827        29     1.386     1.245  65.66   2
        79    353.2619    748.6958 300.0542018 +22.7149733     685.1148     72.39241      1.955     2.79     5.292353     20.39814     62.95983         8     0.837     0.678 -16.93   2
        80    864.7705    750.2528 300.2131152 +22.8686475     2845.286     72.30039      1.805     3.92     5.783916     20.39814     195.3202        34     1.354     1.339 -64.74   0
        81    622.4921    746.0647 300.1389218 +22.7948876     1006.524      72.4108      1.796     5.29     5.129134     20.39814     77.79127        16     1.173     1.023  50.46   0
        82    459.7174    746.4736 300.0880728 +22.7462380     534.3231      72.4108      1.467     3.83     5.111237     20.39814     43.97997         6     0.934     0.450 -89.09   0
        83    223.8843    745.6786 300.0149163 +22.6753263     751.0453      72.4108      1.671     5.26     5.370149     20.39814     71.48932        14     1.310     0.900   6.44   0
        84     29.2188    741.3111 299.9557932 +22.6157040     466.4124     72.24512      1.700     3.56     5.744551     20.39814     54.20357         9     1.073     0.705 -76.91   0
        85    469.7398    740.7329 300.0930597 +22.7475929     784.3071     72.33721      1.651     4.83     5.127913     20.39814      74.5449        16     1.186     1.034  21.77   0
        86    870.9443    738.4809 300.2188667 +22.8671130     448.5102     72.33721      1.500     5.61     5.915709     20.39814     47.15194        10     1.122     0.802  69.12   0
        87    372.5249    737.0092 300.0639960 +22.7173918     380.5853     72.28197      1.992     3.32     5.231215     20.39814     44.05676         5     0.748     0.626   1.49   0
        88    328.7870    736.7610 300.0504604 +22.7042121     349.1327     72.30039      1.423     3.65     5.292353     20.39814     38.99755         5     0.939     0.409  45.57   0
        89    416.0968    736.1871 300.0778302 +22.7302135     418.8927     72.18981      1.380     4.27     5.106234     20.39814     46.67544         7     0.754     0.690  68.86   0
        90     57.6811    734.9261 299.9667163 +22.6224080     576.9553      72.4108      2.162     6.31     5.691455     20.39814     37.26344        12     1.567     0.713 -54.18   0
        91    848.6599    732.7042 300.2137908 +22.8587811      519.606     72.37402      1.723     4.40     5.850121     20.39814      51.1244        10     0.975     0.841  88.90   0
        92    222.2750    729.9738 300.0195179 +22.6703371     553.7803     72.30039      1.626     3.92     5.374738     20.39814     61.45772        11     1.092     0.966 -66.23   0
        93    545.0910    721.0615 300.1229249 +22.7645202     483.4503     72.39241      1.404     3.76     5.213692     20.39814     53.95063         9     0.915     0.740  65.41   0
        94    514.5189    719.1019 300.1140366 +22.7547984     701.3717     72.42919      1.764     5.36     5.221999     20.39814     48.80264        15     1.276     0.959 -30.18   0
        95    931.2855    715.5455 300.2451492 +22.8785856     4620.659     72.35562      1.900     3.98     5.766186     20.39814     292.4287        45     1.529     1.447  72.71   0
        96    424.5611    718.2506 300.0862934 +22.7276004      446.244     72.31881      1.955     4.17     5.221307     20.39814     45.62251         5     1.102     0.451 -31.05   0
        97    536.6517    716.3176 300.1218367 +22.7606296     1347.089     72.31881      1.700     3.67      5.23446     20.39814     114.7641        20     1.170     1.089 -38.34   0
        98    456.6734    715.4724 300.0971969 +22.7364249     337.8121     72.35562      1.514     3.42       5.2392     20.39814     38.00168         5     1.054     0.321  22.38   0
        99    618.3476    711.4453 300.1488780 +22.7837028     306.5855     72.31881      1.144     3.46      5.26471     20.39814     52.50426         5     0.799     0.433  21.33   0
       100    919.7092    707.0085 300.2443099 +22.8726666     1809.955     72.22669      1.841     4.23     5.883064     20.39814     125.1186        27     1.361     1.222  57.75   0
       101    282.5034    700.3512 300.0478830 +22.6798891     840.2692     72.35562      1.696     4.45     5.343688     20.39814     91.53826        17     1.415     0.951  16.42   0
       102    746.2300    698.2864 300.1930226 +22.8182217     2472.905     72.30039      1.805     3.73     5.473399     20.39814     183.7907        31     1.678     1.128   6.16   0
       103    950.8651    697.2384 300.2572082 +22.8791841     1564.186     72.28197      1.827     4.85     5.667087     20.39814     106.3181        27     1.493     1.257 -45.64   0
       104    828.4535    684.5921 300.2231179 +22.8389055     544.5202     72.30039      1.759     3.86      5.97099     20.39814     53.81518         8     0.871     0.768  31.13   0
       105    131.2102    684.0109 300.0061207 +22.6298473     654.4981     72.18981      1.970     5.60     5.549219     20.39814     62.72466        15     1.502     1.104 -55.85   0
       106    864.5308    675.1663 300.2374357 +22.8469970     148426.5     72.30039      1.790     3.72     6.147025     20.39814     11239.62       156     1.618     1.553 -45.19   0
       107    627.2050    679.0695 300.1621563 +22.7770560     391.1684     72.26355      1.615     4.41     5.401126     20.39814     36.24031         6     0.826     0.671 -82.94   0
       108   1011.4968    676.8934 300.2827454 +22.8914820     1230.678     72.48431      1.879     4.94     5.073041     20.39814     79.36756        23     1.334     1.247  66.43   0
       109    716.6516    675.4036 300.1912326 +22.8027899     857.6143     72.30039      1.756     4.04     5.511776     20.39814     70.83385        14     1.220     0.790   3.22   0
       110    897.4773    668.5082 300.2498792 +22.8549457     476.6923     72.44757      1.548     4.44     6.128041     20.39814     43.75652         8     1.123     0.500   1.16   0
       111    550.8125    663.6986 300.1433420 +22.7497596     1624.864     72.20825      1.649     3.70     5.445196     20.39814     143.3879        24     1.254     1.168 -23.50   0
       112    731.9894    661.2255 300.2006208 +22.8033089     9331.972     72.30039      1.615     3.22     5.572572     20.39814     786.4272        46     1.341     1.305 -13.07   0
       113    213.9866    662.0725 300.0389958 +22.6483656     146.3381      72.3188      1.380     5.65     5.422844     20.39814     35.14223         6     1.389     0.648  70.82   0
       114    233.3733    655.8895 300.0470360 +22.6524019     5108.545     72.26355      1.781     3.51     5.404815     20.39814     472.7329        40     1.407     1.349  53.69   0
       115    315.4189    653.9683 300.0731936 +22.6764395     1122.801     72.30039      1.703     3.51     5.463993     20.39814      108.019        18     1.129     1.042  47.18   0
       116    190.8851    652.1642 300.0350265 +22.6385973     479.5205     72.28197      1.548     4.69     5.522971     20.39814     52.16809         7     1.185     0.526 -33.51   0
       117    523.8800    649.7354 300.1394858 +22.7376816     763.4407      72.4108      1.580     4.07     5.500874     20.39814     66.84621        16     1.187     0.947 -24.17   0
       118    515.3162    641.8923 300.1393651 +22.7328637     3308.475     72.48431      1.616     3.14     5.534703     20.39814     335.5722        28     1.240     1.137  59.92   0
       119    505.7152    635.6408 300.1384044 +22.7281922     1478.029     72.26355      1.611     3.09     5.562169     20.39814     154.7598        20     1.130     1.065 -61.34   0
       120    899.3972    634.4211 300.2615503 +22.8457221     480.8058     72.24512      2.010     4.87     6.115174     20.39814     39.09863         9     0.958     0.772 -15.37   0
       121    169.2179    631.5865 300.0349690 +22.6261968     783.9887     72.24512      1.849     4.36     5.708565     20.39814     69.89382        16     1.359     0.942 -32.40   0
       122    183.4743    630.2277 300.0398452 +22.6300801     670.9257     72.31881      1.775     3.88     5.652176     20.39814     58.77184        12     1.092     0.814 -49.32   0
       123    529.6465    626.3801 300.1488677 +22.7327008     560.8674     72.33721      1.847     5.00     5.589184     20.39814     60.13744        11     1.304     0.842 -48.11   0
       124    952.2386    627.4734 300.2802988 +22.8595398     524.8817     72.26355      1.843     4.70     5.844819     20.39814     48.23647         8     1.107     0.627  13.61   0
       125    430.3950    625.1629 300.1183464 +22.7026194     1844.076     72.33721      1.690     3.25     5.640754     20.39814     185.9294        29     1.387     1.188 -63.30   0
       126    239.6065    626.4722 300.0585291 +22.6458262      408.945     72.24512      1.897     4.85     5.455738     20.39814     30.77205         6     1.368     0.488  38.86   0
       127    208.7574    626.3658 300.0489651 +22.6365498     568.0199     72.35562      1.620     5.16     5.537706     20.39814     48.66144        11     1.222     0.832  54.13   0
       128   1005.9460    622.9637 300.2985297 +22.8743153      910.067      72.3188      1.791     5.30     5.151405     20.39814     72.66956        20     1.312     1.176 -28.36   0
       129     84.3243    620.0147 300.0123237 +22.5974274     19992.72     72.31881      1.924     3.79     5.884668     20.39814     1598.961        67     1.559     1.546 -16.74   0
       130    515.2216    620.8018 300.1461851 +22.7267778     1054.503     72.22669      1.559     3.13     5.617106     20.39814     114.1112        16     1.074     0.988 -40.15   0
       131      6.1180    622.0878 299.9873360 +22.5745748      673.462      72.4108      2.279     4.43     6.147101     20.39814     50.55573         8     0.881     0.632 -42.19  16
       132    550.8942    619.8567 300.1576065 +22.7371912     359.5619     72.35562      1.548     4.04     5.602305     20.39814     35.48879         6     0.772     0.605  50.55   0
       133    933.4172    607.3625 300.2809555 +22.8481253     1024.199     72.30039      1.774     4.71     6.091906     20.39814     76.83647        20     1.399     1.007  44.91   0
       134    800.4024    605.3892 300.2400924 +22.8077452     615.2729       72.116      1.559     3.20     5.843786     20.39814     49.81956        13     0.965     0.873  33.79   0
       135     30.4567    604.2866 300.0006822 +22.5767647     1463.574     72.39241      2.167     4.76     6.028172     20.39814     98.10692        27     1.526     1.210 -87.33   0
       136     96.8068    605.1611 300.0210284 +22.5969069      445.518     72.33721      1.743     5.32     5.863565     20.39814     40.49228         9     1.154     0.692 -16.81   0
       137    478.5233    601.4119 300.1410494 +22.7102160     500.8047     72.31881      1.645     5.25     5.699937     20.39814     46.35854        10     1.122     0.824  19.25   0
       138    873.3375    600.0258 300.2645887 +22.8280350     922.1931     72.30039      2.206     7.80      6.05366     20.39814     74.92558        17     2.251     0.757   2.84   2
       139    435.4353    593.8771 300.1300756 +22.6951447     574.0262     72.26355      1.492     3.44      5.72812     20.39814     72.40078        11     1.035     0.702 -32.81   0
       140    583.4725    592.5784 300.1766166 +22.7391120     429.6526     72.31881      1.378     3.32     5.676121     20.39814      56.6292         9     0.954     0.701  34.69   0
       141    630.6267    590.9710 300.1918352 +22.7527711     495.7913     72.28197      1.353     3.82     5.649528     20.39814     52.88015         8     0.856     0.656   2.64   0
       142    601.2204    590.4370 300.1828431 +22.7438118     683.1864     72.31881      1.677     4.15      5.65622     20.39814     60.72253        10     1.046     0.735 -89.23   0
       143    479.6594    589.3674 300.1453144 +22.7070969     993.4922     72.33721      1.763     3.60     5.714527     20.39814     91.32014        16     1.106     0.970  28.84   0
       144    666.5359    589.0278 300.2036601 +22.7629652     295.4209     72.30039      1.344     3.94     5.659836     20.39814     43.97174         5     1.060     0.419  26.68   0
       145    913.5589    585.1400 300.2819742 +22.8357933     3374.458     72.30039      1.721     3.53     6.033742     20.39814     293.8916        34     1.305     1.265  57.60   0
       146    445.2640    584.9009 300.1360513 +22.6955110     1714.739     72.39241      1.547     3.04      5.74407     20.39814     193.8452        20     1.147     1.014 -17.59   0
       147   1011.3398    583.6718 300.3129739 +22.8646310     804.9369     72.33721      2.064     5.39     5.178867     20.39814     54.78542        16     1.233     1.082 -34.97   0
       148      7.0779    578.1632 300.0018962 +22.5622597     5095.007     72.26355      2.043     3.76     6.156142     20.39814     443.7724        49     1.563     1.520  45.25  16
       149    474.6754    575.5161 300.1482593 +22.7016255     465.8418     72.39241      1.831     4.21     5.735418     20.39814      47.6447         8     1.176     0.605  35.16   0
       150    952.6887    575.1277 300.2974384 +22.8446244     449.9519     72.46594      1.752     5.41     5.759028     20.39814     31.98427         9     1.133     0.729  12.08   0
       151    308.6201    571.4669 300.0978679 +22.6507158     9175.554     72.28197      1.654     3.17       5.7273     20.39814     970.4885        43     1.330     1.281  47.12   0
       152    431.0833    568.5962 300.1369288 +22.6865803      9098.49     72.22669      1.560     2.97     5.796637     20.39814     934.7688        43     1.278     1.262  86.48   0
       153    842.9424    562.8821 300.2671662 +22.8082601     1809.455     72.35562      1.572     3.22     5.958827     20.39814     168.6793        26     1.302     1.101 -53.19   0
       154    927.5685    560.2444 300.2944304 +22.8328280     12570.27     72.35562      1.763     3.55     5.912335     20.39814     1053.351        57     1.484     1.396 -68.83   0
       155    491.7126    558.2272 300.1591797 +22.7017624      11578.2     72.28197      1.587     3.18     5.777076     20.39814     1142.702        47     1.325     1.253  76.44   0
       156    219.0323    553.5781 300.0757954 +22.6187349      1358.38     72.30039      1.723     3.66      5.47774     20.39814     150.6388        22     1.224     1.128  46.56   0
       157    661.2097    554.2068 300.2133057 +22.7513646     634.6161     72.15292      1.434     3.28      5.68746     20.39814     60.68015        10     0.923     0.735  28.49   0
       158    376.9332    553.1391 300.1250849 +22.6659196     255.2877     72.33721      1.320     5.27      5.79672     20.39814     31.14743         8     1.050     0.748  -8.48   0
       159    466.0699    551.3151 300.1534361 +22.6920966     539.9235      72.4108      1.575     3.42     5.785249     20.39814     46.59125         7     0.753     0.642 -23.87   0
       160    423.3078    546.3478 300.1417304 +22.6778611     4502.815     72.35562      1.604     2.99     5.872818     20.39814     469.6016        38     1.322     1.252  28.97   0
       161    766.3633    546.6916 300.2485346 +22.7806847     856.0561     72.26355      1.641     3.89     5.779928     20.39814     73.49544        17     1.188     0.966  -1.48   0
       162    401.5928    544.6808 300.1355093 +22.6708776     1388.675     72.22669      1.629     3.13     5.858853     20.39814     145.4383        19     1.154     1.001 -77.33   0
       163    155.9547    544.0200 300.0592747 +22.5970876     740.0452     72.35562      1.690     4.28     5.469273     20.39814     73.36286        14     1.253     0.969  69.86   0
       164    843.2649    542.3061 300.2739474 +22.8024415     1574.709      72.4108      1.621     3.34     5.944348     20.39814     158.8638        20     1.235     0.981 -41.16   0
       165    540.0146    533.9941 300.1820955 +22.7092668     207214.6     72.18981      1.502     2.96     5.969873     20.39814        19119       197     1.566     1.469 -30.67   0
       166    364.2488    540.6869 300.1251782 +22.6585436     315.1109     72.30039      1.348     3.00     5.793833     20.39814     49.28563         7     0.966     0.596 -75.14   0
       167     90.2222    541.6910 300.0395870 +22.5767177     304.8083     72.22669      1.414     2.73     5.522056     20.39814     41.20627         5     0.735     0.438 -14.45   0
       168    723.8726    539.0358 300.2377689 +22.7657648     881.6542     72.26355      1.514     3.19     5.711538     20.39814     88.54362        14     1.043     0.883 -63.45   0
       169    226.1157    533.7350 300.0844410 +22.6151607     3684.803      72.4108      1.714     3.25     5.476916     20.39814     366.8307        35     1.356     1.301  31.83   0
       170    791.9918    529.8566 300.2619939 +22.7835167     516.5982     72.28197      1.858     5.58     5.839273     20.39814      51.3642        10     1.098     0.944  81.62   0
       171    571.4985    520.6553 300.1962361 +22.7148622     348.1429     72.39241      1.461     4.38     5.907165     20.39814     32.31595         7     1.380     0.396  53.12   0
       172    430.6089    514.3958 300.1543765 +22.6708704      2727.38     72.13446      1.658     2.94     5.862823     20.39814     244.3288        36     1.526     1.206  80.85   0
       173    274.9089    517.3351 300.1049485 +22.6250720     387.0893     72.42919      1.431     4.83     5.796419     20.39814     45.70864         9     1.146     0.576 -62.63   0
       174    842.2470    510.8447 300.2838434 +22.7930920     423.0398     72.33721      1.617     4.81      5.88869     20.39814     43.98787         8     1.088     0.602  27.87   0
       175    661.4045    510.5695 300.2275328 +22.7388826     268.7225     72.28197      1.151     4.44     5.739396     20.39814     33.13546         6     1.075     0.521 -56.69   0
       176    748.0095    502.9751 300.2570023 +22.7626249     356.3381     72.30039      1.282     4.61     5.751127     20.39814     43.26778         7     1.023     0.590  55.90   0
       177    827.7452    500.4330 300.2826988 +22.7857586     1735.998     72.31881      1.687     3.63     5.861355     20.39814     155.6624        23     1.272     1.165 -61.88   0
       178    698.9116    498.2074 300.2432394 +22.7465579     2553.304     72.20825      1.466     2.91     5.733254     20.39814     266.8102        25     1.151     1.095  68.58   0
       179     58.6627    499.0104 300.0436272 +22.5550083     343.5448     72.22669      1.821     3.79     5.423635     20.39814     33.26618         5     1.005     0.555 -15.47   0
       180    942.1289    491.9018 300.3211620 +22.8175328     1024.657     72.44757      2.338     6.82     5.793436     20.39814     67.32815        17     1.577     1.042  83.03   2
       181    603.9391    494.9884 300.2146778 +22.7172004     385.9653     72.26355      1.407     2.83     5.886132     20.39814     50.64777         7     0.865     0.517  39.12   0
       182    485.9971    494.1911 300.1781867 +22.6816549     800.6939       72.116      1.468     3.60     5.804235     20.39814     85.62906        14     1.209     0.809  32.83   0
       183    956.1979    492.6120 300.3253230 +22.8219463      1213.06       72.116      1.628     3.57      5.81312     20.39814     116.9693        20     1.268     0.974  -6.90   0
       184    827.9370    490.7178 300.2859121 +22.7830229     2247.611      72.4108      1.786     3.81     5.849657     20.39814     171.3253        32     1.623     1.104  77.66   0
       185    580.9252    488.9284 300.2094723 +22.7085684     749.8874     72.37402      2.290     4.18     5.971804     20.39814     67.82433        11     1.053     0.791 -60.50   2
       186    866.1956    485.9059 300.2994109 +22.7930882     4200.004     72.20825      1.545     3.23     5.847596     20.39814     388.2265        32     1.251     1.209  62.95   0
       187    419.9018    487.3659 300.1598155 +22.6598992     461.5753     72.28197      1.668     4.61     5.882186     20.39814      42.6546        10     1.020     0.741 -40.23   0
       188    367.2870    488.2359 300.1431495 +22.6443897     412.8675     72.28197      1.660     4.44     5.876719     20.39814       50.503         7     0.851     0.749  40.17   0
       189    603.7075    482.4737 300.2186676 +22.7135347     229.5474     72.42919      1.145     3.74     5.940745     20.39814      38.4092         6     0.903     0.677 -29.73   0
       190    527.3019    481.1638 300.1952831 +22.6902811     282.4458     72.30039      1.143     2.74     5.997969     20.39814     51.12963         5     0.858     0.456 -85.95   0
       191    957.7628    476.5420 300.3310276 +22.8177929     715.4045     72.30039      1.626     3.76     5.858021     20.39814     76.38889        14     1.098     0.923  -9.00   0
       192     97.9985    475.5888 300.0634603 +22.5600748     1018.141       72.116      1.799     5.05     5.368449     20.39814     85.86118        19     1.426     0.970  39.87   0
       193    758.8920    470.2328 300.2710238 +22.7564699     407.5045     72.26355      1.312     3.76     5.771213     20.39814     44.19856         6     0.935     0.434 -35.90   0
       194     91.0121    465.9484 300.0644162 +22.5552137     330.7526      72.3188      1.400     3.94     5.358841     20.39814     43.44497         8     0.957     0.672 -26.38   0
       195    954.3925    465.3640 300.3336036 +22.8135698     265.3217     72.30039      1.346     3.85     5.862818     20.39814     40.57703         7     0.928     0.573  30.83   0
       196    698.7164    460.2183 300.2555086 +22.7355801     578.6083     72.24512      1.515     3.35     5.738366     20.39814     57.94878         9     0.950     0.682  -1.04   0
       197    586.9498    457.6809 300.2214913 +22.7013927     371.9445     72.31881      1.591     5.05     5.945027     20.39814     39.17589         7     1.001     0.720  54.52   0
       198    639.4198    456.0608 300.2383714 +22.7166352      762.072     72.24512      1.429     3.62     5.804561     20.39814     82.94524        13     1.094     0.806  38.98   0
       199    618.1882    454.1383 300.2323772 +22.7097267     280.3403     72.26355      1.297     4.02     5.837551     20.39814     31.30382         6     0.818     0.565  51.91   0
       200    700.5369    448.7367 300.2598024 +22.7328246     817.6244     72.33721      1.500     2.87     5.735484     20.39814     93.35507        16     1.015     0.948 -54.52   0
       201    954.1034    448.8894 300.3388602 +22.8087451     615.1422     72.48431      1.537     4.32     5.885651     20.39814     62.58246        11     1.034     0.920 -50.73   0
       202    857.5547    444.8932 300.3100256 +22.7787096     987.5905     72.31881      1.578     2.97     5.851367     20.39814     99.22746        13     0.980     0.839 -17.33   0
       203    842.0032    441.2200 300.3063655 +22.7730001     673.0084     72.24512      1.526     3.76     5.848153     20.39814     72.64612         9     1.040     0.722 -70.70   0
       204    586.1224    438.9215 300.2273213 +22.6957539     3438.728      72.4108      1.499     2.88     5.917551     20.39814      330.363        27     1.201     1.087 -88.85   0
       205    946.3907    437.9218 300.3400120 +22.8032833     512.9405     72.26355      1.576     5.29     5.888111     20.39814     47.58261        11     1.203     0.657  40.90   0
       206     62.0591    430.7614 300.0668308 +22.5364359     415.1367     72.31881      1.460     3.97     5.297123     20.39814     34.69176         6     0.955     0.473 -36.11   0
       207    357.6425    426.5634 300.1601607 +22.6237863     214.9726     72.37402      1.503     5.71      5.88697     20.39814     28.00082         7     1.071     0.857 -18.97   0
       208    426.2632    426.3027 300.1816130 +22.6442624     391.9946     72.39241      1.329     3.69      5.87288     20.39814     43.58264         5     0.964     0.405  14.32   0
       209    997.4978    418.3332 300.3623231 +22.8129368     1329.118     72.39241      1.679     3.70     5.969577     20.39814     137.3013        19     1.154     1.099  55.64   0
       210    869.4732    418.2204 300.3224002 +22.7746054      560.608     72.31881      1.632     3.54     5.868305     20.39814     64.79855        10     1.059     0.686  68.61   0
       211    955.7978    416.9914 300.3497405 +22.8000773     944.6226       72.116      1.652     3.52      5.93309     20.39814     77.15918        17     1.119     0.987   1.49   0
       212    696.6829    412.9824 300.2702030 +22.7213929     1112.025     72.26355      1.512     3.61     5.731004     20.39814     114.5373        18     1.216     0.965 -45.41   0
       213    492.4784    413.2016 300.2064887 +22.6603259     542.5264     72.20825      1.515     3.01     5.843423     20.39814     60.53218         7     0.775     0.697 -19.45   0
       214    200.9375    411.1236 300.1163983 +22.5724109     711.4299     72.35562      1.489     3.22     5.814808     20.39814     74.54366        11     1.094     0.657 -21.83   0
       215    263.0958    406.6098 300.1372046 +22.5897354     3632.501     72.22669      1.568     3.01     5.998347     20.39814     402.4757        31     1.235     1.204 -25.57   0
       216    996.2946    405.5538 300.3660943 +22.8089007     4378.095     72.31881      1.691     3.27     5.990811     20.39814     422.5692        37     1.350     1.283 -72.43   0
       217    210.2207    401.3264 300.1224652 +22.5723785      7787.97     72.31881      1.666     3.07     5.911336     20.39814     810.9249        44     1.366     1.295  66.51   0
       218    976.1849    396.6716 300.3626981 +22.8003306     1775.817     72.30039      1.629     3.46     5.984509     20.39814      153.554        23     1.185     1.144 -14.10   0
       219    351.0461    395.6916 300.1681236 +22.6129424      4995.06     72.28197      1.564     2.96      5.93229     20.39814     538.2211        35     1.250     1.235  76.02   0
       220    612.9790    392.7375 300.2506773 +22.6905196     890.0696     72.26355      2.159     7.04     5.742862     20.39814     52.01473        19     1.871     0.743 -47.36   0
       221    595.2738    392.4706 300.2452456 +22.6851431     18628.36     72.37402      1.513     2.73     5.806805     20.39814      2099.72        56     1.334     1.274  21.51   0
       222    838.7665    388.8300 300.3223555 +22.7569661     302.1764     72.31881      1.511     4.37     5.848471     20.39814     29.74099         5     0.771     0.705 -52.70   0
       223    187.4800    385.0511 300.1206701 +22.5608920     213.2527     72.30039      1.243     4.12     5.850239     20.39814     30.41778         5     0.759     0.638   9.14   0
       224    792.1116    383.0214 300.3096854 +22.7413363     428.6952     72.22669      1.487     4.67     5.819867     20.39814      49.6835        11     1.120     0.966 -78.75   0
       225    215.5009    379.2898 300.1312573 +22.5676317     391.9103     72.46594      1.541     2.90     6.001752     20.39814     48.56826         7     0.895     0.538  32.74   0
       226    929.0112    375.7913 300.3547475 +22.7802136     768.3448     72.18981      1.616     3.71     5.945499     20.39814     69.40829        10     0.890     0.808 -56.19   0
       227    465.8904    375.1455 300.2105532 +22.6414295      428.757     72.35562      1.682     5.56     5.814483     20.39814     44.73598         6     1.048     0.830  79.85   0
       228    149.9915    372.3548 300.1131266 +22.5460149     2094.571     72.31881      1.690     3.09     5.816758     20.39814     198.5892        27     1.247     1.204  61.78   0
       229    949.6379    362.5621 300.3654777 +22.7825780     1226.212     72.37402      1.530     4.30     5.994895     20.39814     133.5634        20     1.289     1.024  77.49   0
       230    535.9202    361.9362 300.2366555 +22.6585993     6624.699      72.4108      1.478     2.96      5.90484     20.39814      726.402        36     1.228     1.173 -85.19   0
       231    250.6235    361.1768 300.1480623 +22.5729503     658.2676     72.26355      1.655     3.26     6.064821     20.39814     68.25668        12     1.018     0.918  76.66   0
       232    108.2550    354.2642 300.1060133 +22.5283157      581.076     72.35562      1.820     4.42     5.899775     20.39814     50.85178        10     1.129     0.769  52.62   0
       233    796.0026    353.9832 300.3203197 +22.7341501     250.9105     72.20825      1.206     3.48      5.82772     20.39814     45.48359         5     0.997     0.351  34.94   0
       234    740.2674    350.8235 300.3039608 +22.7165648     1337.324     72.28197      1.737     3.58     5.749939     20.39814     119.3192        20     1.175     1.120  20.93   0
       235    650.0557    352.2404 300.2753728 +22.6899757     529.9656     72.28197      1.506     4.38     5.743727     20.39814     56.84741        10     1.130     0.689 -14.44   0
       236    442.5737    348.1427 300.2120502 +22.6266888     6262.685     72.30039      1.516     2.87     5.850136     20.39814     654.8672        36     1.304     1.134  61.73   0
       237    834.5720    342.8478 300.3359644 +22.7424869     1428.183     72.31881      1.592     3.12     5.852973     20.39814     152.5277        19     1.115     1.031  50.01   0
       238    932.1889    343.0869 300.3663491 +22.7717565     545.5604     72.24512      1.374     3.73     5.987614     20.39814     56.64624        11     1.003     0.749 -11.40   0
       239    427.1452    336.8649 300.2109031 +22.6188287     440.4467     72.35562      1.272     2.36     5.868227     20.39814     63.01198         8     0.776     0.658  30.18   0
       240    510.1602    335.1980 300.2373027 +22.6432031     339.0911     72.31881      1.378     3.28     5.846218     20.39814     58.11235         7     0.895     0.533 -35.08   0
       241    490.3465    332.8817 300.2318813 +22.6366058     364.4878     72.33721      1.467     3.85     5.826974     20.39814     42.33121         7     0.973     0.730  18.06   0
       242    807.5477    330.3840 300.3315765 +22.7308174     572.1489     72.30039      1.561     3.23     5.845157     20.39814     61.30682        11     0.976     0.801 -31.42   0
       243    311.6180    330.0851 300.1771313 +22.5822869     324.6107     72.24512      1.422     3.42      6.06896     20.39814     32.76483         5     0.776     0.437 -70.67   0
       244    330.1780    327.2104 300.1838414 +22.5870192      2579.89     72.28197      1.522     3.01     6.047179     20.39814     305.6663        27     1.235     1.126  48.60   0
       245     48.5875    324.6034 300.0970790 +22.5019217     1021.425     72.13446      1.638     3.73     5.988165     20.39814     108.7529        19     1.245     1.028  62.65   0
       246    299.4836    316.6804 300.1777018 +22.5748020     30019.99     72.44757      1.599     2.87     6.095778     20.39814      3596.68        73     1.426     1.328  68.73   0
       247    834.2790    314.6022 300.3450350 +22.7342753     1387.607     72.20825      1.573     3.03     5.884765     20.39814     151.5822        17     1.026     1.002 -42.64   0
       248    749.3456    303.5049 300.3221404 +22.7056741      565.143     72.37402      1.400     3.26     5.819091     20.39814     60.47762         9     1.087     0.545 -31.13   0
       249    174.1736    303.1994 300.1430794 +22.5333984     428.7838     72.26355      1.430     2.28     6.146719     20.39814     57.53003         4     0.865     0.305 -54.39   2
       250    398.0285    302.0363 300.2131317 +22.6001026     596.6865      72.3188      1.623     2.30     5.907589     20.39814     71.83514         9     0.773     0.732 -33.68   0
       251    576.7554    299.5229 300.2696246 +22.6528823      416.054     72.28197      1.544     3.43     5.829895     20.39814       33.816         5     0.773     0.440  21.82   0
       252    709.9717    296.8036 300.3120349 +22.6919662     1834.585     72.26355      1.423     2.74     5.809871     20.39814     236.6029        19     1.044     0.987 -58.02   0
       253    518.2058    291.3834 300.2540199 +22.6330180     286.4389     72.24512      1.368     2.45     5.866785     20.39814     45.35623         5     0.710     0.453  18.99   0
       254    925.0251    289.8758 300.3813724 +22.7543058      547.433     72.31881      1.529     3.82     6.064521     20.39814     55.59263        10     0.959     0.744  56.92   0
       255    371.7953    281.0274 300.2117761 +22.5862111     2293.546     72.26355      1.685     3.64     5.947258     20.39814     206.2694        27     1.432     1.050  59.79   0
       256    584.4146    280.2498 300.2782619 +22.6496339     283.3161     72.31881      1.373     4.27     5.821404     20.39814     36.88905         7     0.891     0.643 -17.81   0
       257    811.0714    274.5190 300.3507945 +22.7158037     619.5235     72.42919      1.268     2.48     5.890736     20.39814     75.09193         8     0.738     0.688 -64.15   0
       258    693.3040    272.0495 300.3148654 +22.6798606     427.2298     72.35562      1.432     3.61     5.814222     20.39814      54.4852         9     0.990     0.861 -65.48   0
       259    710.3024    272.1851 300.3201218 +22.6849856      362.933     72.18981      1.671     3.62     5.827848     20.39814      37.9055         5     0.982     0.383  -3.93   0
       260    661.6262    271.2364 300.3052525 +22.6701482     363.7039     72.31881      1.384     2.31     5.798192     20.39814      41.8608         5     0.712     0.442 -69.34   0
       261    162.5549    262.5764 300.1526378 +22.5182502     154.0325     72.33721      1.280     3.50     6.091302     20.39814     30.86633         5     1.137     0.311 -20.57   0
       262    447.5758    260.5336 300.2420212 +22.6030085     1259.716     72.28197      1.466     2.76     5.847557     20.39814     161.1504        17     1.032     0.953  68.53   0
       263    300.4773    259.6262 300.1965130 +22.5587075     274.6858     72.30039      1.560     4.26     5.939819     20.39814     25.27689         6     1.117     0.463  34.23   0
       264    959.0502    257.0533 300.4026374 +22.7550375      328.364     72.33721      1.431     3.73     6.108089     20.39814     33.94516         5     1.004     0.399  29.32   0
       265    831.2208    254.5104 300.3635690 +22.7160754     256.3379     72.22669      1.319     3.35     5.960359     20.39814     36.67488         5     0.743     0.456 -20.48   0
       266    692.5591    252.5554 300.3209545 +22.6740318     2268.349     72.37402      1.561     2.70     5.819299     20.39814     267.8677        24     1.194     1.041 -69.50   0
       267    953.8348    247.0894 300.4042403 +22.7506109     3200.737     72.28197      1.586     3.01     6.111272     20.39814     338.1651        32     1.292     1.209  78.84   0
       268    500.5625    245.4210 300.2634273 +22.6145250     169.6318     72.31881      0.992     4.21     5.852481     20.39814     31.60551         5     1.026     0.494   0.89   0
       269   1015.1305    242.1805 300.4249686 +22.7675264     450.8878     72.30039      1.694     5.12     6.182799     20.39814     42.52617         8     1.019     0.728 -10.60   0
       270   1022.8481    235.0290 300.4296973 +22.7677758     1313.507     60.73029      1.443     3.76     6.205105     20.39814     140.0685        21     1.409     0.859  71.08  24
       271    400.5124    236.1783 300.2352607 +22.5819198     806.0996     72.22669      1.849     4.06      5.81264     20.39814     80.06619        14     1.342     0.783  38.78   0
       272    106.6097    230.6427 300.1455897 +22.4923209     589.5692     72.30039      1.537     3.28     6.006948     20.39814     65.68678         8     0.904     0.716   9.56   0
       273     75.7227    230.1797 300.1361343 +22.4829360     1571.381     72.30039      2.075     4.19     6.003139     20.39814     123.4041        26     1.404     1.257  -0.86   0
       274    969.4202    227.8712 300.4153371 +22.7497411     513.6646     72.30039      1.623     3.22     6.145692     20.39814     59.94395         9     1.060     0.639  11.11   0
       275    159.9720    222.6282 300.1647861 +22.5060015      436.027     72.26355      1.516     2.86     6.026937     20.39814     63.32951         7     1.007     0.605  83.60   0
       276    954.8542    220.4836 300.4131853 +22.7432598     321.5341     72.33721      1.567     4.27     6.130201     20.39814     29.97763         6     1.050     0.496   3.91   0
       277    835.8658    216.9628 300.3771928 +22.7066632     301.3504     72.28197      1.180     2.56     6.009556     20.39814     56.87497         5     0.766     0.484 -25.72   0
       278    764.2255    214.0028 300.3558041 +22.6843835     585.5112     72.24512      1.436     2.77     5.927153     20.39814     89.19208        12     1.017     0.763 -66.17   0
       279    354.8623    212.8554 300.2286075 +22.5615507     431.4425     72.37402      1.624     5.63     5.806576     20.39814     43.18349         8     1.354     0.660  74.42   0
       280    862.3271    203.1125 300.3899395 +22.7105923     2139.945     72.44757      1.629     2.89     6.028733     20.39814     217.8538        28     1.244     1.191  53.00   0
       281    716.8410    204.0196 300.3442627 +22.6673374     1883.706     72.33721      0.438    -1.64     5.886959     20.39814     1538.212         7     0.407     0.289  20.51   0
       282    280.9054    200.0273 300.2097434 +22.5357221     2134.943     72.20825      1.578     3.15     5.943429     20.39814     203.8776        29     1.290     1.214 -66.06   0
       283    358.8177    195.0315 300.2356171 +22.5576123     1108.902     72.28197      1.629     4.23     5.823111     20.39814     93.53542        21     1.347     1.087 -74.73   0
       284    110.9633    195.8468 300.1582237 +22.4836303     453.3741     72.33721      2.012     2.53     6.182097     20.39814     43.49042         5     0.770     0.488 -53.54   0
       285    760.8182    194.7802 300.3609732 +22.6778349     502.5241     72.30039      1.224     2.68      5.93935     20.39814     79.14927        10     0.876     0.722  50.78   0
       286    867.7953    192.0528 300.3952313 +22.7090455     256.8018     72.28197      1.489     3.27     6.020627     20.39814     45.27237         5     0.965     0.396 -28.45   0
       287    175.5323    187.6523 300.1809649 +22.5006138     814.0245     72.31881      1.627     3.50     6.265431     20.39814      77.1488        14     1.166     0.782 -28.52   0
       288    713.4479    184.4614 300.3495450 +22.6606968     1775.383     72.35562      1.538     2.89     5.907123     20.39814     210.7385        20     1.105     1.053 -79.25   0
       289    778.3018    184.2901 300.3698271 +22.6800467     563.7228     72.48431      1.437     3.46     5.958044     20.39814     67.25542         9     1.009     0.695  -6.96   0
       290    197.0891    180.7377 300.1899130 +22.5050825     606.8121     72.39241      1.484     3.58      6.31309     20.39814     67.68202        11     1.118     0.666 -28.71   0
       291    985.1760    177.2683 300.4366614 +22.7398890     866.6596     72.28197      1.534     3.61     6.222425     20.39814      84.5341        16     1.140     0.984 -31.10   0
       292    717.7555    175.7950 300.3536975 +22.6594926     750.2759     72.30039      1.490     3.11     5.922509     20.39814      92.2329        13     1.023     0.835 -58.01   0
       293    638.0234    175.0606 300.3290760 +22.6354290     1219.313     72.28197      1.447     3.26     5.876484     20.39814     122.4965        16     1.135     0.956 -76.15   0
       294    833.4700    166.7115 300.3927358 +22.6914891     1460.766     72.46594      1.608     2.96     5.981566     20.39814     159.4898        19     1.224     0.957  89.34   0
       295    564.0588    166.8218 300.3086929 +22.6109294      949.118     72.30039      1.482     3.38     5.869213     20.39814     110.2723        15     1.231     0.763  86.18   0
       296    845.5513    165.8422 300.3967870 +22.6948519     773.0897     72.30039      1.648     3.67      5.98269     20.39814     79.14265        12     1.081     0.891  55.97   0
       297   1006.5228    156.6583 300.4500071 +22.7403387     1709.207     72.33721      1.811     3.97     6.313026     20.39814     151.9072        27     1.340     1.224 -77.85   0
       298    962.2436    156.1180 300.4363581 +22.7269456     1117.748     72.26355      1.532     3.19     6.176422     20.39814     115.0539        18     1.104     0.991  57.50   0
       299    196.2968    149.1416 300.1999072 +22.4957670     718.6434     72.37402      1.527     4.13     6.412197     20.39814      79.0915        14     1.103     0.923  20.43   0
       300    149.1728    145.6020 300.1863938 +22.4806392     168.1393     72.24512      1.215     4.54     6.398808     20.39814     29.88677         6     0.987     0.593  69.59   0
       301     57.8907    143.4796 300.1586918 +22.4526923     2334.397     72.44757      2.023     3.70      6.38608     20.39814     235.7639        35     1.625     1.327   8.64   0
       302    881.2018    141.1281 300.4159220 +22.6984010     729.3618     72.22669      1.467     3.14      5.96556     20.39814     63.48055        11     0.984     0.768  33.45   0
       303      7.4441    140.9009 300.1438428 +22.4368419     463.0382     72.30039      1.673     5.57     6.394122     20.39814      48.4417         9     1.046     0.836  47.59   0
       304    215.4269    136.9194 300.2098206 +22.4979830     5724.623     72.30039      1.649     3.02     6.375134     20.39814     604.1042        41     1.403     1.260  60.95   0
       305    197.1824    137.5013 300.2039552 +22.4926875     486.4763     72.20825      1.892     5.89     6.378223     20.39814      40.7755         8     1.475     0.663 -53.95   0
       306      1.0996    131.5798 300.1448911 +22.4322643     406.9708     54.80688      0.878     2.24     6.401329     20.39814      96.1157         5     0.866     0.295  86.38  24
       307    198.9890    128.3450 300.2074846 +22.4905975     545.1751     72.30039      1.319     2.94     6.347338     20.39814      63.2825        10     0.945     0.708 -46.46   0
       308   1014.5333    124.7910 300.4628370 +22.7335603     18461.58     72.30039      1.759     3.62     6.352068     20.39814     1616.099        63     1.586     1.388 -82.28  16
       309    859.7199    118.8590 300.4164359 +22.6855693     3560.022     72.35562      1.571     3.11     5.850801     20.39814      357.566        31     1.279     1.177  87.47   0
       310    963.4520    117.6405 300.4492062 +22.7162322     2826.371     72.31881      1.713     3.27     6.260022     20.39814     273.8514        31     1.314     1.227 -65.31   0
       311    409.2163    113.6992 300.2776713 +22.5493189     810.8306     72.20825      1.790     3.46     6.018957     20.39814     77.48571        14     1.026     0.935 -67.27   0
       312    161.8417    114.3289 300.2004693 +22.4754475     450.9872     72.26355      1.871     4.64     6.304099     20.39814      41.0182         7     1.138     0.648   9.45   0
       313    333.2241    106.2155 300.2564342 +22.5244231     607.0644     72.30039      1.864     4.46     6.008864     20.39814     61.20969        10     1.061     0.797 -62.79   2
       314    388.5834    101.5612 300.2751792 +22.5396544     540.9959     72.31881      1.659     4.12     6.011167     20.39814     54.20392        10     1.148     0.727  82.18   0
       315     99.6198    102.7104 300.1848800 +22.4534775      647.783     72.24512      1.697     3.22     6.375744     20.39814     71.10043        11     1.013     0.784  -6.12   0
       316    460.4737    101.0465 300.2977362 +22.5610205     1705.014     72.30039      1.526     2.81     6.359441     20.39814     187.6441        24     1.243     1.031  81.15   0
       317    522.4162    100.2611 300.3172882 +22.5793293     290.4093     72.24512      1.394     3.14      6.52059     20.39814     35.79769         5     0.737     0.439  67.65   0
       318    284.6914     97.5369 300.2441385 +22.5074013     176.5455      72.4108      1.364     4.31     6.217903     20.39814     30.69222         5     1.012     0.523 -40.95   0
       319    204.1396     96.5823 300.2193796 +22.4830123     408.7976     72.24512      1.535     3.28     6.251594     20.39814     39.09476         5     0.742     0.444 -21.18   0
       320    749.3763     90.8957 300.3910745 +22.6445264     385.8346     72.18981      1.399     4.63     5.973346     20.39814     42.10903         9     0.995     0.855  37.58   0
       321   1023.4860     82.2020 300.4794342 +22.7239758     1712.326     57.18468      1.463     4.10     6.365766     20.39814     303.8002        18     1.761     0.793 -74.29  24
       322    894.9497     85.5643 300.4382192 +22.6865207     381.0588     72.31881      1.290     2.31     5.980637     20.39814     52.87299         6     0.772     0.488   8.38   0
       323    234.4555     80.7714 300.2339360 +22.4875444     6072.217     72.30039      1.682     3.22     6.236292     20.39814     669.5366        43     1.430     1.283  66.59   0
       324    863.5979     79.1568 300.4305116 +22.6753032     349.3624     72.30039      1.253     2.29     5.691316     20.39814     37.69495         5     0.703     0.451 -69.10   0
       325     85.3997     80.5162 300.1876486 +22.4428428      912.361     72.17136      2.008     7.34     6.392657     20.39814      73.0427        16     1.718     0.879 -22.16   0
       326    480.5730     66.2459 300.3152733 +22.5570279     6246.571     72.33721      1.612     2.99     6.629631     20.39814     665.9869        41     1.381     1.225  76.74   0
       327    366.1534     66.1872 300.2796564 +22.5227719     570.5157     72.31881      1.385     2.62     6.022695     20.39814     80.96612         8     0.759     0.677 -54.53   0
       328    501.4623     60.4555 300.3236572 +22.5616129     197.4332     72.37402      1.214     4.26     6.629293     20.39814     36.20633         5     0.942     0.549 -44.02   0
       329    733.3091     56.2733 300.3972817 +22.6297598     696.3029     72.46594      1.422     2.54     6.011679     20.39814      85.7783         9     0.874     0.621 -18.99   0
       330    825.7315     54.9657 300.4265348 +22.6570196     464.1037     72.30039      1.566     3.94     5.819293     20.39814     44.43452         8     0.988     0.610  87.34   0
       331    173.8634     50.2591 300.2249679 +22.4606360     466.1003     72.33721      1.522     3.86     6.251594     20.39814     57.96833         8     0.950     0.689 -65.44   0
       332    532.0231     49.4025 300.3367602 +22.5675772     433.6209     72.24512      1.570     3.79     6.612988     20.39814     59.74179         8     1.064     0.567  32.37   0
       333    609.0208     46.3852 300.3617340 +22.5897426     6235.676     72.28197      1.569     3.04      6.60014     20.39814     715.7892        40     1.355     1.212  79.54   0
       334    383.8778     45.5485 300.2918619 +22.5221425     1437.428     72.30039      1.573     2.86     6.253442     20.39814     164.1603        20     1.144     1.022 -41.39   0
       335    650.2430     43.9023 300.3753885 +22.6013580     858.8843     72.30039      1.513     4.11     6.598392     20.39814     94.03663        13     1.046     0.935  72.17   0
       336    666.1296     40.0840 300.3815785 +22.6050110      549.199     72.42919      1.362     3.17     6.600581     20.39814     71.85806        10     0.895     0.874  -8.40   0
       337    935.8337     38.1138 300.4663539 +22.6850844     525.8225     72.26355      1.450     2.38     6.334067     20.39814       77.827         7     0.928     0.466  17.28   0
       338    132.9581     37.8496 300.2162629 +22.4448233     673.1636     72.31881      1.600     4.76     6.320282     20.39814      66.0282        11     1.055     0.793 -28.38   0
       339    974.9387     37.3115 300.4788212 +22.6965420     299.3903     72.37402      1.418     3.45     6.337914     20.39814     36.28907         5     1.009     0.342  44.22   0
       340    704.6713     35.4898 300.3950843 +22.6152157     445.0383     72.46594      1.314     2.42     6.288945     20.39814     69.69392         8     0.852     0.632   1.30   0
       341    653.2564     31.5020 300.3803452 +22.5986919     2741.147     72.39241      1.529     2.72     6.606978     20.39814     324.5448        29     1.328     1.082  79.61   0
       342    668.0175     29.8893 300.3854698 +22.6026426     833.0532     72.22669      1.746     3.67      6.60871     20.39814     85.88273        14     1.174     0.879  63.41   2
       343    294.1556     32.2736 300.2682285 +22.4914746     531.7356     72.28197      1.827     4.73     5.920575     20.39814     40.28407         8     1.009     0.629  13.54   0
       344    739.7509     23.0050 300.4100686 +22.6221135     1649.872     72.28197      1.544     2.98     5.973346     20.39814     162.4828        22     1.204     1.033 -66.74   0
       345    899.9559     21.7307 300.4604632 +22.6696438     377.2678     72.26355      1.596     4.91     5.934474     20.39814     33.10332         7     1.150     0.593  23.85   0
       346    817.1313     18.0111 300.4358236 +22.6438129     390.3245     72.31881      1.992     5.53     5.833177     20.39814     35.39151         7     1.300     0.680  40.66   0
       347    677.4855     16.4889 300.3927627 +22.6016187      752.944     72.44757      1.439     2.80     6.580253     20.39814     89.70374        10     0.936     0.710   6.48   0
       348    282.4745   1012.0920 299.9465411 +22.7693263     819.8065     72.46594      1.778     5.05     15.31137     20.39814     77.63118        21     1.428     1.185  44.26   0
       349   1022.6367   1011.5139 300.1774438 +22.9909839     495.3669     61.81679      2.394     5.33     4.172472     20.39814     28.85704         6     1.354     0.592 -39.52  24
       350    122.3069   1008.6100 299.8978470 +22.7202828     903.2692     72.24512      2.934     3.84     91.46004     20.39814      38.5769         5     0.807     0.577  50.85   3
       351    119.0855   1005.0000 299.8980194 +22.7182812       913.91     72.17136      2.137     4.84     87.89675     20.39814     47.92641         5     1.299     0.536   2.41   3
       352    114.9767   1008.4096 299.8956327 +22.7180261     1043.029     72.30039      2.860     6.00     90.56921     20.39814     58.90784        10     1.371     0.785  -1.33   2
