#   1 NUMBER                 Running object number                                     
#   2 X_IMAGE                Object position along x                                    [pixel]
#   3 Y_IMAGE                Object position along y                                    [pixel]
#   4 ALPHA_J2000            Right ascension of barycenter (J2000)                      [deg]
#   5 DELTA_J2000            Declination of barycenter (J2000)                          [deg]
#   6 FLUX_APER              Flux vector within fixed circular aperture(s)              [count]
#   7 FLUXERR_APER           RMS error vector for aperture flux(es)                     [count]
#   8 FLUX_RADIUS            Fraction-of-light radii                                    [pixel]
#   9 FWHM_IMAGE             FWHM assuming a gaussian core                              [pixel]
#  10 BACKGROUND             Background at centroid position                            [count]
#  11 THRESHOLD              Detection threshold above background                       [count]
#  12 FLUX_MAX               Peak flux above background                                 [count]
#  13 ISOAREA_IMAGE          Isophotal area above Analysis threshold                    [pixel**2]
#  14 A_IMAGE                Profile RMS along major axis                               [pixel]
#  15 B_IMAGE                Profile RMS along minor axis                               [pixel]
#  16 THETA_IMAGE            Position angle (CCW/x)                                     [deg]
#  17 FLAGS                  Extraction flags                                          
         1    250.9613      9.4523 300.2964264 +22.4553302     394.6936     72.84459      1.322     3.53     4.838127     20.55167     45.64182         8     0.878     0.657 -49.22   0
         2    117.5453      3.8862 300.2567582 +22.4137524     1198.249     68.95569      1.465     3.77     5.099726     20.55167     135.9191        19     1.225     0.935 -58.24  24
         3    381.3163   1007.8537 300.0125879 +22.7809476      511.168     72.88169      1.421     3.45     3.064281     20.55167       52.805        11     0.909     0.841  12.62   0
         4    418.1477   1023.1244 300.0190736 +22.7963812       788.71     59.75697      1.265     3.40      2.99054     20.55167     110.5112        11     1.038     0.699  17.86  24
         5    348.7044   1021.1367 299.9981197 +22.7749660     6347.383     68.93608      1.569     2.95     3.086072     20.55167     688.6235        35     1.250     1.200  78.66  24
         6    193.3743   1023.5735 299.9490332 +22.7290273     480.7799     57.21491      2.857     3.41     10.61788     20.55167      29.4251         5     1.066     0.315  21.97  24
         7    185.7512   1023.2715 299.9467623 +22.7266516     487.1119      58.9371      3.119     4.41     11.91844     20.55167     29.36275         5     0.770     0.720  65.18  24
         8    179.6926   1020.2736 299.9458555 +22.7239731      719.063     71.64727      3.548     4.26     12.80458     20.55167     29.02085         5     1.244     0.415 -37.51  18
         9    111.4277   1022.3410 299.9239701 +22.7040642     1094.658     63.76188      8.291     9.32      16.2262     20.55167     39.22557        25     2.202     1.100 -13.88  26
        10     46.8591   1018.2909 299.9052310 +22.6835103     4549.953     72.91877     23.307    72.88      14.4585     20.55167      100.252      1363    22.248     6.624  -7.88  27
        11    544.8792    997.0799 300.0669917 +22.8269464     340.9966     72.97436      1.399     4.15     2.213844     20.55167     41.69933         7     0.925     0.532 -42.84   0
        12    393.4292    996.0131 300.0202108 +22.7811887     239.4207     72.84459      1.182     4.23     3.079047     20.55167     49.58937         7     0.890     0.574  58.21   0
        13    577.3742    994.0273 300.0781015 +22.8358212     358.2632     72.80747      1.350     2.91     2.586475     20.55167     51.42746         7     0.737     0.673  73.32   0
        14    684.0330    989.1191 300.1129132 +22.8664119     760.2923     72.82603      2.025     4.69     3.119241     20.55167      76.0407        17     1.548     0.890  60.60   0
        15   1010.4944    987.3597 300.2152437 +22.9638044     565.1102     72.86314      1.742     5.72     2.016115     20.55167     40.84856         9     1.222     0.859  56.73   0
        16    718.5556    982.8386 300.1257118 +22.8749654     1023.347     72.91877      1.484     3.17     3.044368     20.55167     107.2444        16     1.053     0.925  89.06   0
        17    495.8661    983.5235 300.0561499 +22.8083509     381.3899      72.9373      1.429     4.86     2.409592     20.55167      43.7335         8     0.855     0.783   3.57   0
        18    241.1136   1004.1172 299.9702066 +22.7377861     195.7175     72.95583      0.928     3.99     4.122512     20.55167     36.83805         5     0.995     0.457  45.10   0
        19    740.8431    976.5036 300.1347176 +22.8798327     11214.53     72.86314      1.458     2.76     3.002353     20.55167     1164.745        42     1.215     1.175  81.73   0
        20    874.7769    979.6692 300.1754268 +22.9209069     207.9555     72.86314      1.207     2.74     2.997972     20.55167     35.52482         5     0.822     0.620  47.51   0
        21    932.1903    975.7008 300.1946190 +22.9369823     417.9532     72.75176      1.356     3.16     2.893785     20.55167     49.34443         8     0.863     0.669 -14.83   0
        22    786.7001    976.2809 300.1490785 +22.8935222     400.1739     72.97436      1.355     3.23     2.998974     20.55167     48.35845         8     0.897     0.619   9.99   0
        23    873.6054    969.7203 300.1783007 +22.9177001      227.741     72.77034      1.432     4.20     2.999392     20.55167     42.17941         6     0.737     0.684  17.01   0
        24     52.2413    968.3248 299.9231684 +22.6708117     751.2028     72.82603      1.912     3.23     8.747281     20.55167     76.41209        13     1.117     0.817  -6.99   0
        25    446.1305    964.8289 300.0467588 +22.7880644     422.9853     72.84459      1.263     4.48     2.855621     20.55167     54.04285         9     1.154     0.617  70.02   0
        26    792.7167    964.1820 300.1548923 +22.8918545     311.0048     72.80747      1.214     4.01     2.989037     20.55167     52.79066         8     0.947     0.754  27.95   0
        27    749.4803    958.5226 300.1432623 +22.8772636     1294.923     72.95583      1.408     2.78     2.990337     20.55167     144.6057        18     1.027     0.973  20.50   0
        28    894.9291    999.7710 300.1751644 +22.9327193     2163.544     72.84459      1.558     3.32     2.969556     20.55167     171.8568        26     1.314     1.115  47.84   0
        29    932.2263    957.4547 300.2005704 +22.9317553     625.4036     72.84459      1.572     3.82     2.904252     20.55167     50.03106        11     1.042     0.698  75.86   0
        30    601.8083    955.7341 300.0981753 +22.8321678     476.2303     72.84459      1.541     3.31     3.199207     20.55167     52.13987         6     0.881     0.453  34.24   0
        31    787.4839    952.1272 300.1571859 +22.8868257      886.318     72.95583      1.613     3.33     2.980331     20.55167     81.47363        14     1.014     0.919   2.29   0
        32    896.0370    949.4659 300.1918876 +22.9186120     426.3091     72.84459      1.499     4.03     2.968135     20.55167     41.71474         8     0.850     0.671 -82.24   0
        33    835.9273    943.1396 300.1752091 +22.8987730     575.5947     72.88169      1.543     4.11     2.993459     20.55167     59.50459        14     1.066     0.982  56.36   0
        34    687.1172    942.2865 300.1291200 +22.8539002     750.3406     72.95583      1.437     3.18     3.106876     20.55167     84.35432        14     1.010     0.897  80.45   0
        35    399.8066    938.8028 300.0408182 +22.7666989     4259.343     72.65881      1.418     2.63     3.176373     20.55167     527.4893        31     1.170     1.106  49.66   0
        36    698.8176    939.3697 300.1337139 +22.8565727     617.9828     72.82603      1.424     3.59     3.076074     20.55167      72.5369        10     1.011     0.747  24.67   0
        37    850.9731    935.1308 300.1825059 +22.9009857     370.5839     72.84459      1.547     4.17     3.001696     20.55167     37.42743         7     0.875     0.661  55.57   0
        38    177.9870    927.1633 299.9756345 +22.6967765      276.263     72.82603      1.291     3.65      4.04965     20.55167     43.53475         7     0.919     0.711  39.60   0
        39    443.4976    926.3530 300.0584634 +22.7762403     356.6389     72.88169      1.470     3.89     3.072249     20.55167     48.77406         7     0.866     0.669 -12.14   0
        40    125.1434    924.5051 299.9600785 +22.6801480     785.8628     72.90024      1.564     3.85     4.783764     20.55167     74.46486        14     1.187     0.887  19.96   0
        41    102.1799    921.6440 299.9538749 +22.6724327     1606.519     72.88169      1.622     3.00     5.140143     20.55167     173.4826        24     1.238     1.160   7.42   0
        42     33.6688    922.6871 299.9322535 +22.6521575     402.0327     72.97436      1.594     5.30     3.695941     20.55167     40.12047        10     1.283     0.774  43.69   0
        43    729.8168    917.8301 300.1503819 +22.8596890     334.9801     72.82603      1.404     3.95     2.997972     20.55167     26.91664         6     0.786     0.570  48.15   0
        44    973.8995    910.3330 300.2289049 +22.9307192     2175.567      72.9373      1.531     3.15     2.935829     20.55167     185.2804        24     1.140     1.097  78.04   0
        45    928.1733    908.7499 300.2151607 +22.9165577     2029.457     72.86314      1.439     2.84     2.970205     20.55167     217.9616        22     1.060     1.051  -3.44   0
        46    633.5207    909.0136 300.1232574 +22.8282771     426.4583     72.82603      1.670     2.66     3.370829     20.55167     42.42374         6     0.767     0.499 -88.92   0
        47    711.9423    902.9101 300.1496694 +22.8500467     616.1644     72.90023      1.320     3.88      3.08842     20.55167     86.08581        11     1.225     0.699  62.64   0
        48    133.9982    903.0354 299.9698168 +22.6766535     479.3386     72.80747      1.747     4.14     4.232881     20.55167     56.40725         6     0.919     0.707 -82.02   0
        49    579.8934    896.8174 300.1105284 +22.8086914      4619.37     72.77034      1.331     2.35     3.517385     20.55167     657.3702        28     1.071     1.029 -81.48   0
        50     69.8186    897.5615 299.9516585 +22.6558137     443.5266     72.86314      1.717     3.33     4.171684     20.55167      54.7539         8     0.995     0.708  39.11   0
        51    381.9288    893.9163 300.0498654 +22.7484619     577.6492     72.97436      1.270     4.00     3.333317     20.55167     84.26359        10     1.009     0.719  45.71   0
        52    129.9579    890.9055 299.9725086 +22.6719639     1422.773     72.86314      1.543     3.18     4.064448     20.55167     138.0622        22     1.211     1.041 -30.20   0
        53    600.3166    889.5217 300.1192615 +22.8127246     634.5303     72.95583      1.301     2.78     3.477302     20.55167     80.34295        13     0.963     0.815 -51.11   0
        54    149.1572    887.9507 299.9794360 +22.6768814     396.2634     72.88169      1.699     6.45     3.836876     20.55167     34.70743         9     1.418     0.823 -39.77   0
        55    755.7718    876.4976 300.1719203 +22.8556102     4229.737     72.78891      1.364     2.38     3.010756     20.55167     487.1115        28     1.116     1.037 -78.10   0
        56    972.8604    876.4349 300.2396134 +22.9206742     1230.929     72.86314      1.566     4.66      3.00512     20.55167     111.5625        18     1.322     0.942 -29.81   0
        57    487.0476    873.9879 300.0890571 +22.7742882     380.6155     72.84459      1.516     3.82     3.349177     20.55167     49.14698         5     0.809     0.519 -65.96   0
        58    164.3067    871.1218 299.9896198 +22.6766058     343.1149     72.97436      1.191     4.39     3.556079     20.55167     57.67224         9     1.191     0.642 -41.45   0
        59    472.9428    869.0667 300.0862690 +22.7686448     553.0667     72.88169      1.206     2.65     3.302607     20.55167     99.27456        11     0.948     0.725 -85.43   0
        60    119.0976    867.2960 299.9768163 +22.6619362     1020.772      73.0299      1.558     3.35     3.661999     20.55167     104.4377        19     1.120     1.064  -9.54   0
        61    534.5465    862.4365 300.1075997 +22.7852245     497.8433     72.86314      1.199     2.78      3.67414     20.55167     68.54752        10     0.886     0.745 -56.98   0
        62    268.9092    859.2878 300.0259852 +22.7046126     53504.46     73.01139      1.382     2.52     3.520914     20.55167     6504.944        92     1.303     1.281  66.74   0
        63    526.8671    858.1862 300.1065923 +22.7817014     1564.352     72.84459      1.245     2.12     3.637143     20.55167     259.2927        20     1.149     0.911 -54.37   0
        64    939.8754    857.3879 300.2355253 +22.9053182     936.0557     72.86314      1.381     2.84     3.101163     20.55167     102.4489        14     0.965     0.870  31.72   0
        65    242.5691    856.9752 300.0185486 +22.6960435     363.5741     72.84459      1.438     1.75     3.545186     20.55167     63.66233         6     0.721     0.495  88.26   0
        66    197.3493    857.2659 300.0043975 +22.6825531      380.814     72.88169      1.223     3.66      3.53099     20.55167     48.61345         7     0.959     0.568  21.85   0
        67    555.7792    854.2258 300.1168810 +22.7892382     855.1854     72.82603      1.287     2.39     3.686747     20.55167      116.999         9     0.813     0.662  59.01   0
        68    566.5594    852.6252 300.1207578 +22.7920127      615.207     72.88169      1.316     2.92     3.640638     20.55167     64.41888        13     0.953     0.848  51.74   0
        69    886.3364    849.2935 300.2214659 +22.8869457     395.9716     72.95583      1.660     3.59     3.204003     20.55167     45.05631         5     0.853     0.598  45.93   0
        70    671.8714    848.7488 300.1548128 +22.8224864     497.3669     72.84459      1.283     3.09     3.450643     20.55167     61.75974         8     0.884     0.613  -7.89   0
        71    466.8261    846.3622 300.0917531 +22.7602969     292.2739     72.86314      1.258     2.54     3.405787     20.55167     42.03951         5     0.728     0.439 -19.77   0
        72    318.5972    836.4974 300.0488507 +22.7129900     31279.86     72.75176      1.333     2.30     3.534473     20.55167     3935.174        71     1.247     1.213  78.44   0
        73    709.9071    839.0085 300.1698300 +22.8310972     789.7783     72.75176      1.290     2.32      3.21088     20.55167      113.934         9     0.746     0.735  -4.30   0
        74    332.9557    837.0173 300.0531470 +22.7174481     2071.527     72.86314      1.368     2.17      3.53089     20.55167     319.9603        22     1.026     0.967  40.32   0
        75    841.7429    832.1653 300.2131380 +22.8686602     2872.983     72.86314      1.303     2.44     3.369607     20.55167     379.8786        24     1.013     0.999  44.40   0
        76    329.5578    830.8375 300.0541008 +22.7146561     721.7507      72.9373      1.420     2.75      3.53138     20.55167     78.25488        10     0.875     0.750 -53.70   0
        77    871.0922    830.5235 300.2228210 +22.8769870     421.1628     72.99287      1.401     3.00     3.322848     20.55167      41.2947         6     0.770     0.499  -0.95   0
        78    599.6221    828.3649 300.1389453 +22.7949685     934.2241     72.86314      1.246     2.48     3.524074     20.55167     122.9609        13     0.892     0.825 -22.17   0
        79    201.2480    828.0344 300.0151196 +22.6753430     901.6099     72.88169      1.473     2.81     3.548395     20.55167      93.1778        15     1.070     0.815 -60.36   0
        80    436.1435    828.3334 300.0880714 +22.7459198     496.3652     72.90024      1.322     3.08     3.388724     20.55167     63.65328         9     0.956     0.636  28.09   0
        81    493.8092    826.1531 300.1067256 +22.7625945     119.5921     72.86314      1.064     2.21     3.615583     20.55167     54.70497         5     0.686     0.662  48.20   0
        82    446.5683    823.3397 300.0929398 +22.7476150     872.9808     72.88169      1.230     2.33      3.46455     20.55167     123.9589        12     0.878     0.788  66.60   0
        83      5.7017    823.9285 299.9557008 +22.6154590     549.2953     72.99287      1.633     5.75     3.511863     20.55167     48.62648        11     1.168     0.937 -89.15  16
        84    848.0486    819.8622 300.2191065 +22.8670182     386.8293     72.90023      1.385     4.05     3.440843     20.55167      57.7761         9     1.001     0.651 -54.13   0
        85    348.6928    819.8513 300.0636262 +22.7172474     338.9281     72.91877      1.122     3.90     3.513258     20.55167     56.00582         7     0.761     0.645  43.04   0
        86    392.4946    818.2324 300.0777777 +22.7299263      494.577     72.82603      1.619     3.63     3.428638     20.55167      57.5819         8     0.838     0.772  -1.97   0
        87    304.7652    818.5774 300.0503792 +22.7037001     354.8772     72.86314      1.425     3.38      3.55545     20.55167     52.24765         6     0.876     0.584 -69.08   0
        88     34.2668    817.8636 299.9665454 +22.6222980     562.0223     72.90024      1.793     4.14     3.535318     20.55167     62.38111        10     1.213     0.595  13.12   0
        89    601.0046    817.4218 300.1429361 +22.7922430     370.4792     72.80747      1.268     3.49     3.530435     20.55167     45.50058         6     0.802     0.494   1.15   0
        90    825.7646    814.6045 300.2138713 +22.8588285     374.8942     72.84459      1.262     2.51      3.54461     20.55167     68.84811         7     0.813     0.584 -66.76   0
        91    199.1017    812.8491 300.0193924 +22.6703450     385.7924     72.90024      1.155     2.59     3.552143     20.55167     93.07333         7     0.852     0.672  77.93   0
        92    522.3060    803.1654 300.1230736 +22.7645476     421.5719     72.80747      1.229     3.12     3.741321     20.55167     70.90218        10     0.853     0.829  39.88   0
        93    491.7746    801.1135 300.1142383 +22.7548004     555.2214     72.78891      1.242     2.44      3.73348     20.55167     96.23034        10     0.863     0.712 -42.48   0
        94    400.8361    800.4047 300.0861723 +22.7273154     194.7576     72.86314      1.237     4.35     3.493453     20.55167      52.6931         9     0.932     0.681  66.95   0
        95    513.5475    798.7714 300.1217768 +22.7606596     1184.868     72.86314      1.177     2.14     3.742277     20.55167     197.9583        14     0.961     0.785 -43.66   0
        96    908.0394    797.4399 300.2451036 +22.8785618     4474.742     72.91877      1.344     2.46     3.479294     20.55167     545.3091        27     1.096     1.016  88.56   0
        97    433.1982    798.6956 300.0967968 +22.7365344     279.8388     72.75176      1.068     3.95     3.555795     20.55167      53.9917         7     0.982     0.559 -66.86   0
        98    595.2113    793.2475 300.1489965 +22.7835683     193.7422     72.86314      1.076     2.39     3.567301     20.55167     62.77378         7     0.811     0.565 -55.95   0
        99    896.5112    788.8571 300.2443015 +22.8726419     1608.585     72.88169      1.259     2.22     3.524735     20.55167     238.9219        17     0.970     0.872  74.02   0
       100    662.3309    784.3253 300.1728008 +22.8011358     239.4035     72.91877      1.274     3.96     3.475897     20.55167     30.30718         6     0.882     0.510 -46.61   0
       101    275.6533    783.3448 300.0527878 +22.6848599      301.437     72.88169      1.122     3.40     3.595187     20.55167     41.19251         5     0.982     0.341  21.05   0
       102    259.5713    782.8875 300.0479364 +22.6799026     795.4897     72.84459      1.307     2.48     3.587566     20.55167     120.3239        14     0.946     0.856  31.96   0
       103    722.9543    780.2629 300.1930065 +22.8181471      2661.25     72.88169      1.332     2.10     3.230921     20.55167      390.558        26     1.241     0.973  -9.63   0
       104    927.7775    778.8745 300.2572977 +22.8791459     1746.783     72.86314      1.346     2.26     3.471578     20.55167     246.7661        20     1.047     0.964  10.58   0
       105    805.0780    765.9822 300.2232414 +22.8386673     539.6461     72.84459      1.368     4.06      3.83962     20.55167     75.02186        11     1.180     0.715  35.26   0
       106    108.0216    766.8696 300.0060439 +22.6298234     573.8727     72.84459      1.339     4.03     3.527525     20.55167     73.00593        10     0.947     0.774  58.94   0
       107    387.6146    766.2639 300.0931644 +22.7135553     188.6861     72.80747      1.331     4.04     3.561901     20.55167     28.26653         6     0.891     0.524  46.84   0
       108    841.3257    757.1059 300.2374263 +22.8469837     146076.7     72.99287      1.266     2.14     3.834408     20.55167     22050.62       155     1.329     1.264 -87.40   0
       109    347.8585    761.9783 300.0821918 +22.7003981     130.3758     72.84459      1.193     3.97     3.499311     20.55167     34.72543         5     0.862     0.523  32.98   0
       110    603.5212    760.7984 300.1621391 +22.7767480     366.2362     72.75176      0.949     1.72     3.532942     20.55167     72.23238         5     0.651     0.475 -69.53   0
       111    988.3329    758.9124 300.2826762 +22.8915591     1264.888     72.93731      1.351     2.55     3.218608     20.55167     154.3751        17     0.967     0.942  58.09   0
       112    693.7148    757.5118 300.1912981 +22.8028495      670.064     72.97436      1.100     1.93     3.398114     20.55167     124.4481        12     0.851     0.728  76.81   0
       113    444.9968    756.1382 300.1143107 +22.7278648     1665.065     72.82603      0.627     1.50     3.689087     20.55167     810.4437        13     0.976     0.443  62.68   0
       114    874.1509    749.7514 300.2500509 +22.8547102     454.7253     72.88169      1.219     2.73     3.812032     20.55167     79.46997         9     0.900     0.726 -34.58   0
       115    527.5651    746.0126 300.1433008 +22.7497255         1645     72.82603      1.146     2.00     3.731638     20.55167     283.9388        16     0.904     0.826  76.24   0
       116    190.4006    745.1113 300.0387201 +22.6483110     247.7134     72.75176      1.283     3.86     3.499127     20.55167     39.26562         6     0.999     0.428 -74.63   0
       117    708.7497    743.2861 300.2006086 +22.8032735     9331.342     72.84459      1.165     2.00     3.350794     20.55167     1542.762        37     1.057     1.006  60.83   0
       118    210.3385    738.5624 300.0470471 +22.6524166     4868.005     72.86314      1.313     2.40     3.495581     20.55167     583.4899        32     1.116     1.064  79.21   0
       119    292.3887    736.6086 300.0731920 +22.6764778     1191.184     72.73318      1.237     2.23     3.596189     20.55167     154.4836        15     0.990     0.812 -10.82   0
       120    168.1349    734.4106 300.0352798 +22.6385602      468.945     72.78891      1.207     3.22     3.500107     20.55167     72.00391         9     0.845     0.778 -39.71   0
       121    500.4917    731.9553 300.1394458 +22.7375717     793.4496     72.82603      1.217     2.43     3.767135     20.55167     124.4693        11     0.878     0.748  89.63   0
       122    492.2719    724.2305 300.1393997 +22.7328897     3172.776     72.84459      1.175     2.03     3.829186     20.55167     499.5527        22     0.969     0.906  60.33   0
       123    482.5067    717.9602 300.1383996 +22.7281616      1539.44     72.86314      1.213     2.18     3.876834     20.55167     221.8609        15     0.885     0.817  48.92   0
       124    410.8693    717.6545 300.1162077 +22.7065862     206.0694     72.88169      0.963     3.76     3.844813     20.55167      45.6681         7     0.861     0.586 -28.99   0
       125    678.0693    716.7657 300.1996766 +22.7864619     208.4899     72.84459      1.365     5.39     3.528816     20.55167     39.13425         7     1.318     0.623  46.94   0
       126    876.0413    715.6846 300.2617201 +22.8454932     481.6165     72.80747      1.218     2.61     3.897602     20.55167     65.66243         9     0.853     0.674 -72.33   0
       127    393.2762    715.1311 300.1115549 +22.7005848     267.2505      72.9373      1.167     2.30     3.798212     20.55167     51.19578         6     0.730     0.534  39.57   0
       128    145.7884    714.2401 300.0348942 +22.6260697     685.0664     72.82603      1.388     2.86     3.549572     20.55167     99.71667        12     0.976     0.814 -42.31   0
       129    160.2248    712.8651 300.0398277 +22.6300081     727.9835     72.82603      1.392     2.88     3.540281     20.55167     97.17102        12     0.979     0.777  45.97   0
       130     45.5463    713.2628 300.0040679 +22.5957013     295.7828     72.90024      1.631     5.64     3.978717     20.55167     32.34735         5     1.209     0.743  45.75   0
       131    929.2869    709.5798 300.2803069 +22.8596959     532.4425     72.77034      1.261     3.99     3.650365     20.55167     79.59902        10     1.267     0.627 -78.80   0
       132    185.6611    709.3169 300.0488868 +22.6366242     566.6101     72.93731      1.335     3.41     3.590827     20.55167     79.31609        10     0.985     0.810  75.52   0
       133    407.1917    707.7138 300.1182961 +22.7026310     1793.915     72.77034      1.219     2.06     3.902282     20.55167     275.5793        18     0.991     0.865 -74.12   0
       134    216.9482    709.4209 300.0585781 +22.6460430     418.2129     72.84459      1.376     2.68     3.644901     20.55167       54.602         6     0.785     0.590 -41.75   0
       135    506.1385    708.0760 300.1489688 +22.7324128     404.4144     72.90023      1.044     2.34      3.94946     20.55167     77.12271         5     0.605     0.575 -71.87   0
       136    983.0314    704.8867 300.2985941 +22.8744513      876.063     72.82603      1.242     2.41     3.355053     20.55167     132.9405        12     0.947     0.747 -78.37   0
       137     61.2571    702.8361 300.0123384 +22.5974281     19707.64     72.84459      1.413     2.55     3.887373     20.55167     2437.584        60     1.280     1.248   3.37   0
       138    492.0841    703.0319 300.1462347 +22.7267502     894.5225     72.82603      1.184     2.09     3.991241     20.55167     165.9529        11     0.874     0.710  66.49   0
       139    527.3302    702.0098 300.1575377 +22.7370273      359.713     72.82603      1.073     1.78     3.989314     20.55167     66.01751         7     0.640     0.636  46.20   0
       140    245.6216    695.0745 300.0721567 +22.6505324     291.0406     72.84459      1.269     3.30     3.764179     20.55167     49.83316         7     0.864     0.618 -14.72   0
       141    910.2115    689.1086 300.2810160 +22.8480998     1047.555     72.78891      1.232     2.29     3.820423     20.55167     162.4941        13     0.887     0.798 -80.38   0
       142      7.0428    687.0598 300.0006285 +22.5766313     1370.634     72.82603      1.820     4.26     4.330115     20.55167     106.3328        22     1.404     1.061 -76.10  16
       143     72.9523    687.3275 300.0210140 +22.5964921     530.4318     72.84459      1.529     2.89     3.833215     20.55167     65.07574         9     0.827     0.777 -87.67   0
       144    776.7324    686.9572 300.2401087 +22.8074796     553.1578     72.82603      1.324     3.06      3.73125     20.55167     90.55685         9     0.991     0.647 -13.17   0
       145    455.4163    683.7433 300.1410953 +22.7102178     463.8347     72.80747      1.077     2.32     4.131604     20.55167      75.3745         9     0.807     0.675  20.11   0
       146    247.8844    682.6909 300.0768867 +22.6476594     340.4399     73.01139      1.293     3.45     3.833274     20.55167      45.0828         6     0.903     0.603 -66.92   0
       147    850.7408    681.8857 300.2648240 +22.8282039     737.3553     72.95583      1.354     2.39     3.934399     20.55167     93.44915        11     0.886     0.711  16.08   2
       148    846.2433    681.5284 300.2635382 +22.8267535     455.3662     72.80747      1.506     3.88     3.926822     20.55167     53.96596         7     0.973     0.485   7.92   3
       149    594.7234    680.1859 300.1856152 +22.7509723     231.4924     72.86314      1.098     2.69     3.803032     20.55167     56.92605         5     0.892     0.384   4.56   0
       150    412.2797    675.9108 300.1302199 +22.6950322     713.3253     72.97436      1.133     2.05     4.154427     20.55167     119.6505        10     0.775     0.698 -20.57   0
       151    560.1637    674.4602 300.1767167 +22.7389662     441.4549     72.86314      1.120     2.23     4.080637     20.55167     81.78347         8     0.743     0.650  66.50   0
       152    607.7250    672.7161 300.1920924 +22.7527263     475.2593     72.93731      1.181     2.24      3.73812     20.55167     78.91771         8     0.813     0.621  -4.75   0
       153    578.0840    672.3838 300.1829711 +22.7437435       564.26     72.80747      1.039     2.21     3.959608     20.55167     95.04184         8     0.812     0.599  14.99   0
       154    456.4211    671.6893 300.1453272 +22.7070601     970.5614     72.77034      1.224     2.28     4.218405     20.55167     130.1893        14     0.973     0.759  40.75   0
       155    890.1976    667.0475 300.2819493 +22.8357659     3216.031     72.84459      1.225     2.03     3.924732     20.55167     540.3677        22     0.976     0.916  80.83   0
       156    422.0356    667.2047 300.1360858 +22.6954602     1622.332     72.86314      1.191     1.97     4.209844     20.55167     306.7047        16     0.910     0.802  80.53   0
       157    988.4385    665.2242 300.3131779 +22.8646767      779.132     72.86314      1.217     2.73     3.340267     20.55167     110.9851        11     0.892     0.740  -1.42   0
       158    451.2804    658.1509 300.1481291 +22.7016332      260.857     72.88169      1.200     3.08     4.251984     20.55167     50.27672         5     0.756     0.424  76.37   0
       159    929.7179    656.9777 300.2975460 +22.8447148     278.4238     72.80747      1.169     3.03     3.881049     20.55167     61.25536         7     0.850     0.547  65.17   0
       160    285.4250    654.0573 300.0978681 +22.6507090     9056.893     72.84459      1.230     2.06     3.924257     20.55167     1361.534        38     1.088     1.037 -87.04   0
       161    407.8841    651.0336 300.1369403 +22.6865755     8807.106     72.80747      1.211     1.95     4.197798     20.55167     1659.498        32     1.008     0.976  84.46   0
       162    653.9583    647.4289 300.2147120 +22.7593276     397.6204     72.86314      1.239     4.20     3.834382     20.55167     50.96536         8     0.917     0.659 -43.98   0
       163    173.5845    648.4385 300.0649262 +22.6155411      301.932     72.86314      2.100     3.95      3.78653     20.55167     31.69102         5     1.046     0.427 -15.39   0
       164   1012.4981    646.1311 300.3268907 +22.8663985     978.7828     72.97436      1.246     1.98     3.110402     20.55167     158.8341        15     0.901     0.854  80.01   0
       165    819.5464    644.8690 300.2671363 +22.8082241     1854.865     72.86314      1.150     1.98     3.941771     20.55167     300.4238        19     0.964     0.885 -51.13   0
       166    904.1951    642.1661 300.2944033 +22.8328127     12209.82     72.82603      1.225     2.03      3.95447     20.55167     2045.939        39     1.061     1.018  85.70   0
       167    468.4413    640.5984 300.1591757 +22.7017425     11435.73     72.84459      1.125     1.98     4.317798     20.55167     1643.212        39     1.053     1.011  41.32   0
       168    638.1384    636.6599 300.2132860 +22.7514933     411.4781     72.88169      1.194     2.83     3.928616     20.55167     88.27637        10     0.958     0.646  66.72   0
       169    196.0129    636.1680 300.0758861 +22.6187516     1251.179     72.82603      1.208     2.35     3.873254     20.55167     201.4215        14     0.900     0.855 -70.77   0
       170    353.7178    635.2603 300.1252178 +22.6658027     247.0361     72.95583      0.988     3.49     3.997598     20.55167     59.51893         7     0.983     0.564  68.56   0
       171    442.9718    633.4494 300.1535740 +22.6920527     356.4849     72.86314      1.159     3.34      4.30483     20.55167     53.36939         8     0.819     0.713  45.70   0
       172    400.1551    628.8217 300.1417564 +22.6778835     4428.009     72.90024      1.236     2.06     4.201138     20.55167     708.1334        27     0.984     0.963   9.09   0
       173    743.0278    628.8090 300.2485120 +22.7806795     721.5814     72.84459      1.060     1.71     3.889835     20.55167     174.6132         9     0.713     0.655 -55.41   0
       174    378.4510    627.1743 300.1355399 +22.6709011     1147.635     72.86314      1.200     2.25     4.110612     20.55167     169.8142        14     0.902     0.855   1.01   0
       175    132.7805    626.7269 300.0593031 +22.5970700     796.0048     72.84459      1.280     2.70     3.884301     20.55167     103.2707        12     0.923     0.807 -83.62   0
       176    819.9131    624.0328 300.2740244 +22.8023495     1591.636     72.80747      1.306     2.66      3.98739     20.55167     218.9703        16     1.048     0.782 -38.45   0
       177    516.7395    616.2914 300.1821095 +22.7092490     201356.3     72.93731      1.169     1.93      4.29619     20.55167     34005.62       208     1.357     1.332 -72.99   0
       178    340.5998    622.6821 300.1252262 +22.6582589      306.032     72.71459      0.954     3.16     3.995902     20.55167     51.22299         5     0.713     0.472  75.74   0
       179    700.3930    620.9498 300.2377840 +22.7656439     811.8699     72.84459      1.189     2.06     3.975835     20.55167     140.2657        12     0.845     0.770 -40.68   0
       180    794.0253    619.7210 300.2673578 +22.7933532     324.9654     72.84459      1.359     2.45     3.980374     20.55167     43.22192         5     0.762     0.477  60.67   0
       181    904.6870    618.2734 300.3023242 +22.8260964     276.4603     72.99287      1.129     3.57      4.00314     20.55167     56.66492         9     0.942     0.759 -41.51   0
       182    202.8150    616.3748 300.0844342 +22.6151150     3405.355     72.86314      1.279     2.16     3.936088     20.55167     501.2746        26     1.104     0.933  67.34   0
       183    768.6153    612.1510 300.2619000 +22.7835641     558.4799     72.88169      1.243     3.18     4.001018     20.55167     84.58071         8     0.991     0.568  46.43   0
       184    548.1782    602.6276 300.1963375 +22.7147530      320.077     72.84459      1.367     2.45     4.220601     20.55167     56.57148         7     0.825     0.581 -78.02   0
       185    406.7517    600.7799 300.1529236 +22.6718147      402.532     72.86314      1.189     1.62     4.284126     20.55167     77.10785         5     0.603     0.542  28.94   3
       186    407.3157    596.5749 300.1544659 +22.6707771     2616.823     72.80747      1.150     2.09     4.293835     20.55167     386.3435        19     0.936     0.887  63.14   2
       187    251.6680    598.8389 300.1053211 +22.6247411     475.8739     72.80747      1.194     2.56      3.94295     20.55167     76.21892         8     0.863     0.593 -84.62   0
       188    856.8923    596.1902 300.2946019 +22.8054324      228.026     72.78891      1.094     2.09     4.030911     20.55167     48.02456         6     0.707     0.546 -51.51   0
       189    819.1080    592.8574 300.2839075 +22.7931535     353.3096     72.90024      1.248     3.06     4.002537     20.55167     76.03737         9     1.004     0.691 -43.17   0
       190    638.1379    592.4536 300.2276557 +22.7388007     429.6306     72.90024      1.762     4.61      4.20246     20.55167     54.77438         9     1.288     0.647 -57.08   0
       191    724.6165    585.0395 300.2570032 +22.7625916     401.6866     72.86314      1.045     2.26     4.061974     20.55167     70.41621         7     0.719     0.615 -77.37   0
       192    804.2586    582.6097 300.2826102 +22.7857604     1630.403     72.80747      1.116     1.90     3.977404     20.55167     287.9978        16     0.891     0.809  33.09   0
       193    675.5154    580.3380 300.2432352 +22.7465253     2378.229     72.97436      1.065     1.95      4.13114     20.55167     376.3195        18     0.908     0.831  76.81   0
       194    313.9992    580.1320 300.1307830 +22.6380712     180.9903     72.80747      1.271     4.60     4.025811     20.55167     31.14515         5     0.942     0.639  30.94   0
       195    919.9799    577.5263 300.3203377 +22.8189713     459.8999     72.84459      1.190     2.45     3.976808     20.55167     73.28191         8     0.785     0.688 -46.46   2
       196    918.7339    573.2115 300.3213515 +22.8173584     737.1687     72.80747      1.243     2.45     3.971623     20.55167     107.8143        10     0.891     0.722  57.52   3
       197    580.6287    576.8841 300.2148078 +22.7170910      438.377     72.84459      1.065     2.73     4.346779     20.55167     91.50799         9     0.917     0.677  -2.81   0
       198    462.7608    576.3749 300.1782834 +22.6816061     663.4064     72.88169      1.164     2.10     4.431098     20.55167     108.8115         9     0.775     0.680 -82.33   0
       199    932.8967    574.3259 300.3254057 +22.8219213     1253.916     72.97436      1.190     2.07     3.933916     20.55167     196.9185        14     0.915     0.819   9.62   0
       200    804.5952    572.5781 300.2859755 +22.7829797     2191.286     72.80747      1.453     3.00     3.964447     20.55167     339.1562        24     1.511     0.882  79.13   0
       201    557.8157    570.8294 300.2096729 +22.7085137     781.3998     72.84459      1.812     3.36     4.344792     20.55167     84.66141        12     1.070     0.760  44.36   2
       202    842.6937    567.8040 300.2994022 +22.7930237     4368.402     72.75176      1.174     1.89     4.007345     20.55167     781.4276        28     1.055     0.908  52.43   0
       203    396.3602    569.8496 300.1597433 +22.6598217     386.8343     72.86314      1.089     2.89     4.326686     20.55167     66.59138         6     0.923     0.433  75.29   0
       204    483.4601    567.7885 300.1875159 +22.6853479     276.0664     72.80747      0.923     3.25     4.451465     20.55167      40.7226         5     0.734     0.453 -68.98   0
       205    580.4016    564.7863 300.2186689 +22.7135495     299.8242     72.67741      1.147     3.04     4.410018     20.55167      39.9566         5     0.738     0.439 -68.48   0
       206    502.9236    563.8325 300.1948594 +22.6900481      398.259     72.84459      1.202     2.90      4.41925     20.55167     75.78111         9     0.963     0.625  56.62   0
       207    934.4870    558.2316 300.3311325 +22.8177732      727.283     72.80747      1.063     2.12     3.913423     20.55167     121.5053         9     0.750     0.708 -65.73   0
       208     74.8952    558.3248 300.0635482 +22.5600827     1026.716     72.99287      1.416     2.63     3.965397     20.55167     115.1704        13     0.923     0.869  34.88   0
       209   1003.9139    552.2257 300.3547379 +22.8368427      1979.69     72.80747      0.529     0.85      3.62565     20.55167     1283.439         7     0.448     0.360 -77.93   0
       210    735.7349    551.6675 300.2713133 +22.7563391     357.0271     72.90024      1.234     3.18     4.089099     20.55167     55.51371         5     1.002     0.343 -20.06   0
       211    122.2099    550.5853 300.0807640 +22.5720598     275.1473     72.75176      1.231     3.18     3.966702     20.55167     39.83559         5     0.717     0.479 -12.35   0
       212    930.8795    547.5134 300.3334909 +22.8136128     348.3371     73.01139      1.132     3.05     3.915472     20.55167      68.6195         6     0.819     0.600  37.66   0
       213     67.1650    548.3155 300.0643991 +22.5548924     271.5655     72.80747      1.197     3.50     3.960145     20.55167       52.742         7     0.737     0.662  39.48   0
       214    674.9989    542.4064 300.2554018 +22.7354774     469.1045     72.65881      1.215     2.44       4.1833     20.55167     83.74511         9     0.858     0.654  75.34   0
       215    283.6889    540.7615 300.1341513 +22.6176830      265.061     72.82603      1.274     3.30     3.968931     20.55167     45.35357         6     0.743     0.618 -48.37   0
       216    616.0807    538.5737 300.2382972 +22.7167179     815.2201     72.82603      1.175     2.17      4.55995     20.55167     141.5945        12     1.009     0.707  61.41   0
       217    563.8177    540.1097 300.2215247 +22.7014931     400.3397     72.77034      1.164     2.17     4.456186     20.55167     71.30951         8     0.775     0.634  46.17   0
       218    894.9826    538.0103 300.3253861 +22.8001291     295.6996     72.80747      1.363     2.99     4.004452     20.55167     39.74315         5     0.943     0.378  28.43   0
       219   1023.4993    535.8937 300.3661553 +22.8380146     843.9109     57.82585      1.000     1.78      3.62585     20.55167     179.6358         8     0.773     0.584 -80.30  24
       220    595.1183    536.3730 300.2324848 +22.7098027     297.2967     72.84459      1.158     2.57     4.555592     20.55167     41.90878         5     0.714     0.453  17.84   0
       221   1014.4003    533.9949 300.3639338 +22.8347439     3713.752     72.65881      0.889     3.59     3.654727     20.55167     1029.761        11     0.883     0.421  61.63   0
       222    930.8503    530.5575 300.3389920 +22.8087317     522.1402     72.88169      1.092     2.04      3.91192     20.55167     103.1029         8     0.738     0.636 -68.24   0
       223    676.9034    530.5114 300.2598605 +22.7326321     909.2808      73.0299      1.172     2.17     4.199305     20.55167      143.045        12     0.859     0.740 -86.13   0
       224    834.1421    526.6280 300.3101180 +22.7786322     902.5693     72.84459      1.104     2.12     4.109379     20.55167     181.0322        12     0.847     0.737 -68.74   0
       225   1011.8008    526.0848 300.3656934 +22.8316919     1535.579     72.73318      0.596     1.37     3.664425     20.55167     757.8666         6     0.561     0.326  11.11   0
       226    792.6509    524.3229 300.2979351 +22.7655390     230.4799     72.84459      1.196     3.04     4.107052     20.55167     38.47148         6     0.835     0.495  45.54   0
       227    818.4388    522.9715 300.3064115 +22.7728770     682.2073     72.88169      1.133     2.02     4.118974     20.55167     114.1472         8     0.695     0.677  17.16   0
       228    799.0099    523.1988 300.3002821 +22.7671213     158.2051     72.65881      1.025     3.16     4.102534     20.55167      52.4302         5     0.793     0.465 -71.04   0
       229    562.7217    521.1957 300.2273295 +22.6957338     3246.036     72.75176      1.142     1.86      4.40749     20.55167     594.7043        21     0.965     0.830  90.00   0
       230     38.5435    512.8298 300.0670378 +22.5361266     258.8185     72.86314      1.186     3.70     3.958206     20.55167     43.88124         6     0.793     0.497 -87.44   0
       231    923.1039    519.7391 300.3400920 +22.8033027      563.962     72.93731      1.282     2.43     3.944041     20.55167     77.04826        10     0.853     0.712  85.10   0
       232    334.3798    508.4272 300.1604219 +22.6236067     234.1083     72.84459      1.338     5.26     4.292681     20.55167      43.6854         7     1.246     0.627  77.65   0
       233    973.9387    499.9825 300.3623651 +22.8128507     1281.789     72.78891      1.191     2.14      3.78673     20.55167     230.6994        14     0.996     0.740  70.02   0
       234    932.5302    498.5900 300.3499035 +22.8000485     883.4815     72.82603      1.105     2.15      3.90643     20.55167     156.9052        14     0.934     0.795 -73.77   0
       235    846.0137    499.7132 300.3225641 +22.7744558     372.7552     72.78891      1.071     1.63     4.311532     20.55167     102.1316         5     0.655     0.424 -18.36   0
       236    582.2673    497.4738 300.2411227 +22.6947808     299.1768     72.91877      1.040     3.48      4.45144     20.55167     63.14671         6     0.981     0.459 -55.20   0
       237    673.3151    495.1032 300.2702477 +22.7213872     1143.119     73.01139      1.110     1.97     4.249321     20.55167     199.2057        14     0.882     0.790  71.77   0
       238    468.9636    495.4877 300.2064977 +22.6602463     432.7971     72.82603      1.034     1.86     4.440113     20.55167     97.97888         6     0.711     0.533  56.92   0
       239    177.5103    493.6236 300.1164572 +22.5723094     662.0486     72.77034      1.274     2.61      4.11448     20.55167     78.35571        12     0.957     0.744  33.79   0
       240     17.1330    491.9841 300.0671596 +22.5237234      205.946     72.82603      1.350     4.19     3.958206     20.55167     31.90542         8     0.838     0.760 -86.02   0
       241    239.6645    489.2316 300.1372052 +22.5896922     3648.375     72.84459      1.197     2.07     4.293907     20.55167     567.6962        23     1.011     0.907  73.50   0
       242    972.7729    487.3215 300.3661152 +22.8088627     4249.585     72.84459      1.174     2.02     3.792665     20.55167     638.2637        28     1.052     0.956 -71.91   0
       243    186.8535    484.0524 300.1224706 +22.5723659     7470.208     72.88169      1.292     2.15     4.177139     20.55167     1170.589        34     1.093     1.022  51.93   0
       244    565.1961    483.2328 300.2404342 +22.6855747     318.9389     72.84459      1.201     3.62     4.328708     20.55167     47.90968         8     1.011     0.555  53.28   0
       245    327.6963    478.2368 300.1681514 +22.6129377     4726.145     72.84459      1.168     1.98     4.366191     20.55167     782.0292        27     1.015     0.907  84.01   0
       246    952.6473    478.4183 300.3627310 +22.8002765      1807.62     72.88169      1.151     2.08     3.850434     20.55167     248.7554        17     0.942     0.832 -83.11   0
       247    571.8474    474.7983 300.2452452 +22.6851462      18120.5     72.84459      1.175     1.83     4.377855     20.55167     3480.683        44     1.062     0.969  79.14   0
       248    419.4384    476.3836 300.1972929 +22.6399139      332.304     72.86314      1.164     2.27     4.419771     20.55167     63.87922         5     0.698     0.480   8.91   0
       249    589.3099    474.8783 300.2506564 +22.6904029     809.1046     72.99287      1.720     5.11     4.476016     20.55167     84.50146        16     1.651     0.657 -37.10   0
       250    414.7155    474.5392 300.1964226 +22.6379685      311.468     72.95583      1.216     3.39     4.418169     20.55167      35.5831         5     0.742     0.448  21.63   0
       251    199.0306    472.7729 300.1299199 +22.5727820     226.3144     72.84459      1.239     2.66     4.269583     20.55167     40.66849         7     0.727     0.658  -2.85   0
       252    815.7429    470.6869 300.3225591 +22.7570476      131.033     72.93731      1.134     2.13     4.442586     20.55167     49.23529         5     0.698     0.445  14.08   0
       253    768.7184    464.9447 300.3097692 +22.7413101     322.6097     72.88169      0.967     1.64     4.462011     20.55167     85.38179         7     0.645     0.613  67.62   0
       254    192.1555    462.0570 300.1312637 +22.5676451     320.8205     72.86314      1.300     3.11     4.296877     20.55167     65.49776         9     1.008     0.657 -17.70   0
       255    905.3514    457.1664 300.3548866 +22.7800037     779.5314     72.88169      1.120     1.80     4.114773     20.55167     149.4788        11     0.923     0.676  11.72   0
       256    442.3235    456.5594 300.2108538 +22.6410837      348.848     72.80747      1.071     2.84     4.512455     20.55167     64.39624         7     0.813     0.602 -83.24   0
       257    126.4987    455.0631 300.1131298 +22.5459442     1951.001     72.95583      1.287     2.34      4.21557     20.55167     292.3861        18     0.971     0.893  69.84   0
       258    615.6216    455.5323 300.2651345 +22.6927324     241.7889     72.82603      1.155     3.02     4.556151     20.55167      53.6485         5     0.772     0.413 -25.42   0
       259    512.4639    444.2735 300.2366741 +22.6585817     6480.813     72.88169      1.126     1.93     4.516151     20.55167     1006.443        31     1.064     0.916  86.13   0
       260    926.1779    444.3693 300.3655379 +22.7825633     1231.433     72.84459      1.145     2.04     3.942671     20.55167     186.0484        13     0.840     0.759  32.41   0
       261    227.2299    443.8701 300.1480744 +22.5729459     541.7683     72.84459      1.193     2.50      4.43746     20.55167      86.3699        11     0.857     0.790  57.45   0
       262     85.1013    436.9746 300.1061419 +22.5283363     536.5691     72.80747      1.160     2.44     4.343317     20.55167     96.96692         9     0.893     0.625 -53.75   0
       263    772.5095    435.9122 300.3203817 +22.7341045     218.2747     73.01139      0.887     2.36     4.454035     20.55167     63.00721         5     0.704     0.560 -14.08   0
       264    626.1783    434.3606 300.2752993 +22.6898151     529.4489     72.88169      1.138     2.25     4.505656     20.55167      81.9386         9     0.819     0.645 -79.68   0
       265    716.6939    432.9964 300.3039372 +22.7165449     1193.593     72.75176      1.221     2.59     4.405221     20.55167     191.2878        13     0.972     0.724  87.00   0
       266    419.1333    430.6352 300.2120585 +22.6266887     6090.512     72.84459      1.142     1.91     4.505949     20.55167     1070.071        29     1.011     0.925  49.76   0
       267    908.4011    424.9593 300.3662997 +22.7716607     619.2585     72.86314      1.229     2.05     4.090187     20.55167      105.883         9     0.809     0.634  26.34   0
       268    811.0280    424.6874 300.3360322 +22.7424179     1357.765     72.84459      1.157     1.87     4.442586     20.55167       263.46        12     0.858     0.692  78.27   0
       269    403.9468    419.2651 300.2110263 +22.6188717     400.9164     72.88169      1.178     2.47     4.506124     20.55167     93.71236         9     0.870     0.651 -76.10   0
       270    486.4502    416.9276 300.2374592 +22.6429319     423.3358     72.84459      1.207     2.40     4.849328     20.55167     72.56628         8     0.755     0.731  49.02   0
       271    765.0010    415.6428 300.3246256 +22.7260313     194.1541     72.82603      1.255     4.93     4.452755     20.55167     43.26287         5     0.962     0.716 -62.01   0
       272    466.5097    414.8790 300.2319186 +22.6363667     245.2587     72.97436      1.154     2.19     4.812076     20.55167     57.03146         5     0.719     0.457 -68.47   0
       273    783.7748    412.2971 300.3315628 +22.7306939     483.5444     72.77034      1.149     2.22     4.448355     20.55167       83.125         9     0.811     0.674 -88.51   0
       274     65.3852    412.1173 300.1080894 +22.5152905     103.1946     72.82603      1.086     4.18      4.53711     20.55167     35.27534         5     0.924     0.539 -43.15   0
       275    306.6481    409.8064 300.1838322 +22.5869848     2502.404     72.84459      1.200     2.04     4.535402     20.55167     402.6227        22     1.016     0.885  81.92   0
       276     25.2360    407.3402 300.0971688 +22.5018756     970.9835     72.86314      1.236     2.32     4.567307     20.55167     132.9138        15     0.932     0.856  55.82   0
       277    654.5650    404.2538 300.2939189 +22.6896729     330.0139     72.86314      1.046     1.86     4.365028     20.55167     56.33553         5     0.639     0.483 -74.46   0
       278    254.2077    402.8412 300.1697873 +22.5692612     140.0322     72.86314      1.114     2.78     4.540636     20.55167     37.89985         6     0.740     0.557 -37.73   0
       279    276.0162    399.2932 300.1777207 +22.5747823     29475.85     72.77034      1.230     2.07     4.575593     20.55167     4718.205        57     1.146     1.056  64.02   0
       280    810.6600    396.5404 300.3450594 +22.7342193     1294.916     72.91877      1.048     2.09     4.450622     20.55167      212.044        14     0.860     0.757  66.12   0
       281    766.2174    394.6148 300.3318342 +22.7203537       226.56     72.82603      1.066     3.75     4.455136     20.55167     51.30617         5     0.878     0.459 -48.42   0
       282    725.9801    385.5189 300.3222505 +22.7056865     463.5903     72.82603      1.019     2.02     4.430739     20.55167     96.36331         9     0.815     0.621  67.09   0
       283    849.7673    385.0773 300.3609724 +22.7426381     224.9373     72.82603      1.710     4.83     4.470757     20.55167     31.22483         7     1.498     0.441 -39.11   0
       284    374.4103    384.3344 300.2131812 +22.5999884     462.4977     72.80747      1.074     2.88     4.679831     20.55167     75.45885         8     0.898     0.562  74.28   0
       285    149.9676    385.2392 300.1430997 +22.5329489     534.4976     72.88169      1.376     2.72     4.518343     20.55167     60.60017         8     0.803     0.645  47.37   0
       286    686.3685    378.7421 300.3121106 +22.6918725     1872.822     72.86314      1.106     1.96     4.326174     20.55167     315.2678        17     0.925     0.832  84.88   0
       287    494.6170    373.4189 300.2541308 +22.6328854     328.4714     72.82603      1.057     2.78     4.816117     20.55167     57.82457         6     0.883     0.418 -71.45   0
       288    901.2048    371.5267 300.3814097 +22.7541477     654.7224     72.78891      1.181     2.07     4.407142     20.55167     97.43214         8     0.748     0.620  89.41   0
       289    348.1540    363.5052 300.2117772 +22.5861371     2028.229     72.86314      1.361     2.91     4.748894     20.55167     289.3618        20     1.194     0.863  69.14   0
       290    560.6375    362.4364 300.2782492 +22.6495162     339.0224     72.91877      1.033     2.26     4.389618     20.55167      60.7818         5     0.688     0.472  17.59   0
       291    787.3148    356.3378 300.3508391 +22.7156737     732.4468     72.97436      1.212     1.96     4.459794     20.55167     132.3666        12     0.875     0.727 -53.41   0
       292    686.6100    354.0241 300.3202124 +22.6848431     393.5659     72.84459      1.335     2.79     4.340946     20.55167     49.34001         6     0.778     0.486 -86.25   0
       293    669.7805    353.8900 300.3150135 +22.6797627     362.8661     72.78891      1.059     2.05     4.320798     20.55167     87.52567         8     0.758     0.640 -40.56   0
       294    637.6130    353.2408 300.3052050 +22.6699390     380.4797     72.86314      1.557     3.76     4.463086     20.55167     56.40079         7     0.957     0.739 -51.62   0
       295    748.5359    346.8164 300.3418463 +22.7013223     216.1479     72.82603      1.250     3.34     4.460448     20.55167     39.24611         5     1.007     0.629  26.13   0
       296    424.1228    342.9821 300.2420754 +22.6030165     1118.976     72.84459      1.197     2.01     4.979486     20.55167     217.8997        11     0.848     0.694  22.61   0
       297    509.1462    340.2577 300.2694208 +22.6277157     279.0411     72.90024      0.989     2.30     4.746321     20.55167     44.88374         6     0.716     0.554  54.44   0
       298    935.1738    338.4946 300.4027285 +22.7548237     307.1494     72.78891      1.010     2.16     4.454709     20.55167     64.91293         5     0.697     0.460  22.00   0
       299    807.2037    336.1198 300.3636027 +22.7158200     251.2047     72.75176      1.134     2.23     4.463908     20.55167     61.53094         6     0.716     0.547  49.73   0
       300    829.8354    335.5895 300.3708291 +22.7224454     279.4881     72.84459      1.295     3.44     4.477172     20.55167     37.24092         5     0.746     0.458  17.70   0
       301    668.8547    334.6771 300.3209635 +22.6739653     2229.169     72.88169      1.126     1.99     4.379333     20.55167     406.0803        17     0.870     0.830  69.44   0
       302    930.0831    328.9285 300.4042470 +22.7505493     3052.234     72.97436      1.170     1.88     4.507082     20.55167     618.1471        23     0.956     0.912  38.41   0
       303    991.3538    323.6626 300.4250663 +22.7673792     364.7014     72.88169      1.031     2.37     3.888548     20.55167     66.18065         7     0.795     0.585  23.65   0
       304    301.6725    320.5218 300.2112758 +22.5598621    -262.7841     72.95583      0.000     4.58     4.938085     20.55167     41.27392         6     0.936     0.637  65.46   0
       305    576.7214    318.4211 300.2975481 +22.6416920     3596.885     72.84459      0.965     3.80     4.752181     20.55167     1286.582        10     1.013     0.410  62.41   0
       306    376.9303    318.2846 300.2354108 +22.5817793     811.0842     72.95583      1.424     3.90     4.972675     20.55167     93.39082        10     1.085     0.651  54.67   0
       307    999.5222    316.8295 300.4298329 +22.7678598     1602.239     72.84459      1.139     1.84     3.816564     20.55167     279.0642        16     0.961     0.788  80.14   0
       308     52.0856    313.0810 300.1361133 +22.4828859     1364.866     72.99287      1.489     2.99     4.653409     20.55167     156.9496        19     1.185     0.879 -39.51   0
       309     82.6130    312.7473 300.1457058 +22.4919459       523.04     72.88169      1.162     2.62     4.567266     20.55167     106.7158         9     0.942     0.630  60.35   0
       310    945.8173    309.2241 300.4155513 +22.7495952     523.7676     72.84459      1.126     1.63     4.352304     20.55167     101.3633         6     0.649     0.526 -58.41   0
       311    789.5048    306.0697 300.3678429 +22.7018827     392.5572     72.97436      1.172     2.22     4.460448     20.55167     71.75928         8     0.782     0.653   8.68   0
       312    135.9407    305.2458 300.1647116 +22.5057857     504.0117     72.88169      1.329     3.07     4.515561     20.55167     85.20534        11     1.008     0.812 -50.08   0
       313    811.9703    298.4559 300.3773166 +22.7064222     359.6043     72.84459      1.077     2.36     4.461663     20.55167     73.32173         7     0.854     0.560  63.50   0
       314    740.4200    295.9278 300.3558393 +22.6842672     545.6749     72.88169      1.073     2.07     4.460448     20.55167      114.221         9     0.862     0.664  37.44   0
       315    330.6281    295.9270 300.2282656 +22.5614806     440.0468     72.86314      1.088     2.65     5.063512     20.55167     70.97806         8     0.783     0.697  55.55   0
       316    876.7930    289.1624 300.4005409 +22.7231613     135.5959     72.86314      1.071     3.37     4.469872     20.55167     36.74491         5     0.966     0.341  46.42   0
       317    831.0900    289.2629 300.3862606 +22.7095052     377.3114     72.93731      1.129     1.88     4.460448     20.55167     76.27977         7     0.689     0.621   1.55   0
       318    838.6577    285.0506 300.3899870 +22.7105604     2038.533     72.90024      1.162     1.96     4.448494     20.55167     349.5979        16     0.927     0.785  69.96   0
       319    257.1759    282.6685 300.2097267 +22.5356550     2091.059     72.84459      1.196     2.10     4.817012     20.55167     337.9484        18     0.998     0.856  66.87   0
       320    335.1164    277.5878 300.2356145 +22.5575600     1027.314     72.80747      1.308     2.66      5.06736     20.55167     145.8027        14     0.987     0.836 -21.32   0
       321     86.7726    277.7804 300.1583483 +22.4831587      402.155     72.84459      1.464     2.95     4.583368     20.55167     63.19165         8     0.931     0.738  70.66   0
       322    736.9154    276.7354 300.3609775 +22.6777018     496.6895     72.93731      1.133     1.87     4.425978     20.55167     110.9316         8     0.704     0.655 -61.57   0
       323    844.2448    273.7285 300.3954039 +22.7089787     224.6586     72.80747      1.113     2.84     4.415393     20.55167     67.69293         8     0.881     0.642 -66.64   0
       324    151.9071    269.7128 300.1812073 +22.5003746     611.9478     73.01139      1.273     3.47     4.593557     20.55167     113.0988        10     1.038     0.652 -67.14   0
       325    689.6992    266.5199 300.3495830 +22.6606243     1595.759     72.97436      1.150     2.03     4.527066     20.55167     277.4342        19     0.981     0.891  72.46   0
       326    754.8440    266.0064 300.3700467 +22.6799876     587.6616     72.86314      1.250     2.99      4.39438     20.55167     95.89012        12     0.944     0.855  -3.79   0
       327      4.6397    267.1571 300.1362816 +22.4554780     211.5377     71.40161      1.021     3.50      5.05113     20.55167     36.14952         5     0.986     0.359   3.86  16
       328    454.0398    263.7569 300.2771037 +22.5892292     8490.504      72.9373      0.628     1.00     4.938383     20.55167     4612.291        11     0.553     0.461 -87.85   0
       329    173.4356    263.2158 300.1900073 +22.5049647     622.3619     72.84459      1.219     2.47     4.633919     20.55167     84.32032        10     0.805     0.793   9.05   0
       330    463.3267    259.0611 300.2815180 +22.5906633     319.4234     72.88169      1.176     3.63     4.928663     20.55167     68.53089         7     1.116     0.394  75.93   0
       331    961.1972    258.7058 300.4367476 +22.7396738     913.9169     72.75176      1.244     2.24     4.387398     20.55167     157.4229        12     0.888     0.757 -66.86   0
       332    693.7292    258.0872 300.3535756 +22.6594080      809.803     72.99287      1.202     2.00     4.532663     20.55167     135.9862        11     0.821     0.740 -61.61   0
       333    614.2115    257.2924 300.3290656 +22.6353611     1240.922     72.78891      1.223     2.20     4.934933     20.55167     181.3169        16     0.973     0.832  67.71   0
       334    435.7337    253.9486 300.2745904 +22.5809264     301.8111     72.86314      1.281     3.16     4.918944     20.55167     52.68079         7     0.832     0.657  35.00   0
       335    809.6593    248.8102 300.3927115 +22.6914595     1344.419     72.80747      1.158     2.04     4.344449     20.55167     221.1477        15     0.891     0.825 -87.74   0
       336    540.2930    249.0635 300.3087202 +22.6108524     774.6746     72.95583      1.095     2.14     4.843528     20.55167     154.9791        10     0.805     0.667  73.95   0
       337    821.8832    247.8170 300.3968440 +22.6948342     793.6559     72.80747      1.110     1.95     4.340049     20.55167     145.9321        11     0.829     0.712 -68.95   0
       338    868.3681    246.8022 300.4116644 +22.7084607     254.2589     72.80747      1.172     2.72     4.342889     20.55167     64.60852         6     0.882     0.612 -14.37   0
       339    982.6135    238.6279 300.4499443 +22.7403108     1601.124     72.84459      1.159     2.17     4.426524     20.55167     248.4999        17     0.924     0.882  71.14   0
       340    938.4437    237.9813 300.4363780 +22.7269032     1171.004     72.86314      1.217     2.21     4.560315     20.55167     169.9769        12     0.808     0.739 -65.36   0
       341    167.9928    235.2937 300.1973773 +22.4953175     5490.128     72.73318      0.524     0.92     4.769125     20.55167     3421.803         7     0.477     0.305  88.71   0
       342    172.7165    231.6584 300.2000253 +22.4956901     829.7081     72.95583      1.344     4.55     4.783611     20.55167     97.50317        15     1.271     0.897  76.87   0
       343    841.3971    231.2332 300.4083093 +22.6959094     165.0043     72.82603      1.245     3.37     4.286767     20.55167     37.35064         5     0.747     0.440  69.25   0
       344    125.7022    228.3813 300.1864770 +22.4806536     164.0715     72.77034      1.265     3.47     4.721016     20.55167     33.37985         5     0.752     0.462 -14.51   0
       345     34.4104    226.2929 300.1587903 +22.4526796     2230.544     72.78891      1.378     2.72     5.097826     20.55167     245.9252        21     1.106     0.926  59.81   0
       346    857.6190    222.9883 300.4160422 +22.6983958     758.7623     72.80747      1.096     1.97     4.287276     20.55167     135.9484        10     0.807     0.677   6.87   0
       347    191.7701    219.5594 300.2098741 +22.4979288     5451.135     72.86314      1.276     2.29     4.835165     20.55167     788.4042        33     1.168     0.993  52.30   0
       348    903.3323    219.6381 300.4313821 +22.7111179      178.189     72.80747      1.466     3.85     4.508323     20.55167     33.96286         5     1.039     0.409 -75.88   0
       349    175.0891    210.1299 300.2077487 +22.4902209      642.687     73.01139      1.290     2.44     4.866137     20.55167     92.52657         9     0.779     0.724  47.11   0
       350    990.6528    206.6951 300.4628156 +22.7335334     17918.77     72.91877      1.205     2.09     4.685915     20.55167     2827.881        49     1.127     1.060  71.64   0
       351    141.9608    208.9056 300.1978494 +22.4799376      1076.28     72.86314      0.471    -6.23     4.830414     20.55167     792.8141         6     0.396     0.337  59.07   0
       352    835.8398    200.8210 300.4164465 +22.6855020     3472.416     72.88169      1.193     2.01     4.498434     20.55167     621.3479        23     1.027     0.857  77.20   0
       353    939.6421    199.5305 300.4492304 +22.7162048     2819.158     72.80747      1.141     2.05     4.761965     20.55167     413.2927        23     1.016     0.947 -60.88   0
       354    385.3744    196.2977 300.2776301 +22.5492766      485.593     72.80747      1.111     2.32     4.935114     20.55167      83.6936        10     0.802     0.756 -34.56   0
       355    138.0950    196.9040 300.2005423 +22.4753333     247.0418     73.01139      1.158     2.68      4.86963     20.55167     53.73433         7     0.805     0.645 -64.26   0
       356    499.6623    193.8750 300.3139818 +22.5828240     336.6638     72.90024      1.294     2.66     4.754306     20.55167     48.31849         6     0.724     0.613 -22.27   0
       357    309.3835    188.0266 300.2566757 +22.5241283     542.4336     72.86314      1.291     3.32     5.091264     20.55167     67.82966        10     1.001     0.717  56.56   0
       358    313.6494    186.7818 300.2584063 +22.5250493     265.0731     72.84459      1.038     2.70     5.082649     20.55167     48.07343         6     0.708     0.617 -18.74   0
       359     75.5486    184.9206 300.1849948 +22.4531408     610.1085     72.84459      1.271     2.96     4.954356     20.55167      97.9343        11     1.086     0.655  53.80   0
       360    436.7240    183.4703 300.2977696 +22.5609783     1599.351     72.91877      1.135     2.16     4.839518     20.55167     235.6848        16     0.941     0.820  54.21   0
       361    364.7802    183.8405 300.2752651 +22.5395273      497.983     72.88169      1.184     2.23     4.994497     20.55167     82.69184         8     0.799     0.626 -74.75   0
       362    498.4614    182.7471 300.3172187 +22.5792671     405.4764     72.90024      1.181     1.82     4.721128     20.55167     61.51367         5     0.643     0.474 -69.33   0
       363    179.9814    178.9116 300.2193986 +22.4827248     363.2267     72.78891      1.202     2.94     4.970923     20.55167     67.72786         8     0.818     0.736  17.74   0
       364    725.1656    172.5001 300.3911445 +22.6442227     401.3256     72.82603      1.105     1.55     4.568911     20.55167     66.56518         5     0.630     0.450  29.53   0
       365    871.1467    167.0778 300.4384026 +22.6863694     385.5582     72.88169      1.215     2.30     4.926566     20.55167     58.77501         6     0.724     0.532  62.90   0
       366    996.6647    165.9785 300.4779032 +22.7236217     365.4791     72.80747      1.273     3.16     5.061596     20.55167     38.76818         7     0.747     0.642  75.05   0
       367   1001.1323    163.9850 300.4799437 +22.7243853     3348.215     72.84459      1.234     2.06     5.085061     20.55167     574.7867        22     0.977     0.908  59.06   0
       368    210.7726    163.4281 300.2339937 +22.4875088     5851.023     72.80747      1.241     2.16     5.058486     20.55167     849.3172        29     1.104     0.971  78.60   0
       369    717.4249    163.3349 300.3917064 +22.6392702     411.5065     72.82603      1.131     3.28     4.629713     20.55167     74.96628         6     0.869     0.540 -32.06   0
       370     61.8878    162.6772 300.1879669 +22.4426600     711.3065     72.99287      1.318     2.49      5.05933     20.55167      95.0677        11     0.929     0.706  81.83   0
       371    182.5576    157.7047 300.2270795 +22.4774081     251.2771     72.86314      1.042     2.93     5.035118     20.55167     46.57607         5     0.724     0.439  66.26   0
       372    226.0798    154.4584 300.2416626 +22.4895213     367.1988     72.90024      1.558     2.43     5.074091     20.55167     46.68129         6     0.758     0.498   0.20   0
       373    456.7560    148.6733 300.3152932 +22.5569832      6137.65     72.82603      1.198     2.11     4.644319     20.55167     1027.522        27     1.023     0.928 -84.61   0
       374    342.0429    148.4917 300.2796606 +22.5225607     630.2206     72.84459      1.154     2.32     5.055035     20.55167     97.45428        10     0.891     0.649  59.00   0
       375    513.7283    142.9578 300.3348802 +22.5724080      273.656     72.82603      1.221     3.70     4.691977     20.55167     54.11041         6     0.919     0.564  32.20   0
       376    650.5859    139.5109 300.3786139 +22.6124071     372.9377     72.78891      1.134     2.51     4.769034     20.55167     56.89014         6     0.829     0.448  72.97   0
       377    709.2737    138.1588 300.3973348 +22.6295922     975.4993     72.82603      1.575     3.18     4.721478     20.55167     94.55725        14     1.070     0.825 -63.89   0
       378    801.8224    137.0049 300.4265491 +22.6569693     376.2715     72.80747      1.165     2.66     4.832973     20.55167     80.19917         7     0.890     0.526  74.97   0
       379    870.8815    133.6428 300.4491675 +22.6766752     97.18661     72.80747      1.362     4.72     5.000078     20.55167     37.39651         5     1.039     0.607 -72.03   0
       380    149.7051    132.7514 300.2249631 +22.4603956     452.1733     72.90024      1.255     2.40      5.03919     20.55167     64.42009         8     0.823     0.613 -75.96   0
       381    508.0820    131.0213 300.3369948 +22.5672867     612.4695     72.80747      1.441     2.57     4.605933     20.55167     80.17573         9     0.809     0.774 -79.90   0
       382    585.1611    128.7192 300.3617392 +22.5897119     6049.173     72.80747      1.180     1.92     4.805704     20.55167     1121.232        28     1.025     0.919  78.84   0
       383    360.1292    127.7001 300.2920314 +22.5220077     1532.551     72.97436      1.179     2.03     4.931135     20.55167     264.0885        15     0.904     0.796 -67.97   0
       384    626.1788    125.9185 300.3754214 +22.6011910     819.1356     72.80747      1.130     2.12     4.782691     20.55167     155.7181        10     0.843     0.646  83.23   0
       385    696.1183    123.6656 300.3979379 +22.6214867      389.663     72.95583      1.363     2.75      4.76946     20.55167     48.75608         6     0.733     0.606  66.64   0
       386    642.2168    122.0182 300.3816818 +22.6048727     587.1824     72.82603      1.180     2.22     4.786593     20.55167     109.0443         9     0.826     0.668 -79.27   0
       387    108.9193    120.3418 300.2163133 +22.4446065     621.9495     72.88169      1.248     2.15     5.055346     20.55167     100.7615         9     0.770     0.712  79.40   0
       388    951.5051    119.0788 300.4790331 +22.6966169     330.7491     72.95583      1.160     3.26     5.085066     20.55167     62.92677         7     0.985     0.714 -23.14   0
       389    912.0508    119.2622 300.4666694 +22.6848618     542.6628     72.90024      1.168     2.36     5.053851     20.55167     84.77673         8     0.786     0.642  47.04   0
       390    680.6359    117.3882 300.3951510 +22.6150462     589.7595     72.82603      1.271     3.03     4.789051     20.55167     69.00706        10     0.945     0.753  83.76   0
       391    629.2663    113.5331 300.3804007 +22.5985557     2677.372     72.90024      1.166     2.20     4.794397     20.55167     396.1012        19     1.016     0.821  64.82   0
       392    270.0969    114.4666 300.2683217 +22.4912282     425.9173      72.9373      1.203     3.66     5.035171     20.55167     64.50893         8     1.052     0.565  33.22   0
       393    644.3638    112.0569 300.3855818 +22.6026524     858.2515     72.84459      1.526     3.53     4.796349     20.55167     116.8857        16     1.442     0.727  49.42   0
       394    715.7757    104.9922 300.4101195 +22.6220041     1504.199     72.84459      1.212     2.13     4.816526     20.55167     265.1589        17     0.968     0.817  75.22   0
       395    876.0732    103.4880 300.4605683 +22.6695571     316.5272     72.99287      1.040     2.31      5.01712     20.55167     53.19145         6     0.741     0.500  -0.88   0
       396    794.0045     99.7690 300.4361914 +22.6439221     189.4484     72.82603      1.131     3.58     4.946607     20.55167     49.64613         5     0.994     0.413  69.91   0
       397    653.8495     98.0643 300.3930751 +22.6014705     617.5519     72.90024      1.236     3.02     4.810005     20.55167     99.69859        11     0.973     0.782  76.70   0
       398    459.4073     97.7611 300.3326334 +22.5431491     1099.283     72.88169      1.143     2.22     4.374971     20.55167     163.1685        14     0.887     0.835 -77.09   0
       399     32.2054     97.8127 300.1997859 +22.4151408     534.2239     72.71459      1.249     2.57     5.762789     20.55167     69.65086         8     0.764     0.677  50.00   0
       400    363.2151     95.7150 300.3033662 +22.5137440     726.4831     72.80747      1.284     2.56     4.780576     20.55167     124.3079        12     0.924     0.791  41.46   0
       401    745.1157     94.3082 300.4227270 +22.6277164     520.1513     73.01139      1.086     3.14     4.875699     20.55167     71.13911         8     1.010     0.559  44.25   0
       402   1006.1736     92.4889 300.5047107 +22.7053271      2384.12     72.80747      1.255     2.19     5.107417     20.55167     347.2732        21     1.032     0.952 -68.61   0
       403    134.7175     86.0454 300.2354540 +22.4424923     3797.255     72.80747      1.366     2.31     5.080229     20.55167     481.8817        29     1.197     1.010  55.27   0
       404    703.0790     86.1181 300.4122857 +22.6127764      781.839     72.97436      1.408     4.09     4.856111     20.55167     97.66122        15     1.430     0.801 -27.49   0
       405    265.5698     86.7274 300.2759110 +22.4819044      159.636     72.84459      0.934     3.42     4.985521     20.55167     40.30516         5     0.769     0.439  68.80   0
       406    556.9904     82.7788 300.3678691 +22.5680715     303.1442     72.82603      1.197     3.10     4.775378     20.55167     51.50729         7     0.733     0.661  47.93   0
       407    250.6871     78.4126 300.2739798 +22.4750564     1250.746     72.78891      1.299     2.50     4.963574     20.55167     156.3594        19     1.404     0.801  66.23   0
       408    696.0654     78.2225 300.4126615 +22.6084065     999.6972     72.82603      1.259     2.21     4.869704     20.55167     151.4221        13     0.934     0.781 -51.96   0
       409    661.3916     77.2062 300.4021896 +22.5977327     413.2987     72.69601      1.313     3.55     4.857011     20.55167     34.55628         6     0.717     0.652 -27.93   0
       410    477.1694     74.8890 300.3455797 +22.5418972     379.5103     72.82603      1.546     3.46     4.489477     20.55167     43.05354         6     1.002     0.637  87.63   0
       411    733.9355     73.0024 300.4261536 +22.6182433     790.9473     72.84459      1.443     3.89     4.897884     20.55167      86.1652        12     1.291     0.682  69.49   0
       412    657.1996     73.0449 300.4022334 +22.5952813     469.0367     72.84459      1.116     2.33       4.8648     20.55167     83.17865         6     0.810     0.479  59.78   0
       413    753.6524     69.5133 300.4334291 +22.6231426     2231.963     72.88169      1.171     2.14     4.921804     20.55167     337.5405        18     1.009     0.822  70.10   0
       414    459.4686     67.9490 300.3423213 +22.5346010     415.7879     72.82603      1.091     2.08     4.597732     20.55167     89.36408         8     0.720     0.673  -8.48   0
       415    137.1375     65.0462 300.2430162 +22.4371877     1023.969     72.86314      1.294     2.44      5.08239     20.55167     147.8687        14     1.055     0.776  65.30   0
       416    928.7117     62.7651 300.4901904 +22.6735973     699.0533     72.82603      1.172     2.29     5.118918     20.55167     128.1213         9     0.860     0.681  51.97   0
       417    702.1703     62.0388 300.4198122 +22.6055813     879.6472     72.84459      1.227     2.18     4.907183     20.55167      136.835        12     0.892     0.734  74.01   0
       418    409.2881     60.2969 300.3291873 +22.5173708     466.1403      73.0299      1.354     2.24     4.754213     20.55167     71.03323         6     0.796     0.491 -46.84   0
       419    123.9937     59.9541 300.2405826 +22.4317860     276.4007     72.86314      1.206     5.08     5.086448     20.55167     28.63323         7     1.113     0.655  68.09   0
       420    459.6046     54.2932 300.3467922 +22.5307175     425.5824     72.73318      1.239     3.17     4.706232     20.55167     48.61016         7     0.945     0.456  77.63   0
       421    286.7621     51.4321 300.2939475 +22.4781162     298.3151     72.88169      1.059     1.97     4.976129     20.55167     64.82161         5     0.678     0.447 -24.79   0
       422    554.6112     46.7661 300.3788076 +22.5570081     816.3741     72.82603      1.250     2.35     4.811441     20.55167     118.9074        12     0.894     0.752 -63.26   0
       423    787.1756     45.8309 300.4515568 +22.6263673     283.4293     72.84459      1.331     3.33      4.96461     20.55167     49.61692         5     0.937     0.379  87.68   0
       424    289.2761     44.8506 300.2968635 +22.4769788     441.2566     72.84459      1.373     2.47     4.977132     20.55167     56.69631         7     0.822     0.556  54.20   0
       425    163.9991     44.2389 300.2581121 +22.4392631      570.961     72.86314      1.245     2.17     5.065955     20.55167     75.64848         8     0.747     0.641  29.27   0
       426    125.7102     43.9919 300.2462921 +22.4277168     280.5363     72.75176      1.487     3.75     5.088628     20.55167     32.25993         5     0.815     0.496  37.40   0
       427    717.9388     41.5115 300.4313820 +22.6043998     766.3051     72.91877      1.282     2.35     4.951857     20.55167     130.5955        13     1.069     0.746  63.34   0
       428    526.3862     39.9286 300.3722374 +22.5465903     1815.842     72.84459      1.261     2.34      4.80495     20.55167     264.2942        20     1.060     0.879  67.61   0
       429    249.1536     37.6226 300.2867305 +22.4628806     665.2303     72.86314      1.251     2.50     4.886458     20.55167     91.60702        11     0.900     0.723 -71.36   0
       430    422.3649     37.2670 300.3407244 +22.5146704     275.8083     72.84459      1.220     4.30     4.851685     20.55167      44.4824         5     0.756     0.724  40.37   0
       431    483.7027     33.9215 300.3608985 +22.5320807      1396.83     72.95583      1.241     1.86     4.860777     20.55167     245.2988        14     0.914     0.771 -80.78   0
       432    589.1346     30.4585 300.3948454 +22.5626585     1354.161     72.88169      1.232     2.12     4.882553     20.55167     212.5946        15     0.940     0.853  45.62   0
       433    184.1600     29.4029 300.2691895 +22.4410440     509.0751     72.86314      1.302     2.61     4.980285     20.55167     64.56967        11     0.928     0.712  70.58   0
       434    233.1465     27.3994 300.2850683 +22.4551477      468.461     72.80747      1.326     1.98      4.82395     20.55167     86.80829         8     0.760     0.658 -49.13   0
       435    409.4568     24.4342 300.3408689 +22.5071164     2057.115     72.86314      1.185     2.22     4.912169     20.55167     279.5883        18     1.006     0.847  76.76   0
       436     56.5943     22.4455 300.2318022 +22.4008138     1464.229     72.84459      1.410     3.02     5.638289     20.55167     165.2896        22     1.231     0.997 -88.25   0
       437    900.2591     21.7519 300.4946181 +22.6532851     243.4348     72.90024      1.046     3.65     5.071961     20.55167     49.94396         7     0.841     0.602  41.32   0
       438    540.3443     18.7921 300.3834366 +22.5446950     441.8683     72.84459      1.206     3.01     4.838678     20.55167     70.35301         9     0.909     0.738 -54.85   0
       439    678.9855     15.1751 300.4277861 +22.5851659     327.2634     72.86314      1.715     4.93     5.013016     20.55167     40.25499         8     1.177     0.584 -47.59   0
       440    199.3352     16.6369 300.2780461 +22.4419249     224.7687     72.84459      1.029     2.91     4.897652     20.55167     40.99744         5     0.724     0.453 -16.64   0
       441    884.0835     13.0818 300.4923857 +22.6459507     303.6958     72.97436      1.114     2.17     5.037633     20.55167     64.28291         7     0.820     0.512  44.22   0
       442     40.8102    999.5035 299.9094685 +22.6763111     3788.724     72.77034     13.717    50.55     12.21035     20.55167     90.46001       789    11.604     6.111 -32.49  27
