#   1 NUMBER                 Running object number                                     
#   2 X_IMAGE                Object position along x                                    [pixel]
#   3 Y_IMAGE                Object position along y                                    [pixel]
#   4 ALPHA_J2000            Right ascension of barycenter (J2000)                      [deg]
#   5 DELTA_J2000            Declination of barycenter (J2000)                          [deg]
#   6 FLUX_APER              Flux vector within fixed circular aperture(s)              [count]
#   7 FLUXERR_APER           RMS error vector for aperture flux(es)                     [count]
#   8 FLUX_RADIUS            Fraction-of-light radii                                    [pixel]
#   9 FWHM_IMAGE             FWHM assuming a gaussian core                              [pixel]
#  10 BACKGROUND             Background at centroid position                            [count]
#  11 THRESHOLD              Detection threshold above background                       [count]
#  12 FLUX_MAX               Peak flux above background                                 [count]
#  13 ISOAREA_IMAGE          Isophotal area above Analysis threshold                    [pixel**2]
#  14 A_IMAGE                Profile RMS along major axis                               [pixel]
#  15 B_IMAGE                Profile RMS along minor axis                               [pixel]
#  16 THETA_IMAGE            Position angle (CCW/x)                                     [deg]
#  17 FLAGS                  Extraction flags                                          
         1    100.2461     19.8944 300.1999177 +22.4151289     624.3234     72.12614      1.561     6.00      5.61791      20.3438     66.71033        11     1.536     0.659 -80.53   0
         2    202.5168      8.4096 300.2354308 +22.4424596     3935.125     72.05266      1.553     2.53     4.835844      20.3438     521.0148        37     1.275     1.220  78.06  16
         3    770.5485      9.1855 300.4120190 +22.6126942     646.9423     72.12614      1.391     2.86     5.364571      20.3438     78.76958         8     0.801     0.688  52.94   0
         4    625.3914      5.5851 300.3679538 +22.5682317     395.3376     72.01588      1.747     3.84     4.456592      20.3438     42.96361         8     0.953     0.820   3.66  16
         5    528.8417      5.9497 300.3377659 +22.5394447     466.7517     72.12614      1.514     5.02     4.259956      20.3438     42.74847         8     1.149     0.666   0.46  16
         6    764.0007      1.4424 300.4124866 +22.6085080     711.7043     56.72965      0.980     2.58     5.319276      20.3438     128.1402         7     0.860     0.493  -5.01  24
         7    318.5719      1.3175 300.2738232 +22.4751721     687.3138     56.02491      1.015     2.69     5.848766      20.3438     163.1346         9     1.042     0.459  -4.65  24
         8    386.7552   1003.4102 299.9697263 +22.7833153     380.6267     72.12614      1.458     6.11     4.502972      20.3438     36.70521        10     1.412     0.743  35.92   0
         9    279.1990   1018.8743 299.9312400 +22.7554806     2872.012      71.9975      6.873    35.98     32.86914      20.3438     66.05186       231     7.606     4.725  58.93  27
        10    231.4770    991.0053 299.9254670 +22.7331705     4657.822     72.01588      8.903    29.70     61.69065      20.3438     99.29486       384     6.893     4.683 -80.05  19
        11    250.4395    990.5414 299.9315138 +22.7387274     6337.333     72.10778     14.283    55.15     47.32204      20.3438     111.9859       908    12.372     7.661 -63.63  19
        12    269.6153    979.1764 299.9411734 +22.7412224     9086.695     72.10778     12.002    40.78      27.9171      20.3438     179.2786      1049    13.368     5.767  69.25  19
        13    163.5809   1011.9432 299.8975494 +22.7187977     860.3075     72.10778      1.721     4.97     97.54249      20.3438     41.42847         9     1.491     0.469  85.34   2
        14    198.5668    981.8149 299.9182249 +22.7206600      1554.25     72.08941      3.365    10.65     64.62974      20.3438     61.02467        28     1.852     1.707 -85.35   2
        15    107.5486    921.5889 299.9095226 +22.6760802     4022.586     72.10778     17.587    49.27     12.49974      20.3438     1159.153       850    10.894     6.574 -37.47   3
        16    529.6271    981.2042 300.0214151 +22.8197977     355.9026     72.07104      1.505     3.42     3.729186      20.3438     32.44476         5     0.770     0.439 -71.32   0
        17    957.3133    975.3128 300.1566056 +22.9463064     787.2184     72.23623      2.086     6.58     4.268548      20.3438     46.08775        18     1.408     1.236 -71.03   0
        18    196.8970    976.0128 299.9195930 +22.7184954     906.1959      71.9975      3.857     7.18     60.12796      20.3438     41.62382        12     1.547     0.933  47.93   3
        19      5.0937   1015.4750 299.8471570 +22.6722368     3331.417     71.75797     12.002    48.96    -29.63468      20.3438     73.20728       499    10.416     6.385 -72.61  27
        20      3.2886    970.6554 299.8611748 +22.6588511     1109.251     65.94905      7.132     8.95     -14.0637      20.3438     35.39312        17     2.031     1.101 -72.45  27
        21    166.1984   1008.9779 299.8993276 +22.7187332     -52.0137     72.03427      1.454     5.35     94.54211      20.3438     27.59463         5     1.069     0.754  78.13   3
        22    161.4425    961.8861 299.9131669 +22.7038060      1171.25     72.07104      5.915     8.11     55.96243      20.3438     38.17186        16     1.700     1.080  15.92   2
        23    174.6769    961.7213 299.9173342 +22.7077303     1035.702      72.2179      4.339     9.80     53.10347      20.3438     43.77645        17     2.432     1.102 -11.31   2
        24     25.0211    999.1639 299.8586526 +22.6735449     1108.211     72.12614      6.266    10.10    -2.463916      20.3438     38.12577        18     1.787     1.592  36.38   3
        25    578.1207    996.2856 300.0316079 +22.8386667     2502.905     72.27289      1.858     4.40     3.671175      20.3438     172.9031        31     1.396     1.351  77.00   0
        26    664.6108    991.5723 300.0600784 +22.8632471     8581.823     72.10778      1.887     4.20     3.680407      20.3438     510.6961        43     1.482     1.375  45.55   3
        27    562.4660    952.9341 300.0408349 +22.8215336     366.1021     72.16286      1.958     6.20     3.755661      20.3438     36.65967         8     1.280     0.843 -42.70   0
        28    120.0863   1012.6517 299.8838013 +22.7059464     3064.686     72.12614     13.640    76.99     90.60242      20.3438     122.3561      1302    20.161     8.158  45.18  27
        29    835.5836    952.2400 300.1261524 +22.9032050     350.0844     72.12614      1.661     4.11       3.8064      20.3438     42.82676         6     1.287     0.374  74.91   0
        30    109.3125    953.9115 299.8995594 +22.6858755     5164.553     72.27289     21.959    90.36      35.8241      20.3438     226.8751      2629    15.602    14.521  -1.65  19
        31    682.9800    958.6766 300.0765015 +22.8593131     6878.768     72.10778      1.835     4.05     3.801513      20.3438     473.3963        45     1.476     1.377  -0.41   0
        32      2.3472    995.6582 299.8527501 +22.6657335     2019.352     61.63062     13.994    21.28     -25.3689      20.3438     59.51996       100     6.418     1.960 -82.72  27
        33    591.3979    949.2371 300.0510465 +22.8291476     1500.181     72.12614      1.813     4.64      3.74868      20.3438     103.2201        25     1.352     1.236 -47.51   0
        34    485.1518    945.7003 300.0191185 +22.7962740     1104.701      72.1445      1.840     4.35     3.813515      20.3438     87.44099        18     1.174     1.084   2.41   0
        35    415.8648    943.7517 299.9981889 +22.7749352     6577.077     72.12614      1.761     3.92     4.346835      20.3438      549.196        42     1.390     1.360 -37.61   0
        36    727.1950    934.5920 300.0981110 +22.8656537     214.3895     71.96069      1.333     3.40     3.901016      20.3438     28.23075         5     0.743     0.450 -19.50   0
        37    448.8554    930.8192 300.0126613 +22.7811196     476.4746     72.08941      1.614     5.75     4.078639      20.3438     40.47321        11     1.081     0.934  89.32   0
        38    962.2316    922.6763 300.1752610 +22.9326631     2221.481     72.10778      2.025     5.15     4.294987      20.3438     119.2029        33     1.503     1.412 -53.51   0
        39     23.8091   1023.5081 299.8503571 +22.6801573     436.6601     56.93937      2.711     4.35    -6.484411      20.3438     31.65401         5     0.911     0.591  44.27  25
        40     12.3772    978.4376 299.8614667 +22.6638096     1781.523     72.12614     14.765    24.60     -10.1214      20.3438     53.29456        92     5.662     2.968 -78.52  27
        41    612.8182    920.2836 300.0671340 +22.8272606     350.6231     72.05266      1.537     5.20     3.889611      20.3438     38.02117         7     1.048     0.730 -26.42   0
        42    460.9090    918.5907 300.0203895 +22.7812261     325.7786     72.03427      1.915     5.33     4.021188      20.3438     27.90337         6     1.274     0.629  40.25   0
        43    644.6365    917.8352 300.0778405 +22.8360965     344.1327     72.18121      1.864     3.61     3.987284      20.3438     31.52233         5     1.029     0.366  -3.72   0
        44    751.0653    911.2892 300.1131280 +22.8661185     695.7245     72.23623      1.801     6.08      4.11842      20.3438     50.59001        19     1.494     1.015  63.36   0
        45    785.9175    905.6812 300.1258136 +22.8749534     1033.102     72.25456      1.823     5.05     4.166387      20.3438     64.53661        21     1.333     1.106   4.69   0
        46    563.8966    906.7505 300.0563004 +22.8087097     347.4904     72.16286      1.650     2.92     4.069823      20.3438     42.52676         5     0.699     0.682 -28.73   0
        47    808.1281    899.4219 300.1347721 +22.8798121      11283.6     72.12614      1.765     3.99     4.236266      20.3438     781.9446        49     1.411     1.369  11.28   0
        48    151.5088    900.3211 299.9301001 +22.6831743     676.5206     72.25456      4.884     5.42       17.608      20.3438       33.032         5     1.073     0.774 -89.61   0
        49    998.2989    899.1881 300.1941509 +22.9367210     442.1455     72.01588      1.851     6.07     4.379695      20.3438     38.78218         7     1.235     0.839  80.87   0
        50    853.5084    899.6047 300.1488595 +22.8934628     553.8383     72.01588      1.672     5.78     4.245162      20.3438     35.67789        12     1.099     0.857 -48.19   0
        51    119.4072    890.6623 299.9232639 +22.6707723     978.5693     72.07104      3.796     5.01      10.5017      20.3438     55.59644        18     1.309     1.140 -12.42   0
        52    859.9667    887.2072 300.1549047 +22.8918377     484.5623     72.10778      1.793     6.44     4.363832      20.3438     35.34058        11     1.112     1.049  26.39   0
        53    513.5167    887.4968 300.0468759 +22.7880793     556.8293     72.27289      1.682     5.51      4.19006      20.3438     52.14775        13     1.156     0.949  20.76   0
        54    816.7537    881.4630 300.1433008 +22.8772401     1417.804      72.1445      1.753     4.88      4.40928      20.3438     104.7412        21     1.242     1.176   4.77   0
        55    999.1433    881.1543 300.2002788 +22.9317936     450.4044      72.1445      1.873     5.55     4.408319      20.3438     38.91136         8     1.157     0.751 -86.73   0
        56    668.7474    878.6287 300.0981005 +22.8320701     502.1672     72.12614      1.705     7.51     4.423244      20.3438     40.38948        14     1.330     1.187 -71.54   0
        57    531.7111    879.0284 300.0552938 +22.7911044     229.4286     72.08941      1.219     3.85     4.353332      20.3438     31.85056         5     0.847     0.501 -40.46   0
        58    854.7281    875.0703 300.1572180 +22.8867827     806.6721     72.18121      2.021     6.96     4.470532      20.3438     57.65252        15     1.257     1.088 -42.36   0
        59    903.0627    866.4827 300.1750815 +22.8987975     506.6796     72.19955      1.670     6.30     4.527438      20.3438      44.6869        12     1.131     0.986  46.69   0
        60    754.5804    865.1155 300.1292382 +22.8539152     609.6638     72.03427      1.537     5.46     4.559719      20.3438     56.17773        14     1.077     0.958  34.05   0
        61    765.2450    863.4692 300.1330970 +22.8566384     1247.562     72.08941      0.869     4.04     4.560287      20.3438     668.4969        11     1.007     0.463 -66.28   0
        62    467.0917    861.4960 300.0408789 +22.7666983     4152.738     72.29121      1.663     3.28     4.227612      20.3438     413.1088        32     1.278     1.226 -37.30   0
        63    670.2043    989.3054 300.0625583 +22.8642736     9777.325     72.01588      1.921     4.47     3.692852      20.3438     622.5568        48     1.516     1.420  21.29   3
        64    510.8281    849.4875 300.0583972 +22.7763658     366.9384     72.10778      1.814     5.98     4.383713      20.3438     29.09939         8     1.331     0.756 -17.50   0
        65    246.1317    849.7462 299.9759594 +22.6970594      364.171     72.12614      1.493     3.10     6.146364      20.3438     45.62569         6     0.748     0.614  72.28   0
        66    109.1022    849.0894 299.9335773 +22.6557605     340.8211     72.29121      1.790     5.22     5.679241      20.3438     40.28427         7     1.077     0.715 -17.44   0
        67    192.5004    847.1777 299.9601200 +22.6802340     871.4794     72.05266      1.850     3.06     6.983506      20.3438     110.8415        18     1.197     0.995 -63.89   0
        68    764.4063    992.0746 300.0910089 +22.8933079      760.944     72.05266      2.048     5.89     3.438274      20.3438     50.48318        16     1.441     0.984   4.95   0
        69    169.4658    844.0703 299.9539697 +22.6724323     1574.172      72.1445      1.792     4.14     7.076247      20.3438     135.9983        26     1.360     1.223  38.65   0
        70    101.5894    845.2068 299.9325048 +22.6523930     481.3151      71.9791      1.800     3.48     5.372965      20.3438       36.878         5     0.763     0.458 -72.86   0
        71    700.8231    832.5906 300.1230618 +22.8284667     556.4031     72.10778      1.901     7.03     4.561443      20.3438     38.00755        13     1.601     0.865 -80.91   0
        72     45.2921    833.5323 299.9188078 +22.6321528     472.1918     72.23623      1.877     4.07     4.927705      20.3438     34.48301         6     1.080     0.439  56.07   0
        73    995.5785    832.0107 300.2151458 +22.9166079     2118.901     72.08941      1.868     4.52     4.471764      20.3438     136.7066        29     1.378     1.270 -22.45   0
        74    472.4038    830.8634 300.0524911 +22.7595008     239.5982     72.07104      1.296     4.33     4.262335      20.3438     33.67208         5     0.974     0.549  43.22   0
        75    779.1325    825.8422 300.1496586 +22.8499954     576.2048     72.08941      1.590     5.17     4.576056      20.3438      51.7562        13     1.327     0.842 -67.87   0
        76    201.4846    825.9843 299.9698024 +22.6768512     492.6193     72.07104      1.748     5.97     5.814252      20.3438      41.4955        11     1.093     0.917  10.51   0
        77    647.1548    819.7058 300.1105313 +22.8086832       4691.1     72.12614      1.553     3.26     4.564162      20.3438     486.9106        33     1.259     1.197  36.34   0
        78    137.0182    820.1240 299.9516685 +22.6558305     571.2756     72.10778      1.485     4.83      5.39526      20.3438      46.8141         9     1.028     0.642 -32.72   0
        79    449.3217    816.5586 300.0499571 +22.7484752     588.6747     72.08941      1.462     3.10     4.335612      20.3438     78.97006        14     1.005     0.913  43.20   0
        80    197.1367    813.3920 299.9725438 +22.6719353     1452.701     72.08941      1.751     3.86     5.157985      20.3438     137.5102        23     1.301     1.240 -48.80   0
        81    667.6989    812.4712 300.1192827 +22.8127633     668.1069     72.25456      1.467     4.43     4.564258      20.3438     74.83987        12     0.945     0.890 -23.15   0
        82    466.1261    811.4318 300.0568538 +22.7520423     247.7794     72.12614      1.200     4.23     4.308821      20.3438     29.94738         6     0.763     0.669 -48.39   0
        83    823.2099    799.5024 300.1719603 +22.8556371     4243.655      71.9975      1.581     3.24     4.652884      20.3438     398.3089        32     1.260     1.183  89.79   0
        84    232.4707    793.9379 299.9898525 +22.6769542     228.1301      72.1445      1.020     2.56      4.54961      20.3438     46.11576         6     0.757     0.494  82.95   0
        85    539.9423    791.8626 300.0861935 +22.7685550     595.0435     72.16286      1.472     4.69      4.56315      20.3438     52.98954        11     0.955     0.850  70.20   0
        86    186.5965    789.6685 299.9769779 +22.6619693     958.9056     72.08941      1.648     3.58     4.518254      20.3438     109.2853        19     1.274     0.947 -12.54   0
        87    601.7968    785.1806 300.1076264 +22.7851771     456.1331     72.05266      1.440     3.85     4.541339      20.3438     45.65654        10     0.990     0.719  51.65   0
        88    336.1621    781.8508 300.0260290 +22.7045849     53853.16     72.10778      1.581     3.16     4.497565      20.3438       6178.5        84     1.391     1.353  39.94   0
        89    594.1171    780.9877 300.1065975 +22.7816716      1534.82     72.07104      1.460     3.32     4.541301      20.3438     157.8796        20     1.116     1.043   8.74   0
        90   1006.6992    780.3624 300.2354051 +22.9050991     816.4331     72.10778      1.895     4.43     4.644526      20.3438     74.98415        19     1.348     1.056  69.49   0
        91    264.5167    780.1620 300.0042945 +22.6826141      460.304     72.07104      1.625     4.54     4.635469      20.3438     52.77611        10     1.012     0.871  87.74   0
        92    622.9780    777.1027 300.1168488 +22.7892062     890.1718     72.03427      1.418     3.55     4.524698      20.3438     93.97569        15     1.058     0.945  -7.69   0
        93     22.4647    776.6320 299.9302100 +22.6089891     717.0053     72.10778      1.579     3.35     4.660577      20.3438     85.64685        16     1.205     0.989   0.83   0
        94    634.0258    775.4225 300.1208360 +22.7920348     592.9461     72.07104      1.443     3.66     4.523805      20.3438     69.92006        10     1.011     0.706 -32.75   0
        95    954.3423    772.4171 300.2216548 +22.8871364     421.3954     72.08941      1.899     5.45     4.818635      20.3438     29.33181         7     1.377     0.607 -44.20   0
        96    739.4703    771.7974 300.1548656 +22.8225914     482.3987     72.05266      1.629     4.66     4.514672      20.3438     42.15608         8     0.894     0.690 -29.08   0
        97    534.8676    768.9865 300.0920487 +22.7604674     169.6543     72.12614      1.340     3.84     4.533147      20.3438     38.01201         6     0.963     0.439  52.99   0
        98    777.2506    762.1077 300.1697891 +22.8311280     825.7665     72.18121      1.527     3.43     4.601144      20.3438     84.86578        14     1.069     0.871  48.16   0
        99    385.8934    759.1253 300.0488864 +22.7129762     31562.43     72.25456      1.511     3.08     4.372521      20.3438     3010.237        65     1.311     1.274  25.16   0
       100    400.2395    759.5280 300.0532193 +22.7173931     2068.224     72.08941      1.601     3.18     4.354949      20.3438     227.3468        26     1.219     1.134 -72.61   0
       101    909.0593    755.1466 300.2131449 +22.8686122     2815.042     72.16286      1.612     3.47     4.911918      20.3438     232.5855        29     1.280     1.208  50.05   0
       102    396.9321    753.4504 300.0541653 +22.7146574     603.2613     72.08941      1.587     4.27     4.350565      20.3438       75.667        13     1.136     0.957  67.68   1
       103    666.9423    751.0430 300.1390130 +22.7948991     942.5139     72.07104      1.403     3.76     4.499953      20.3438     94.72273        16     1.126     0.941 -59.40   0
       104    503.5372    751.1760 300.0880831 +22.7459636     623.4272     72.08941      1.817     4.47     4.393484      20.3438     58.46044        13     1.251     0.964 -56.71   0
       105    268.3906    750.8010 300.0150410 +22.6753527     868.8254     71.92387      1.629     3.91     4.552581      20.3438      91.8539        15     1.094     0.998  35.27   0
       106    513.9703    745.8445 300.0930636 +22.7475606     1092.767      72.1445      1.643     3.99     4.435373      20.3438     109.4372        17     1.215     1.016 -44.52   0
       107     73.7307    746.1310 299.9560489 +22.6156245       449.16     72.16286      1.540     3.55     4.660577      20.3438     59.13133         9     0.949     0.674  40.47   0
       108    914.9656    742.9116 300.2189632 +22.8668661     556.3485     72.08941      1.592     4.04     4.964809      20.3438     51.16344        12     1.004     0.865  -9.93   0
       109    415.8289    742.4571 300.0636178 +22.7171680     369.7507     72.10778      1.612     4.77     4.303133      20.3438     38.15343         7     0.987     0.652 -25.47   0
       110    372.0451    742.1278 300.0501014 +22.7039463     308.1136     72.08941      1.532     4.35     4.382618      20.3438     33.83305         5     1.055     0.512 -34.82   0
       111    668.2579    740.7258 300.1427757 +22.7923308     386.0191     72.16286      1.609     3.86      4.48744      20.3438     36.65805         6     0.771     0.555 -42.27   0
       112    460.0403    740.9218 300.0778759 +22.7299814      575.622     72.08941      1.730     4.16     4.295248      20.3438     44.28565         9     0.948     0.690 -18.82   0
       113    102.2447    739.7170 299.9669933 +22.6223392     490.4922     72.07104      1.729     4.52     4.645432      20.3438     60.26558         9     1.201     0.557  49.17   0
       114    893.1927    737.8230 300.2138271 +22.8588830     494.1906     72.08941      1.612     4.87     4.942925      20.3438     43.98494         8     0.974     0.690  59.68   0
       115    266.0504    735.4647 300.0192968 +22.6702510     361.9744     72.16286      1.454     5.11     4.504374      20.3438     64.78796        10     1.089     0.812  89.77   0
       116    589.4106    725.5554 300.1231465 +22.7643468     509.5962     72.10778      1.497     3.89     4.489614      20.3438      73.8994        11     1.109     0.871 -30.78   0
       117    559.2446    723.9185 300.1142847 +22.7548361     677.4552     72.08941      1.650     3.36     4.540637      20.3438     63.44986        13     1.070     0.820  18.27   0
       118    468.5324    723.1703 300.0862874 +22.7274319     325.8069     72.08941      1.554     3.36     4.293983      20.3438     42.54762         6     0.874     0.677   0.56   0
       119    975.4590    720.5540 300.2450972 +22.8785583     4481.126      72.1445      1.651     3.62     5.033936      20.3438     371.2879        34     1.288     1.250 -18.45   0
       120    580.9401    721.4270 300.1218502 +22.7606229     1304.962     72.10778      1.366     3.00     4.504578      20.3438     137.6808        20     1.107     0.984   1.31   0
       121    500.4653    721.0453 300.0969180 +22.7363938      434.905     72.10778      1.873     4.59     4.374489      20.3438     40.59032         7     1.200     0.499  52.10   0
       122    662.4642    715.8614 300.1490507 +22.7834547     388.3218      72.1445      1.461     3.85     4.480938      20.3438     43.84832         8     0.983     0.744  68.11   0
       123    964.1085    711.9763 300.2443438 +22.8726945     1774.222     72.03427      1.623     3.77     5.050627      20.3438     139.7346        24     1.340     1.030 -38.00   0
       124    326.6968    705.6259 300.0478544 +22.6798748     759.2171     72.05266      1.409     3.44     4.404796      20.3438     95.66817        15     1.061     0.902  18.50   0
       125    790.3960    703.1041 300.1930607 +22.8181185     2595.777     72.01588      1.554     3.07     4.616233      20.3438     232.1249        28     1.339     1.054 -10.43   0
       126    995.0418    702.1428 300.2571890 +22.8791313     1628.186     72.08941      1.526     3.45     5.045146      20.3438     137.2509        22     1.164     1.091  38.79   0
       127     12.8454    693.1302 299.9543534 +22.5821591     801.5346     72.08941      1.514     3.82     4.998716      20.3438     82.28923        15     1.136     0.910  16.80   0
       128    872.9948    689.0011 300.2233935 +22.8388071     490.3646     71.92387      1.578     4.63     5.063866      20.3438     56.39468        14     1.178     0.971 -16.48   0
       129    175.6543    689.5123 300.0061212 +22.6299579     677.8813     72.12614      1.599     3.63     4.728224      20.3438     79.21796        13     1.047     0.950 -24.93   0
       130    908.7614    680.1207 300.2374321 +22.8469668     149473.2     72.08941      1.544     3.14     5.120421      20.3438     13962.96       146     1.433     1.417 -60.99   0
       131    670.7515    684.1393 300.1619394 +22.7768280     379.5036     72.16286      1.378     3.43     4.484841      20.3438     39.85987         5     0.987     0.344   2.32   0
       132    761.1606    680.3187 300.1913519 +22.8028158     642.4902     72.07104      1.293     3.31      4.51046      20.3438     88.99606        10     0.932     0.726  16.33   0
       133    941.3329    672.7078 300.2499990 +22.8545903     458.5066     72.25456      1.509     3.58     5.136264      20.3438     47.33916         9     1.011     0.747  89.88   0
       134    594.9413    668.8703 300.1432865 +22.7497280     1607.106      72.1445      1.335     2.73     4.522463      20.3438     215.7973        19     1.057     0.918  -5.61   0
       135    776.2009    666.2312 300.2006163 +22.8032743     9555.876     72.07104      1.413     2.75     4.546982      20.3438     979.1482        39     1.200     1.139  51.97   0
       136    258.8922    668.6755 300.0387702 +22.6489411     337.2804     72.27289      1.781     4.21     4.503115      20.3438     39.42373         5     1.061     0.476  37.64   0
       137    277.6550    661.1077 300.0470636 +22.6523955     5048.901     72.16286      1.512     3.01     4.533586      20.3438     544.8269        32     1.209     1.144  39.98   0
       138    359.7593    659.5019 300.0731243 +22.6765503     1209.942     72.08941      1.518     3.28     4.382801      20.3438     130.5332        16     1.038     0.923 -19.70   0
       139    235.8486    657.1128 300.0353607 +22.6387136     446.4472     72.10778      1.479     3.53     4.648267      20.3438     46.08714         6     0.749     0.571 -52.72   0
       140    568.0477    654.9369 300.1394379 +22.7376683     842.9315     72.12614      1.410     2.70     4.653132      20.3438     102.1731        14     0.956     0.884 -36.19   0
       141    559.6317    647.0128 300.1393913 +22.7328710      3219.98     72.08941      1.362     2.56     4.726749      20.3438     439.6903        25     1.074     1.057 -51.14   0
       142    549.8195    640.7928 300.1383564 +22.7281447     1358.083     72.07104      1.274     2.48     4.797783      20.3438     213.4634        16     0.973     0.873 -55.32   0
       143    744.9359    640.3320 300.1992859 +22.7864692     311.8432     72.16286      1.503     3.38     4.521735      20.3438     33.16013         5     0.799     0.414 -19.16   0
       144    478.1478    639.8918 300.1163360 +22.7064074     302.6764     72.16286      1.417     4.00     4.685849      20.3438     43.84137         8     0.862     0.659  34.00   0
       145    943.7831    638.2880 300.2619453 +22.8454324      509.811     72.03427      1.809     4.02      5.06746      20.3438     55.36451         8     0.947     0.773   4.19   0
       146    461.4200    638.5486 300.1115655 +22.7010083     499.9403     72.08941      0.920     3.20     4.650413      20.3438     346.1201         8     1.112     0.475  42.40   0
       147    213.1459    636.7193 300.0349259 +22.6260545     699.2581      72.1445      1.388     3.43     4.881886      20.3438     81.96982        13     1.024     0.874  29.44   0
       148    227.3864    635.2885 300.0398184 +22.6299140     565.6308     72.05266      1.383     3.54     4.858149      20.3438     70.79395        11     1.000     0.861 -13.00   0
       149    253.4760    632.2551 300.0489162 +22.6368662     628.2379      72.1445      1.513     3.63     4.825391      20.3438     68.52608        10     1.066     0.717 -30.52   0
       150    996.9595    632.0649 300.2805549 +22.8595647     343.9002     72.07104      1.369     4.77     5.033411      20.3438     50.10902         9     0.823     0.784 -34.47   0
       151    284.5002    632.3690 300.0585274 +22.6462006      333.063     72.08941      1.295     3.07     4.752806      20.3438      51.4859         7     0.838     0.647  23.01   0
       152    570.8631    631.3414 300.1479792 +22.7317364     4515.718      72.1445      0.783     1.74     4.802922      20.3438     1572.578        16     1.015     0.519 -11.28   0
       153    474.6660    630.4138 300.1183309 +22.7026427     1846.516     72.07104      1.346     2.47      4.79242      20.3438     246.3858        20     1.007     0.996   2.06   0
       154    128.6021    625.2231 300.0123789 +22.5974031     19903.63     72.05266      1.639     3.26     5.109304      20.3438     2003.643        61     1.396     1.316  27.21   0
       155     49.8241    626.9946 299.9873237 +22.5742839     735.3707     72.08941      2.003     4.46     5.141541      20.3438     52.57652        11     0.984     0.846 -38.29   0
       156    594.9911    625.2869 300.1574597 +22.7372272     332.5355     72.03427      1.231     2.93     4.753331      20.3438     63.35159         7     0.812     0.682 -72.67   0
       157    559.6906    625.6949 300.1463342 +22.7267672     1149.827     72.29121      1.505     2.67     4.875496      20.3438     146.0296        16     1.028     0.879 -36.08   0
       158    477.1733    622.6284 300.1216401 +22.7011589     233.8115     72.08941      1.379     2.34     4.880724      20.3438     41.05568         5     0.722     0.435 -21.36   0
       159    977.7261    612.2006 300.2810072 +22.8480971     983.1273      71.9975      1.467     3.16      5.01711      20.3438     101.0656        15     1.059     0.887 -12.02   0
       160    643.0532    613.6891 300.1761965 +22.7482959     271.3681     72.12614      1.268     3.35     4.671475      20.3438      38.0301         5     0.780     0.416 -17.88   0
       161     74.7251    609.3763 300.0007825 +22.5766987     1483.961      72.1445      1.878     4.65     5.141714      20.3438     115.4309        25     1.609     1.011 -87.19   0
       162    844.5035    609.9332 300.2401961 +22.8075559     545.9304      72.2179      1.560     4.24     4.807445      20.3438     53.77368        12     1.094     0.842 -35.60   0
       163    140.7661    609.6075 300.0212311 +22.5965709     405.9968     72.10778      1.444     3.73     5.137855      20.3438     47.77297         6     0.895     0.691  76.75   0
       164    523.0721    606.3647 300.1412110 +22.7102438     408.4175     72.10778      1.169     3.05      5.08077      20.3438     61.52716         7     0.784     0.688  46.34   0
       165    917.0750    604.8099 300.2644897 +22.8278142     1048.373     72.10778      2.294     8.05     4.988531      20.3438     77.06433        19     2.167     0.836  -1.70   0
       166    315.9550    605.5881 300.0770089 +22.6479445     359.0726     72.10778      1.447     3.47     4.850405      20.3438     45.00165         5     0.788     0.442  19.41   0
       167    662.5226    603.4337 300.1855924 +22.7511829     360.4023     72.10778      1.408     4.24     4.657484      20.3438      47.2251         7     1.045     0.591 -24.73   0
       168    479.7642    598.6161 300.1302454 +22.6950410     677.2424     72.10778      1.407     2.97     5.091893      20.3438     93.27068        11     0.917     0.815 -47.88   0
       169    627.7367    597.2142 300.1767764 +22.7389754     599.6723     72.07104      1.435     3.57     4.808658      20.3438     66.89045        13     1.141     0.828  72.50   0
       170    645.3857    595.5241 300.1828229 +22.7437772     458.9478     72.12614      1.162     3.49     4.750766      20.3438     72.66381        10     1.105     0.649  63.42   0
       171    674.8523    595.7778 300.1919201 +22.7526772     515.2623     72.10778      1.269     2.27     4.642087      20.3438      78.2287         9     0.841     0.638 -62.53   0
       172    523.8428    594.6207 300.1452650 +22.7071024     899.1003      72.1445      1.470     2.84     5.143416      20.3438     88.32822        14     0.999     0.880 -62.79   0
       173    710.5275    593.6081 300.2037400 +22.7627403     198.9226     72.08941      1.026     2.84     4.611275      20.3438     52.40078         6     0.892     0.413  69.19   0
       174    957.7861    590.2408 300.2819196 +22.8358155     3192.657     72.12614      1.442     2.85     5.010929      20.3438     343.7292        24     1.108     1.076  21.50   0
       175    489.3897    589.9265 300.1360637 +22.6954304     1721.513     72.10778      1.326     2.37     5.135185      20.3438     272.8994        20     1.046     0.983  30.01   0
       176    465.2018    585.2642 300.1300487 +22.6868433      304.167     72.10778      1.494     4.02     5.061543      20.3438     38.67974         6     0.816     0.565  43.99   0
       177     51.4108    583.3596 300.0019871 +22.5622430     5133.611     72.10778      1.651     3.02     5.335324      20.3438     615.8537        38     1.359     1.243  21.33   0
       178    518.9783    580.7845 300.1482439 +22.7016715     381.3366     72.08941      1.094     3.24     5.215226      20.3438     57.12211         6     0.882     0.562 -56.89   0
       179    996.7026    580.4059 300.2972540 +22.8446387      358.798     72.01588      1.220     3.56     5.009917      20.3438     47.24161         5     0.801     0.455 -16.27   0
       180    352.9050    576.6565 300.0978989 +22.6507160     9185.909     72.16286      1.389     2.72     4.831742      20.3438     1171.091        40     1.198     1.094  40.07   0
       181    475.3409    573.7343 300.1369489 +22.6865710     8973.242      72.1445      1.309     2.36     5.149117      20.3438     1348.694        36     1.138     1.047  46.87   0
       182    721.7820    570.6277 300.2147101 +22.7595093     351.6083     72.10778      1.265     2.88     4.636482      20.3438     41.78027         5     0.704     0.472  11.52   0
       183    887.1372    567.9526 300.2671239 +22.8082578     1988.573     72.12614      1.437     2.81     4.861898      20.3438     235.9016        21     1.076     1.015  18.85   0
       184    971.7372    565.2262 300.2943954 +22.8328017     12655.78     72.10778      1.494     2.83     5.007798      20.3438     1361.575        45     1.264     1.226 -73.26   0
       185    535.9302    563.3235 300.1591921 +22.7017365      11874.5      72.2179      1.317     2.47     5.355587      20.3438     1522.041        40     1.118     1.076  49.28   0
       186    705.3324    559.1904 300.2132985 +22.7512966     568.8197     72.10778      1.318     3.03     4.684088      20.3438     89.14931        10     0.944     0.736  45.48   0
       187    263.3520    558.6511 300.0758904 +22.6187035     1373.932      72.1445      1.387     2.45     4.947381      20.3438     195.2111        17     1.074     0.870   7.78   0
       188    421.1230    558.3945 300.1250554 +22.6659189     390.8269     72.01588      1.443     2.11     4.926096      20.3438     56.02909         6     0.744     0.485  -6.31   0
       189    510.4669    556.5797 300.1534541 +22.6921703      362.902     72.08941      1.124     2.25      5.31916      20.3438     62.84861         6     0.800     0.441  19.43   0
       190    810.3953    551.6108 300.2485037 +22.7805829     706.4781     71.96069      1.287     2.38     4.852708      20.3438     120.0415        13     0.931     0.821  57.91   0
       191    467.5389    551.3635 300.1417846 +22.6778094     4511.783     72.12614      1.338     2.49     5.189521      20.3438     637.9376        28     1.252     1.009  22.65   0
       192    445.7989    549.7808 300.1355319 +22.6708404      1064.96     72.03427      1.226     2.12     5.080401      20.3438     203.7819        13     0.927     0.799  60.87   0
       193    200.0846    549.1119 300.0593150 +22.5969985     683.9995     72.23623      1.328     3.66     5.008776      20.3438     86.12254        11     1.032     0.754  20.62   0
       194    887.5299    547.0822 300.2740237 +22.8023770     1620.229      72.2179      1.487     3.02     4.828859      20.3438     166.9177        21     1.143     0.977 -41.64   0
       195    768.0416    544.1999 300.2377084 +22.7657703      895.698     72.12614      1.314     2.56     4.773243      20.3438     122.8559        12     0.890     0.806  17.52   0
       196    584.2355    539.0443 300.1821176 +22.7092354     202694.4     72.16286      1.316     2.50     5.410787      20.3438     25276.63       191     1.395     1.329  -5.99   0
       197    407.9089    545.1377 300.1252477 +22.6581525     290.0448     72.19955      1.050     2.87      4.94573      20.3438     42.44707         8     0.800     0.668  47.08   0
       198    861.1892    542.2216 300.2673884 +22.7930936     290.7992     72.08941      1.343     4.34     4.745728      20.3438      30.6576         5     0.783     0.686 -55.57   0
       199    270.2708    538.8956 300.0844565 +22.6151072     3602.207      72.2179      1.411     2.62     4.933689      20.3438      512.735        31     1.224     1.121  85.11   0
       200    837.7313    540.5231 300.2606261 +22.7855818     217.3942     72.19955      1.045     3.40     4.807832      20.3438     33.43494         5     0.752     0.444  22.22   0
       201    836.2047    535.4441 300.2617994 +22.7836651     499.8111     72.12614      1.201     3.02      4.82429      20.3438     57.66143         7     0.904     0.492  -5.38   0
       202    474.8332    519.6591 300.1543490 +22.6708908     2878.824     72.12614      1.474     2.72     5.302252      20.3438     324.9743        28     1.575     0.976 -86.19   0
       203    319.1239    521.7068 300.1052319 +22.6248164     414.2461     72.25456      1.275     3.06     4.933626      20.3438     57.80614         9     0.885     0.680  56.15   0
       204    924.5408    519.0034 300.2946832 +22.8053862      262.245     72.07104      1.462     4.25     4.992629      20.3438     41.24198         6     1.041     0.494  85.92   0
       205    886.2095    516.0950 300.2836735 +22.7930752     397.4112     72.03427      1.467     2.40     4.883981      20.3438     48.64901         8     0.771     0.665 -40.30   0
       206    792.0394    508.2230 300.2568696 +22.7626179     406.9132      72.1445      1.194     2.78     4.887414      20.3438     65.72459         7     0.757     0.697  81.64   0
       207    871.8789    505.6629 300.2825918 +22.7857864     1774.132     72.19955      1.365     2.49     4.875525      20.3438     256.9423        20     1.072     0.975  64.01   0
       208    758.7247    505.5051 300.2473682 +22.7518612     285.3695     72.25456      1.335     3.46     4.837231      20.3438     39.10036         5     0.750     0.460 -19.25   0
       209    743.0551    503.1930 300.2432353 +22.7465045     2601.406     72.10778      1.321     2.63     4.823177      20.3438     315.7976        25     1.107     1.012 -53.82   0
       210    101.9529    504.0479 300.0434422 +22.5546442     124.2253      72.1445      1.233     3.64      5.08408      20.3438     31.80432         5     0.983     0.387 -29.88   0
       211      2.2705    504.1474 300.0124384 +22.5247811      456.518     61.19933      1.266     3.08      6.21832      20.3438     63.22969         8     0.890     0.680 -69.68  24
       212    987.2085    500.6937 300.3201760 +22.8188807     446.0144     72.01588      1.398     3.86     5.005497      20.3438     51.32703         7     0.894     0.665  22.67   3
       213    986.2138    496.4847 300.3212321 +22.8173729     789.9945     72.05266      1.640     3.20      5.00548      20.3438     91.97277        14     1.130     0.813  81.69   2
       214    648.1255    499.9445 300.2147119 +22.7171413        565.4      72.1445      1.558     2.85     5.213667      20.3438     61.56379         8     0.815     0.657  44.54   0
       215    530.3394    499.0495 300.1783198 +22.6816017     520.6129     72.16286      1.153     2.77     5.495149      20.3438     84.25542         8     0.816     0.707  38.81   0
       216   1000.3203    497.2996 300.3253685 +22.8218292     1248.956     72.23623      1.455     2.90     5.005724      20.3438     154.6987        17     1.059     0.946  40.04   0
       217    872.1608    495.6764 300.2859219 +22.7830003     2257.093     72.08941      1.580     4.03     4.906305      20.3438     245.1171        26     1.466     0.947  76.28   0
       218    625.4584    493.8377 300.2096337 +22.7085976     782.8171     72.10778      1.387     2.24     5.368749      20.3438     99.87299        10     0.869     0.667   9.40   0
       219    910.2653    490.8372 300.2993756 +22.7930161     4230.871     72.08941      1.373     2.58      4.97689      20.3438     538.3677        27     1.117     1.017  74.58   0
       220    551.2843    490.2518 300.1876974 +22.6853492     293.0809      72.1445      1.297     3.78     5.529758      20.3438     41.82446         5     0.938     0.437  44.37   0
       221    464.1454    492.5814 300.1598128 +22.6599122     510.3632     72.08941      1.463     3.43     5.311353      20.3438     50.48221         8     0.846     0.704 -52.57   0
       222    411.3451    493.4383 300.1431016 +22.6443375     256.3951     72.10778      1.219     4.07     5.073236      20.3438     46.85478         6     0.878     0.541 -41.70   0
       223    570.8531    486.7192 300.1949379 +22.6901965     322.5017     72.12614      1.360     4.17     5.511646      20.3438     44.50691         8     0.924     0.629  -1.77   0
       224   1002.1115    481.2834 300.3311270 +22.8177603     724.4775      72.2179      1.359     3.23     5.005759      20.3438     94.73943        13     0.996     0.920  72.32   0
       225    142.3546    480.9717 300.0634896 +22.5601353     964.3949      72.1445      1.439     2.67     4.905154      20.3438     145.5334        16     1.084     0.854 -26.60   0
       226    189.8670    472.8033 300.0809107 +22.5720344     255.4563     72.08941      1.410     4.30     4.880171      20.3438     30.68311         5     0.748     0.703  -9.29   0
       227    134.8503    471.1730 300.0643376 +22.5550733     307.7005     72.12614      1.310     4.20     4.917251      20.3438     47.58443         9     1.057     0.664 -36.89   0
       228    742.4220    465.3070 300.2553369 +22.7354277     538.0109     72.03427      1.450     2.64     4.932572      20.3438     63.41463         9     0.841     0.705   8.44   0
       229    351.2350    463.8104 300.1340154 +22.6178176     294.3414     72.10778      1.310     3.76     4.996306      20.3438     35.48479         5     0.963     0.421 -44.00   0
       230    306.6275    463.4757 300.1202475 +22.6043535     4395.854     72.08941      1.719     3.64     4.961007      20.3438      695.996        12     1.301     0.499  81.68   2
       231    631.7953    462.9979 300.2216185 +22.7016354     274.1232     71.92387      1.194     2.16     5.328367      20.3438     62.80027         7     0.691     0.664 -79.03   0
       232    683.7212    461.2687 300.2383563 +22.7166894     701.8365      72.2179      1.142     2.34     5.116223      20.3438      107.457        10     0.822     0.704  44.84   0
       233    663.0494    459.4951 300.2324916 +22.7099892     237.3478     72.16286      1.170     4.20     5.189527      20.3438     41.31473         5     0.928     0.543 -42.85   0
       234    998.5098    454.1293 300.3388180 +22.8088745     661.0284     72.27289      1.347     3.21     5.007502      20.3438     82.13353        12     1.052     0.776  47.66   0
       235    744.6774    453.5071 300.2598699 +22.7327120     970.6998     72.25456      1.302     2.42     4.951586      20.3438     122.1925        12     0.897     0.784 -50.86   0
       236    901.7772    449.5346 300.3101359 +22.7786017     1050.673     72.08941      1.443     3.06     4.974585      20.3438     135.2709        19     1.182     0.976  71.23   0
       237    886.1016    446.0931 300.3063646 +22.7729202     614.7889     72.29121      1.300     3.82      4.97471      20.3438     80.69784         9     0.938     0.832 -30.95   0
       238    867.0041    446.3958 300.3003112 +22.7672906     360.3931     71.94229      1.610     3.94     4.975664      20.3438     47.88137         6     0.984     0.452 -12.28   0
       239    630.3261    444.0313 300.2273171 +22.6957459      3210.48     72.12614      1.255     2.26     5.280778      20.3438     466.5681        23     1.014     0.956  34.82   0
       240    990.6943    443.1662 300.3399382 +22.8033831     375.9326     72.08941      1.150     2.55     5.003842      20.3438     65.99364         9     0.887     0.620  20.81   0
       241    106.2606    435.5235 300.0670220 +22.5362709     431.2809     72.16286      2.034     4.13     4.894152      20.3438     28.19701         7     1.012     0.481   8.67   0
       242    470.2402    431.0781 300.1816728 +22.6440740     387.7653     72.08941      1.227     3.09     5.272884      20.3438     54.79848         6     0.875     0.469  51.61   0
       243    401.6509    431.4616 300.1602013 +22.6236350     239.3051     72.16286      1.230     4.17     5.131753      20.3438     31.49378         5     0.979     0.507  44.55   0
       244   1000.2004    421.7444 300.3498568 +22.8000679     1035.611     72.03427      1.535     3.46     5.010472      20.3438     97.97542        16     1.156     0.895 -48.56   0
       245    913.5775    422.9445 300.3224465 +22.7744890     641.3976      72.1445      1.267     2.90     4.961805      20.3438     95.81026        11     1.022     0.682  41.08   0
       246    650.3727    420.2365 300.2412844 +22.6949122     270.3574     72.10778      1.171     4.20     5.146245      20.3438     41.29636         6     0.922     0.576 -22.77   0
       247    741.1129    417.9422 300.2703021 +22.7214234     1052.805     72.18121      1.295     2.35     5.022116      20.3438     177.7244        15     1.047     0.851 -52.31   0
       248    536.8174    418.4471 300.2064989 +22.6603890     418.6346      72.1445      1.258     1.65      5.27081      20.3438     68.51344         5     0.637     0.463 -24.36   0
       249    244.8705    415.9377 300.1164684 +22.5721968     788.8925      72.1445      1.551     2.83     4.947716      20.3438     97.13406        11     0.984     0.749  54.36   0
       250     84.4557    414.3623 300.0671128 +22.5236607     400.2442     72.10778      1.818     4.74     5.029516      20.3438     39.05962         7     0.872     0.729  68.37   0
       251    307.2071    411.7289 300.1372217 +22.5896694     3761.726     72.07104      1.358     2.45     5.032901      20.3438      551.197        26     1.139     0.980  62.63   0
       252    254.4533    406.5107 300.1225075 +22.5723622     7683.404      72.1445      1.387     2.42     5.013947      20.3438     1065.158        37     1.178     1.119  46.57   0
       253    632.4674    406.0082 300.2403241 +22.6854618     391.8097     72.10778      1.503     4.96     5.128656      20.3438        41.72         7     1.105     0.631  52.30   0
       254   1020.3517    401.4654 300.3627256 +22.8002660     1906.978     70.66065      1.483     2.66     5.047647      20.3438     244.6469        21     1.118     1.027  85.98  16
       255    395.2317    400.7467 300.1681712 +22.6128906     4929.889     72.12614      1.293     2.48     5.169852      20.3438     721.3093        29     1.128     0.985  61.82   0
       256    656.9764    397.7866 300.2506270 +22.6904385     1010.776     72.10778      1.736     5.82     5.030712      20.3438     86.70181        14     1.492     0.640 -36.87   0
       257    639.4821    397.5316 300.2452600 +22.6851266     18555.23      72.2179      1.223     2.15     5.066503      20.3438     2886.331        47     1.169     1.055  73.70   0
       258    266.2693    395.8718 300.1296343 +22.5728486     346.5434     72.18121      1.395     2.50      5.09459      20.3438     53.04058         6     0.736     0.563 -29.23   0
       259    883.1611    393.7754 300.3224271 +22.7569988     351.8728     72.12614      1.299     3.72     4.995822      20.3438     66.38986         9     1.075     0.687 -36.81   0
       260    496.8680    394.0647 300.2019733 +22.6414183     311.6056     72.16286      1.545     5.09     5.198411      20.3438     33.74855         6     1.128     0.651  16.57   0
       261    836.3937    388.0690 300.3096965 +22.7413601     396.7209     72.07104      1.164     2.88     4.958282      20.3438     62.59641         8     0.839     0.725  54.11   0
       262    259.6313    384.7704 300.1311721 +22.5676718     300.8533     72.10778      1.084     3.63     5.173774      20.3438      38.0145         5     0.929     0.408  -7.03   0
       263    973.2047    380.0721 300.3549585 +22.7800058     936.7641     72.05266      1.617     3.43     5.038644      20.3438     131.9567        17     1.205     0.938 -56.84   0
       264    510.2092    379.2123 300.2109461 +22.6411476     390.5189      71.9975      1.575     4.03     5.111603      20.3438     44.77843         7     0.885     0.678  44.25   0
       265    194.2207    377.4961 300.1131930 +22.5459805      2105.05     72.01588      1.372     2.50     5.068572      20.3438     283.8384        21     1.071     0.981  85.20   0
       266    580.1073    366.9989 300.2366739 +22.6585726     6735.968      71.9975      1.274     2.27     4.904108      20.3438     1018.647        31     1.113     0.967  77.18   0
       267    993.8766    367.3872 300.3655237 +22.7825433     1389.365     72.12614      1.392     2.98     5.070439      20.3438       181.99        19     1.065     0.955  82.45   0
       268    294.9824    366.1932 300.1481943 +22.5729307     694.0292     72.07104      1.382     3.27      5.31664      20.3438     75.99203        12     1.048     0.763 -34.03   0
       269    152.4855    359.5519 300.1060402 +22.5283205     520.6239     72.08941      1.374     3.97      4.91284      20.3438     58.09392        14     1.170     0.834 -59.39   0
       270    839.9596    358.7934 300.3203076 +22.7340107     293.3942      72.1445      1.315     2.24     4.949015      20.3438     57.14758         7     0.703     0.658 -11.51   0
       271      1.1277    357.1129 300.0597977 +22.4822490     515.8176     54.97494      0.917     1.99      4.85986      20.3438     143.0153         7     0.971     0.325 -85.19  24
       272    784.1890    356.2148 300.3037581 +22.7165760     1316.456     72.03427      1.386     2.75     4.883661      20.3438     143.6649        15     0.973     0.915   4.07   0
       273    694.0469    357.3714 300.2752905 +22.6899230      463.255     72.12614      1.093     2.21     4.879782      20.3438     82.40334         7     0.777     0.572 -22.76   0
       274    486.7586    353.1778 300.2120925 +22.6266443     6057.561      72.1445      1.265     2.37     5.131322      20.3438     834.1971        30     1.090     0.985 -76.54   0
       275    878.8328    347.8523 300.3359785 +22.7424993     1414.645     72.12614      1.291     2.00      5.00322      20.3438     239.5832        17     0.925     0.895 -57.66   0
       276    976.0741    348.1093 300.3662247 +22.7716722     621.5418     72.27289      1.311     2.38      5.05714      20.3438     89.56146         9     0.778     0.718 -46.14   0
       277    471.3364    341.8580 300.2109641 +22.6187730     481.2568     72.16286      1.200     2.63     5.111252      20.3438     73.92866         9     0.857     0.690 -85.65   0
       278    554.0770    340.0625 300.2373070 +22.6430374     482.9236     72.18121      1.265     2.49     4.801136      20.3438     63.16897         8     0.799     0.629 -42.31   0
       279    832.4910    338.8704 300.3244430 +22.7260472     199.4308     72.27289      0.975     3.19     4.928986      20.3438     58.44361         6     0.999     0.428 -32.67   0
       280    534.5028    337.7697 300.2319558 +22.6365166     241.6849     72.05266      1.018     2.90     4.846435      20.3438     47.86697         5     0.729     0.448 -67.30   0
       281    851.3630    335.2061 300.3315159 +22.7306419     664.3999      72.1445      1.313     3.24     4.958881      20.3438     83.58688        10     1.081     0.618  41.56   0
       282    374.2933    332.3738 300.1838394 +22.5869797     2530.611     72.07104      1.304     2.32     5.328061      20.3438     328.9508        22     1.045     0.990 -88.78   0
       283     92.7202    329.5690 300.0971912 +22.5018000     1068.297     72.10778      1.573     3.09     4.867924      20.3438     133.7958        17     1.178     0.942  66.72   0
       284    343.6820    321.8136 300.1777409 +22.5747761     30001.87     72.08941      1.346     2.26      5.41073      20.3438     4850.214        69     1.253     1.189  70.16   0
       285    878.3977    319.5464 300.3450261 +22.7342297     1389.949     72.07104      1.235     2.22     4.956326      20.3438     212.7518        17     1.012     0.862  75.36   0
       286    833.5612    317.1948 300.3318086 +22.7201352     366.1807     72.12614      1.552     4.14     4.931703      20.3438     30.67057         6     1.077     0.454  32.51   0
       287     39.9143    309.4799 300.0872988 +22.4802053     5034.072     72.27289      1.593     2.97     4.796501      20.3438      605.081        38     1.334     1.243  68.69   0
       288    793.9072    308.5102 300.3222638 +22.7057701     412.9818     72.27289      1.136     2.37     4.911378      20.3438     78.48695         6     0.746     0.496  -6.28   0
       289    442.3183    307.2682 300.2131526 +22.6001442      395.375      72.2179      1.192     3.14     5.063023      20.3438     71.50818         9     0.890     0.729  54.89   0
       290    217.8744    308.3570 300.1429765 +22.5332177     436.7406     72.08941      1.406     3.73     5.369794      20.3438     57.85281         7     0.968     0.477   2.74   0
       291    754.1887    301.7311 300.3120828 +22.6919328     1994.412     72.12614      1.294     2.55     4.927058      20.3438     297.4998        21     1.023     0.956  52.93   0
       292    562.3693    296.3876 300.2540570 +22.6329701     396.3967     72.10778      1.045     2.42     4.764294      20.3438     68.96412         6     0.672     0.623 -63.91   0
       293    969.3707    295.0773 300.3813379 +22.7544136     634.4015     72.08941      1.263     1.79     4.829599      20.3438     98.96297         7     0.731     0.547  12.48   0
       294    415.9122    286.1615 300.2117804 +22.5861714     2056.925     72.08941      1.392     3.21     5.174719      20.3438     269.1186        21     1.271     0.848  61.50   0
       295    628.0265    285.4733 300.2780463 +22.6494919     366.0289     72.10778      1.334     2.71     4.763478      20.3438     48.56665         6     0.782     0.499   0.63   0
       296    154.2376    285.1724 300.1307117 +22.5074911     256.9344     72.12614      1.311     3.91     5.134983      20.3438     30.25104         5     0.962     0.455  43.47   0
       297    854.9882    279.3868 300.3507535 +22.7156758     572.5718     72.03427      1.193     2.64     4.915323      20.3438     89.95986         9     0.901     0.626  52.52   0
       298    737.2762    276.9743 300.3148421 +22.6797531     402.3382     72.12614      1.140     2.63     4.964635      20.3438     62.33086         8     0.791     0.663  42.06   0
       299    705.5086    276.0880 300.3052300 +22.6699894     432.7892     72.27289      1.317     2.87     4.914318      20.3438     50.98726         6     0.767     0.498 -85.45   0
       300    491.8337    265.4789 300.2421198 +22.6029664     1130.627     72.05266      1.199     2.29     4.995742      20.3438     189.5965        15     0.954     0.816  44.34   0
       301    299.1585    266.3513 300.1818794 +22.5455077     172.2376     72.12614      1.106     4.09      5.40177      20.3438     41.17298         6     0.755     0.632 -57.03   0
       302    576.8528    261.8540 300.2697680 +22.6273821     184.1369      72.1445      1.517     4.61     4.883349      20.3438     45.99097         6     1.706     0.354 -89.56   0
       303   1002.9221    262.0415 300.4025208 +22.7549481     310.9838     72.08941      1.107     2.74     4.804811      20.3438     47.43596         5     0.936     0.365 -30.90   0
       304    875.3065    259.1623 300.3636487 +22.7159396      361.192     72.10778      1.444     4.11     4.864113      20.3438     34.85617         6     0.764     0.630  -5.19   0
       305    736.6533    257.4843 300.3209691 +22.6739632     2283.947     72.16286      1.250     2.32     5.020978      20.3438     369.2542        21     1.081     0.914  84.51   0
       306    997.9733    252.0538 300.4042161 +22.7505945     3227.176     72.12614      1.412     3.00     4.804671      20.3438      353.869        27     1.205     1.039 -43.72   0
       307    444.8193    241.2070 300.2353563 +22.5819128     527.4757     72.07104      1.280     3.06     5.237012      20.3438      87.7359        12     1.001     0.793   4.68   0
       308    119.6239    235.4851 300.1360657 +22.4828518     1319.978     72.08941      1.653     3.69     5.299047      20.3438     153.2165        22     1.336     1.151 -26.17   0
       309    150.3700    235.5891 300.1455888 +22.4920947     693.0628     72.10778      1.607     3.63     5.335026      20.3438     86.67372        12     1.150     0.759  -6.35   0
       310   1013.7708    232.5373 300.4154744 +22.7497053      539.613     72.12614      1.342     3.02      4.80603      20.3438     87.88397        10     0.954     0.746 -24.84   0
       311    857.6424    229.1014 300.3678896 +22.7020086     326.4325     72.08941      1.464     4.87     4.832627      20.3438     37.86414         9     0.940     0.715  25.75   0
       312    204.1963    227.5898 300.1649167 +22.5059252     382.9677     71.94229      1.109     2.07     5.397733      20.3438     74.40481         5     0.697     0.438 -24.30   0
       313    751.5541    226.8369 300.3355520 +22.6696109     1065.453      72.1445      0.714     2.76     5.064557      20.3438     506.7057         6     0.654     0.344 -14.02   0
       314    999.0700    225.4114 300.4131984 +22.7432579     238.2584     72.12614      1.148     3.38     4.804929      20.3438     48.12936         5     0.765     0.432  21.86   0
       315     59.4346    224.7538 300.1208402 +22.4617334     308.1518     72.12614      1.144     4.02     5.346949      20.3438     53.45462         7     1.088     0.437 -28.52   0
       316    880.0240    221.4801 300.3773402 +22.7065133      386.168     72.07104      1.246     2.26     4.831638      20.3438     49.16623         6     0.742     0.497  -4.86   0
       317    808.2551    219.1196 300.3557285 +22.6843600      603.466      72.1445      1.266     2.56     4.963514      20.3438     87.18993         9     0.803     0.766  14.46   0
       318    398.5001    218.4691 300.2283139 +22.5615080     335.9317     72.19955      1.227     2.94     5.322387      20.3438     57.20955         8     0.881     0.700 -57.81   0
       319    944.7980    212.3914 300.4004895 +22.7232775     345.5706     71.92387      1.097     3.30     4.801056      20.3438     42.87761         5     1.151     0.274  55.99   0
       320    898.8223    212.7398 300.3860367 +22.7096235     378.1369     72.08941      1.460     3.97     4.846008      20.3438     47.56828         8     1.068     0.665 -22.47   0
       321    906.4321    208.0688 300.3899246 +22.7105566      2044.34     72.08941      1.357     2.53     4.848261      20.3438     256.7567        20     1.081     0.929  80.63   0
       322    324.9101    205.1995 300.2097195 +22.5356552     2235.589      71.9975      1.347     2.55     5.359782      20.3438     276.7495        20     1.089     0.912  45.88   0
       323    402.7910    200.1929 300.2355750 +22.5575417     1107.688     71.96069      1.421     3.02     5.326939      20.3438     130.6703        17     1.130     0.946  79.26   0
       324    804.6099    199.8335 300.3608458 +22.6777228     590.5673     72.10778      1.465     2.79     5.113923      20.3438     78.53439        11     0.991     0.718 -38.58   0
       325    561.0355    199.4094 300.2850913 +22.6046986     205.7995     72.10778      1.065     2.95     5.274482      20.3438     45.25455         6     0.800     0.611  41.26   0
       326    912.0709    196.8301 300.3953274 +22.7090106     357.3715     72.10778      1.382     3.23     4.857175      20.3438     42.70972         6     0.808     0.621 -13.74   0
       327    219.6269    192.6751 300.1810349 +22.5005202     777.5773     72.08941      1.386     2.53     5.418833      20.3438     112.2449        12     0.916     0.784  -6.66   0
       328    337.9236    191.9948 300.2180492 +22.5357593     329.2154     72.01588      1.396     3.93     5.347503      20.3438     44.45663         6     0.776     0.570 -53.45   0
       329    757.4320    189.4269 300.3495142 +22.6606126     1636.758     72.10778      1.211     2.24     5.252341      20.3438     266.4765        17     0.969     0.937  62.49   0
       330    822.5170    189.2011 300.3698758 +22.6800231     513.4778      71.9975      1.247     2.74     5.158958      20.3438     72.59103         8     0.894     0.596  20.52   0
       331    241.0652    185.9227 300.1898905 +22.5050028     603.1187     72.19955      1.329     2.70     5.406696      20.3438     83.95682         9     0.867     0.705  -1.39   0
       332    530.8936    181.9501 300.2813659 +22.5906564     372.7571     72.16286      1.168     2.23     5.372176      20.3438     64.54887         6     0.728     0.509  68.64   0
       333    761.5123    180.7460 300.3536004 +22.6593372     761.0059     72.12614      1.366     2.67     5.292982      20.3438     132.9106        14     1.101     0.794  58.98   0
       334    682.1635    180.1360 300.3290707 +22.6354154     1142.416     72.10778      1.217     2.23     5.313786      20.3438     182.9949        15     1.014     0.779 -51.90   0
       335    503.3633    176.6196 300.2745224 +22.5808820     345.5064     72.12614      1.165     3.11     5.377563      20.3438     62.56214         6     0.831     0.596  63.44   0
       336    877.6101    171.7562 300.3927099 +22.6914886     1475.259     72.10778      1.411     2.16     5.110746      20.3438     208.7004        20     1.101     0.948  74.14   0
       337    608.3368    171.9491 300.3087259 +22.6109646     921.1644     72.16286      1.202     2.14      5.29872      20.3438     141.9437        14     0.928     0.778 -61.15   0
       338    889.6749    170.7206 300.3968081 +22.6948000     913.0653      72.2179      1.440     2.99     5.042795      20.3438     126.8029        15     1.067     0.896 -41.94   0
       339    935.8171    169.4470 300.4116122 +22.7082367     367.7783      72.1445      1.630     4.14     4.803781      20.3438      39.4547         5     0.902     0.542  50.52   0
       340   1006.3280    161.3279 300.4362415 +22.7269908     1249.919     72.16286      1.466     2.96     4.804404      20.3438     150.9842        16     1.094     0.861 -34.91   0
       341     29.6855    157.9574 300.1332515 +22.4336400     607.7664     72.07104      1.853     3.92      5.40665      20.3438     66.76717        10     1.117     0.740   2.65   0
       342    311.6996    155.4840 300.2217273 +22.5174154     182.0182     72.27289      1.296     3.98     5.340122      20.3438      43.6582         5     0.972     0.499  -1.80   0
       343    240.2301    153.8932 300.2000139 +22.4955520     645.6152     72.03427      1.408     3.27     5.405892      20.3438     94.65052        13     1.068     0.820  39.31   0
       344    102.2064    148.6487 300.1588043 +22.4526971     2280.075     72.10778      1.544     2.76     5.413223      20.3438     303.7917        25     1.224     1.113  61.75   0
       345    925.2171    146.0135 300.4159028 +22.6983242      817.662     72.05266      1.448     2.77     4.934986      20.3438      109.898        14     1.086     0.855 -65.29   0
       346     51.8808    145.9522 300.1440392 +22.4368437     667.2888     72.12614      1.518     2.57     5.476023      20.3438     66.12537         7     0.707     0.661 -14.71   0
       347    259.5839    141.9763 300.2098956 +22.4979257     5737.416     72.10778      1.457     2.78     5.376028      20.3438     713.6473        38     1.330     1.116  62.37   0
       348    241.7583    143.3091 300.2039200 +22.4929693     347.5774     72.10778      1.429     2.29     5.398664      20.3438     50.02249         5     0.729     0.426 -17.54   0
       349     43.8721    136.4176 300.1446411 +22.4317061     1284.498     72.10778      1.534     2.93     5.556309      20.3438     150.8227        22     1.194     1.039 -18.48   0
       350    243.1035    132.9735 300.2076883 +22.4904031     607.7911     72.05266      1.267     3.25     5.393373      20.3438     92.30097         9     0.886     0.770  81.63   0
       351    903.7673    123.7734 300.4164221 +22.6855097     3551.169     72.10778      1.414     2.67     5.148141      20.3438     498.5478        28     1.173     1.067 -81.34   0
       352   1007.5126    122.5130 300.4491937 +22.7161759     2892.344     72.27289      1.523     2.66     5.169228      20.3438     368.7103        26     1.170     1.114 -58.77   0
       353    453.2473    119.0186 300.2775929 +22.5493220     496.7211      72.1445      1.192     2.84     5.415637      20.3438     97.09796        10     0.950     0.835 -19.45   0
       354    206.2819    119.7008 300.2005402 +22.4755610     372.6963     72.27289      1.404     5.26     5.425861      20.3438       42.208         8     1.030     0.828 -45.07   0
       355    377.3904    110.8279 300.2566394 +22.5242557      637.105     72.10778      1.340     2.51     5.384171      20.3438      81.5768         8     0.834     0.629 -66.87   0
       356    381.3905    109.2996 300.2583795 +22.5250143     517.6982     72.01588      1.860     3.46     5.393565      20.3438     53.67683         8     0.932     0.620 -19.71   1
       357    143.2132    107.5556 300.1848687 +22.4531801     737.2584     72.12614      1.681     3.90     5.467161      20.3438     102.8462        13     1.202     0.842  22.57   0
       358    504.4827    106.1723 300.2977062 +22.5609678      1696.66     72.10778      1.334     2.28     5.371555      20.3438      238.803        20     1.009     0.986  65.69   0
       359    432.3300    106.6307 300.2750972 +22.5394990     579.4888     72.10778      1.522     2.64     5.450681      20.3438     82.57932         7     0.839     0.603  77.51   0
       360    566.4881    105.3302 300.3172865 +22.5792859     442.1086     72.27289      1.353     5.23     5.322739      20.3438     57.75703         9     1.409     0.548  39.08   0
       361    328.4138    102.7894 300.2440064 +22.5072802     164.2889     72.01588      0.889     3.39     5.340206      20.3438      29.9737         5     0.756     0.441 -69.08   0
       362    247.9646    101.3744 300.2194414 +22.4827809     538.0935     72.12614      1.789     5.12     5.376055      20.3438      51.6382         9     1.337     0.748  50.68   0
       363    792.9036     95.9148 300.3908838 +22.6443312     411.1778     72.29121      1.050     2.04     5.492624      20.3438     84.06773         7     0.822     0.482  40.82   0
       364    640.1513     92.1737 300.3444946 +22.5975495     308.4824     72.12614      1.315     3.96     5.316238      20.3438     46.39738         6     1.078     0.416 -62.15   0
       365    938.7352     90.4459 300.4381307 +22.6863794     203.9487     72.12614      1.302     5.32     5.311826      20.3438      34.8713         8     0.979     0.816 -20.68   0
       366    278.5634     85.9006 300.2339727 +22.4874989     6071.329     72.10778      1.459     2.70     5.363631      20.3438     819.4534        38     1.254     1.148 -89.61   0
       367    785.2732     86.9910 300.3913974 +22.6394815     289.4266     72.10778      1.120     3.21     5.474348      20.3438     44.19374         5     0.797     0.484 -37.56   0
       368    129.7159     85.3717 300.1878623 +22.4427648     888.6556     72.10778      1.840     3.26     5.491873      20.3438     99.92816        13     1.024     0.889  80.53   0
       369    250.4039     79.8449 300.2271770 +22.4773258     446.9793     72.12614      1.480     3.41      5.28474      20.3438     56.82489         8     1.073     0.639  59.90   0
       370    293.9971     77.2553 300.2415748 +22.4896367     406.3245     72.05266      1.380     2.47     5.418302      20.3438     63.02147         5     0.776     0.459 -47.75   0
       371    921.0150     75.8417 300.4373365 +22.6768775     357.1267     72.12614      1.273     3.55     5.336702      20.3438     37.58702         6     0.921     0.444  38.24   0
       372     40.4900     76.5307 300.1629981 +22.4134951     421.6832     72.27289      1.332     3.36     5.855936      20.3438     50.48999         6     0.893     0.428 -19.16   0
       373    524.6647     71.2977 300.3152920 +22.5569832     6227.056      72.2179      1.305     2.39     5.033733      20.3438     946.6232        32     1.146     1.039  77.02   0
       374    410.1908     71.1728 300.2796978 +22.5226795     738.2621     72.10778      1.333     2.70     5.606628      20.3438     89.74066        10     0.862     0.725  13.53   0
       375    581.4961     65.8265 300.3347627 +22.5724197     284.3938     72.07104      1.237     4.09     4.938777      20.3438     60.58812         8     1.005     0.601 -73.18   0
       376    278.2560     65.2070 300.2405827 +22.4814608     243.7979     72.08941      1.815     3.89     5.385912      20.3438     27.04124         5     0.961     0.452  43.95   0
       377    777.0021     61.5374 300.3970679 +22.6296852     973.1969     72.10778      1.608     5.16     5.437622      20.3438     88.46132        15     1.365     0.921 -73.25   0
       378    869.6721     60.1400 300.4264126 +22.6570034     449.9389      72.1445      1.188     2.03     5.269513      20.3438     65.88914         7     0.695     0.610 -87.31   0
       379    217.7973     55.1656 300.2250340 +22.4604698     577.0928     72.08941      1.325     3.79     5.004212      20.3438     71.35673        11     1.051     0.833  55.25   0
       380    576.2231     53.8897 300.3369885 +22.5674093     470.9402     72.03427      1.427     3.37     4.794748      20.3438     58.88409         8     0.891     0.742  21.60   0
       381    653.0510     51.4453 300.3617117 +22.5896972     6309.907     72.12614      1.341     2.36     5.119356      20.3438     1007.013        33     1.189     1.020  69.78   0
       382    427.9957     50.3253 300.2919945 +22.5220175     1486.805     72.01588      1.395     2.70     5.573312      20.3438     188.3244        18     1.120     0.939  53.72   0
       383    694.2044     48.6404 300.3754428 +22.6012042     828.2411     72.12614      1.431     2.75     5.281555      20.3438     127.2553        14     1.146     0.845 -88.80   0
       384    764.1901     46.7663 300.3978608 +22.6216033     458.7509     72.07104      1.818     3.76     5.379243      20.3438     40.26751         5     0.967     0.420   3.36   0
       385    710.1929     45.0516 300.3815878 +22.6049556     544.4509     72.10778      1.229     3.19      5.27434      20.3438      74.7531         9     0.893     0.639   9.13   0
       386    176.8435     42.8284 300.2162977 +22.4446598     692.1841     72.12614      1.592     4.00     5.369471      20.3438     78.02722        17     1.197     1.043 -11.76   0
       387    980.0979     42.5621 300.4665515 +22.6849692     531.2475     72.10778      1.185     3.03     5.522634      20.3438     68.47102         9     0.856     0.727  -9.41   0
       388    748.7222     40.5513 300.3950535 +22.6151881     535.4769     72.10778      1.384     2.80     5.314771      20.3438     76.02911         7     0.892     0.495   3.78   0
       389    338.1033     37.4211 300.2682029 +22.4913962     374.7058     72.01588      1.335     4.39     5.721604      20.3438     49.39812         8     0.890     0.708  48.27   0
       390    697.2571     36.3147 300.3803878 +22.5985724     2760.688      72.2179      1.304     2.41     5.250224      20.3438     400.4838        23     1.126     0.969  67.86   0
       391    712.1294     35.0470 300.3854329 +22.6026573     968.8637     72.08941      1.641     3.08     5.250687      20.3438     109.7122        14     1.139     0.798  47.39   0
       392    783.7897     27.7807 300.4101218 +22.6220047     1676.887     72.08941      1.449     3.14     5.439792      20.3438     214.9163        24     1.183     1.066  63.48   0
       393    530.3332     26.6524 300.3315231 +22.5458438     220.6658     72.12614      0.978     3.42     4.505405      20.3438     42.28966         5     0.749     0.452 -14.56   0
       394    861.9406     22.7416 300.4361198 +22.6439304     333.3107     72.18121      1.153     3.76     5.260756      20.3438     37.14495         5     0.810     0.500 -48.53   0
       395    721.8694     21.1241 300.3929793 +22.6015664      664.662     72.18121      1.231     2.23     5.219493      20.3438     104.6834        10     0.854     0.716 -67.34   0
       396    527.4412     20.6658 300.3325623 +22.5432569     1052.077     72.08941      1.219     2.24     4.441792      20.3438     147.3954        13     0.961     0.709 -40.44   0
       397    326.3934   1017.2311 299.9464525 +22.7691698     1147.896     72.10778      2.016     5.66     12.06806      20.3438     80.68483        23     1.396     1.243 -15.35  16
       398    431.1506     18.6813 300.3032290 +22.5138655     730.8202     72.12614      1.173     2.20     5.575837      20.3438     133.9987        11     0.871     0.715 -73.42   0
       399    813.5435     17.1406 300.4228446 +22.6278435     407.6893     72.18121      1.444     4.00     5.459166      20.3438     47.74646         6     0.806     0.637 -70.41   0
       400    161.1922   1014.7239 299.8959024 +22.7188779     763.1604     72.07104      1.939     6.54     100.7888      20.3438     37.64336         7     1.651     0.727  71.17  16
       401    206.0515    995.9578 299.9159514 +22.7269607     1890.063     72.10778      6.146    12.10     74.54647      20.3438     61.31907        42     2.320     1.876 -68.12   3
       402    204.7687   1003.3243 299.9131563 +22.7286876     2747.116     72.10778      5.270    25.63      80.4951      20.3438       72.526       145     5.756     3.493  34.89  19
       403    180.5173   1011.6667 299.9029037 +22.7238013      152.018      72.2179      1.544     5.82     93.52477      20.3438     39.05625         8     1.172     0.814 -68.42   0
       404    517.4393   1005.5486 300.0097015 +22.8231268     356.8684     72.10778      1.768     5.05     3.721569      20.3438     37.42382         6     0.950     0.759  -4.10   0
