#   1 NUMBER                 Running object number                                     
#   2 X_IMAGE                Object position along x                                    [pixel]
#   3 Y_IMAGE                Object position along y                                    [pixel]
#   4 ALPHA_J2000            Right ascension of barycenter (J2000)                      [deg]
#   5 DELTA_J2000            Declination of barycenter (J2000)                          [deg]
#   6 FLUX_APER              Flux vector within fixed circular aperture(s)              [count]
#   7 FLUXERR_APER           RMS error vector for aperture flux(es)                     [count]
#   8 FLUX_RADIUS            Fraction-of-light radii                                    [pixel]
#   9 FWHM_IMAGE             FWHM assuming a gaussian core                              [pixel]
#  10 BACKGROUND             Background at centroid position                            [count]
#  11 THRESHOLD              Detection threshold above background                       [count]
#  12 FLUX_MAX               Peak flux above background                                 [count]
#  13 ISOAREA_IMAGE          Isophotal area above Analysis threshold                    [pixel**2]
#  14 A_IMAGE                Profile RMS along major axis                               [pixel]
#  15 B_IMAGE                Profile RMS along minor axis                               [pixel]
#  16 THETA_IMAGE            Position angle (CCW/x)                                     [deg]
#  17 FLAGS                  Extraction flags                                          
         1    477.6846     16.3495 300.3327096 +22.5432124      1077.45     71.93777      1.607     3.47      6.33019       20.301     105.9267        20     1.212     1.004 -37.46   0
         2     50.5920     16.1494 300.1998198 +22.4153142     611.2274     71.95611      1.979     4.66     6.333731       20.301     47.51379        10     1.170     0.714 -62.19   0
         3    381.3926     14.6443 300.3032646 +22.5139085     844.3953     71.97443      1.543     2.98     6.421034       20.301     87.20694        15     1.053     0.900 -18.45   0
         4   1023.3073     11.3980 300.5045259 +22.7049471     1233.025     57.94577      1.447     5.55     7.633624       20.301     209.7581        20     1.560     0.751  88.03  24
         5    720.8353      5.4090 300.4120577 +22.6127969     552.0657     71.95611      1.520     2.83     7.103765       20.301     62.06494        10     0.870     0.800  13.52  16
         6    152.6282      4.2284 300.2354233 +22.4424395     3808.606     69.24755      1.839     3.52     6.388643       20.301     337.6263        41     1.449     1.417  68.48  24
         7    200.2273    985.2295 299.9317795 +22.7384021     4964.083     71.95611      9.588    38.04     60.90571       20.301      99.6072       432     8.464     4.745 -59.84  19
         8     67.5082   1010.5311 299.8822650 +22.7058396     5626.047     72.08429     15.534    71.51     72.83475       20.301     165.3447      1871    15.572    10.687  36.81  27
         9     59.4939    948.4853 299.8999544 +22.6856424     5334.264     72.13915     26.120   120.45     32.26569       20.301     1218.544      4457    21.475    18.746 -67.01  19
        10    479.3810    977.2051 300.0213033 +22.8198152     413.7228     71.91944      1.500     4.64     4.683858       20.301     35.21053         6     1.311     0.466 -83.66   0
        11    218.7977    973.9453 299.9412285 +22.7407357     7332.548      71.9011      7.918    28.66     47.94803       20.301     149.2334       662     9.284     5.003  61.39  18
        12    907.3454    971.8617 300.1564948 +22.9465299     764.3459     72.01107      2.075     7.82     5.318053       20.301     42.36601        16     1.700     1.007   8.46   0
        13    124.1546    956.5077 299.9174552 +22.7073427     1801.746     71.95611      8.216    14.97     44.92391       20.301     52.19228        46     3.174     1.963 -77.72   3
        14    128.3802    956.8170 299.9186690 +22.7086991     1305.876     71.93777     11.576    13.47     44.83968       20.301     50.26972        23     4.118     1.227  56.74   3
        15    632.7007    954.6248 300.0764297 +22.8592906     6928.985     71.88276      2.126     5.01     4.981675       20.301     348.1164        56     1.691     1.566  63.74   0
        16    153.2201    993.8787 299.9143410 +22.7267811     2565.126     71.95611      7.035    13.86     76.89124       20.301     69.45145        46     3.034     1.760 -21.32   3
        17    148.7470    976.1544 299.9187149 +22.7203555      1690.36     71.99275      4.984     5.53     61.08226       20.301     62.25064        13     1.252     0.989 -89.96   3
        18    541.2854    945.1823 300.0510079 +22.8291804     1561.266      71.9011      2.145     5.80     5.099292       20.301     84.47182        29     1.564     1.348 -39.22   0
        19    211.6705   1000.3403 299.9304247 +22.7461693     1165.396     71.99275      2.656     5.01     70.88924       20.301     58.08714        13     1.298     0.874 -33.84   2
        20    435.0795    941.5246 300.0191088 +22.7962922     981.4348     72.06599      1.977     6.70     4.958024       20.301      75.2436        20     1.465     1.145  25.49   0
        21    365.7057    939.6467 299.9981143 +22.7749529     6501.274     71.97443      2.086     4.55     5.067883       20.301     446.4789        52     1.626     1.583  58.34   0
        22    336.6635    999.3391 299.9696551 +22.7833726     622.6042     71.99275      2.496     5.27     5.390392       20.301     50.28479         7     1.261     0.623 -79.14   0
        23    399.6611    926.2918 300.0130317 +22.7813012     507.3341     72.04769      2.561     3.53     4.981925       20.301     39.34068         6     0.740     0.652  39.18   0
        24    912.1428    918.8719 300.1752287 +22.9327420     2142.954     71.99275      2.177     6.07     5.257364       20.301     103.8184        35     1.684     1.360  38.37   0
        25    114.0640    919.8915 299.9262248 +22.6938131     912.1923     72.06599      6.860     7.38     19.62614       20.301     42.60762        11     1.632     0.933 -10.36   1
        26    562.4886    915.5434 300.0672554 +22.8270262     350.0019     71.99275      1.706     5.90     5.061637       20.301     40.16502         7     1.068     0.917  53.43   0
        27    701.2164    907.2589 300.1131983 +22.8662199     675.9645     71.91944      2.093     6.80      5.19295       20.301     44.51703        13     1.518     0.855  57.30   0
        28    734.0000    902.0185 300.1251268 +22.8745371     575.1944      71.8644      1.448     5.15     5.219915       20.301     56.52998        10     1.529     0.583 -78.15   3
        29    736.6646    901.0341 300.1262780 +22.8750527     820.1231     71.95611      1.880     4.86     5.224074       20.301     60.62283        14     1.322     0.822 -69.54   3
        30    513.2574    902.7581 300.0560717 +22.8085996     375.9836     71.93777      1.667     4.61     5.034413       20.301      37.2291         5     0.993     0.757 -59.65   0
        31    527.8649    992.2748 300.0315072 +22.8386760     2318.141     72.01107      2.119     5.07     5.169648       20.301     151.8639        35     1.556     1.458  73.33   0
        32    153.2901    998.6320 299.9128165 +22.7281654     3114.484     71.91944      6.373    25.70     81.29368       20.301     64.34283       144     5.402     3.550  35.59  18
        33    614.7751    987.7052 300.0600806 +22.8634161     9548.772     71.88276      2.356     5.29     4.634749       20.301     439.7126        53     1.790     1.520  43.45   3
        34    757.9359    895.4142 300.1347403 +22.8798111     11418.49     71.91944      2.022     4.66      5.22788       20.301     708.5635        57     1.619     1.535  74.88   0
        35    620.1257    985.3951 300.0625000 +22.8643566     9737.313     71.88276      2.247     6.12     4.704117       20.301     501.4242        53     1.704     1.623  22.13   3
        36    948.6359    896.2336 300.1939830 +22.9371659     395.2789     72.02938      1.802     5.63     5.228091       20.301     38.42389         8     1.456     0.613   0.88   0
        37    715.9102    988.5323 300.0913448 +22.8939636     635.4753     72.10258      2.026     4.37     4.774312       20.301     46.06326         6     1.113     0.488  70.01   0
        38    809.3892    883.2695 300.1547412 +22.8917358     514.0497     71.93777      1.910     6.56     5.242305       20.301     41.91448        11     1.168     1.033  68.75   0
        39    766.5339    877.5711 300.1432248 +22.8772612     1553.534     71.95611      2.098     4.92     5.257851       20.301     90.85316        31     1.519     1.352 -80.58   0
        40    619.4171    874.6543 300.0982966 +22.8323455     421.7825     71.93777      1.706     3.88     5.212996       20.301     39.92252         6     0.926     0.651  69.17   0
        41    805.3692    871.2523 300.1573948 +22.8870791     994.6208     71.97443      2.746     5.34     5.251603       20.301     44.65391        11     1.201     0.698  30.04   2
        42    853.0377    862.3137 300.1751751 +22.8987886     598.2974     71.93777      2.178     6.68     5.404763       20.301     35.70011         9     1.251     1.000 -33.36   0
        43    704.5461    861.4009 300.1291490 +22.8540458     669.3196      71.9011      1.824     6.49     5.279848       20.301     47.46742        15     1.138     1.038  22.92   0
        44    416.9914    857.4139 300.0408266 +22.7667261      4377.45      71.8644      2.023     4.25     5.024679       20.301     326.6078        49     1.619     1.507 -45.39   0
        45    715.7549    858.2250 300.1336772 +22.8564916     603.7866     71.97443      2.113     5.58     5.300611       20.301     42.75958        10     1.287     0.793  20.88   0
        46    196.3079    846.3928 299.9757087 +22.6973956     248.2722     71.86441      1.327     3.34     7.306174       20.301     45.66904         5     0.986     0.330 -69.66   0
        47    142.3873    842.8670 299.9600790 +22.6802128     685.1113     71.93777      1.922     5.16     8.772116       20.301     55.20781        14     1.455     0.939  43.72   0
        48    119.3468    840.0912 299.9538141 +22.6725059     1441.475     72.01107      2.021     5.18      8.75827       20.301     97.84033        27     1.480     1.393  38.78   0
        49    991.2935    829.5818 300.2289747 +22.9307826     2171.251     71.88276      2.107     5.23      5.34122       20.301     105.2721        36     1.524     1.503  73.71   0
        50    945.4547    828.1384 300.2151323 +22.9166430     2135.716     72.01107      2.003     4.63     5.375066       20.301     116.0623        32     1.473     1.358  29.72   0
        51    649.7937    828.3193 300.1228320 +22.8281396     537.9037     71.88276      2.169     5.25     5.258589       20.301     39.72268         5     1.463     0.532 -77.33   2
        52    729.0746    821.7134 300.1497022 +22.8499931     610.1278     72.08429      1.907     6.39     5.397023       20.301      41.2315        12     1.174     0.977 -26.41   0
        53    596.8853    815.5718 300.1104821 +22.8086258     4961.993     71.95611      1.880     4.24     5.261232       20.301     383.2497        46     1.606     1.363  58.56   0
        54    146.0216    973.1695 299.9188380 +22.7186818     1534.006     71.95611      9.377    15.59     58.48291       20.301      45.1282        33     4.381     1.541 -81.67   3
        55    399.7220    812.4557 300.0500639 +22.7486430     670.7382     71.99275      1.894     6.10     5.459648       20.301     47.51852        13     1.206     0.975  15.94   0
        56    147.2552    809.1379 299.9725576 +22.6719953     1337.166     72.02938      2.074     4.71     6.476075       20.301     105.6631        28     1.636     1.318  40.96   0
        57    617.4615    808.3630 300.1192397 +22.8127204       902.26     71.97443      2.061     4.23     5.272724       20.301     69.74242        17     1.265     1.011 -49.51   0
        58    990.0594    796.2501 300.2394255 +22.9208317     1129.801     72.01107      1.993     5.03     5.517736       20.301     79.20049        24     1.394     1.259  78.37   0
        59    773.0645    795.4425 300.1719639 +22.8556216     4337.009     71.93777      1.909     4.09      5.48873       20.301     305.8203        41     1.450     1.424  71.68   0
        60    182.6339    789.5047 299.9899461 +22.6769709     424.7296     71.93777      1.548     4.92     5.881715       20.301     45.33104         7     1.155     0.594 -39.14   0
        61    490.2442    787.9321 300.0862333 +22.7687325     634.7156     71.93777      1.941     3.44     5.506415       20.301     53.31443        10     1.024     0.807  17.23   0
        62    136.4471    785.7391 299.9768006 +22.6620401      1087.87     71.99275      2.017     5.70     5.991586       20.301     72.65328        20     1.477     1.116 -16.91   0
        63    551.7298    781.3417 300.1075349 +22.7852646     557.4462     71.97443      1.943     3.21     5.443589       20.301     49.84568        10     0.869     0.841  62.93   0
        64    286.0648    777.7402 300.0259591 +22.7046062     53922.84     71.99275      1.929     3.95     5.944558       20.301     4464.838       106     1.665     1.596  54.88   0
        65    956.6147    776.5882 300.2353746 +22.9051669     837.0793     71.88276      2.042     6.07     5.658548       20.301     55.02272        20     1.561     1.193  53.33   0
        66    543.8952    776.9628 300.1065165 +22.7816594     1594.394     71.93777      1.803     3.95     5.485505       20.301     132.9888        21     1.254     1.078  25.52   0
        67    214.9606    775.8913 300.0044296 +22.6827574     517.2528     71.95611      1.848     4.78     5.901176       20.301     36.36776         9     1.095     0.748 -48.26   0
        68    572.8810    772.8997 300.1168709 +22.7891775      933.468     72.08429      1.734     6.10     5.488235       20.301     69.14366        18     1.239     1.026  27.90   0
        69    583.7257    771.1219 300.1208288 +22.7919161     648.4193     72.06599      1.903     5.42     5.491084       20.301     50.34399        15     1.239     0.978  -9.21   0
        70    689.2233    768.1191 300.1546955 +22.8226584     557.5678     71.91944      1.675     3.68     5.424176       20.301     45.55715         7     1.065     0.576  11.49   0
        71    484.2917    765.4427 300.0916883 +22.7604906     442.7834     71.95611      2.239     4.40     5.765682       20.301     33.90918         5     0.906     0.608 -49.68   0
        72    726.5480    757.9688 300.1696348 +22.8309220     864.1373     71.97443      1.863     7.50     5.574021       20.301     55.35998        19     1.279     1.230  36.60   0
        73    335.8415    755.0115 300.0488424 +22.7130034     31904.24     71.95611      1.846     3.82     6.016351       20.301     2359.645        77     1.555     1.498  64.83   0
        74    350.2302    755.6585 300.0531123 +22.7175021     1935.267     71.97443      1.776     3.60     6.030931       20.301      188.177        27     1.388     1.131  -7.50   2
        75    347.3720    750.1758 300.0540041 +22.7150714     647.8821     71.93777      1.869     5.13     6.040084       20.301     54.22161        11     1.115     0.862   3.08   3
        76    858.9569    751.2303 300.2131340 +22.8686386     2883.444     71.99275      1.895     4.19      5.80346       20.301     189.6734        32     1.512     1.240  82.62   0
        77    616.8836    747.3732 300.1388833 +22.7950283     985.4838     71.95611      1.820     4.64     5.589982       20.301     74.52682        16     1.228     0.935  53.36   0
        78    218.3663    746.7576 300.0149575 +22.6754169     879.7307     72.01107      1.930     4.12     5.878927       20.301      87.6814        17     1.267     1.024  50.78   0
        79    453.7026    747.1675 300.0880980 +22.7460758      456.699     71.93777      1.953     3.45     5.931355       20.301      42.6964         8     0.907     0.731  14.34   0
        80    458.1796    746.5137 300.0897051 +22.7472297     397.8114     71.88276      2.403     5.36     5.936979       20.301     43.78883         5     1.081     0.752  -7.16   1
        81    464.0805    741.9099 300.0930396 +22.7476759     827.3741     72.06599      1.681     3.98     5.997308       20.301     74.49152        18     1.201     1.050  73.22   0
        82    148.6863    980.6682 299.9172278 +22.7216320     1777.822     72.04769      7.698    10.46     65.47299       20.301     51.52122        25     2.029     1.504  44.76   3
        83    864.9363    738.8739 300.2190159 +22.8668775     525.7874     71.99275      1.721     4.84     5.866419       20.301     42.52803        10     1.159     0.919  25.92   0
        84    366.0607    738.6149 300.0635805 +22.7173538     277.8495     71.91944      1.331     3.40     6.048534       20.301      33.6461         5     0.770     0.436 -19.96   0
        85    321.7207    738.0240 300.0499664 +22.7038938     308.2821     71.93777      1.539     4.10     6.024411       20.301     39.93533         5     1.099     0.437 -20.32   0
        86    410.5418    736.9053 300.0779888 +22.7301943     291.7259     72.02938      1.307     2.30     5.980877       20.301     50.94943         5     0.709     0.463  69.84   0
        87     52.4127    735.9658 299.9668389 +22.6225569     490.6112     71.93777      1.884     4.42     6.131344       20.301     42.97681         8     1.131     0.492  88.66   0
        88    618.2239    736.2910 300.1429026 +22.7922462     307.0021     71.88276      2.097     4.45     5.649716       20.301     31.22729         5     0.793     0.711 -24.78   0
        89    842.6924    734.4677 300.2135064 +22.8589506     462.7997     72.08429      1.991     4.68     5.848063       20.301     42.74083         8     1.326     0.601 -13.97   0
        90    539.5569    722.0747 300.1230027 +22.7645948     395.7403     71.93777      1.814     4.49     5.910726       20.301     36.30001         9     1.033     0.692   6.43   0
        91    509.2432    719.9846 300.1142356 +22.7549119     594.2396     71.97443      1.515     4.16     6.009279       20.301     49.69691        12     1.002     0.964   9.60   0
        92    925.3840    716.5779 300.2451288 +22.8785661      4522.39     71.93777      1.899     4.27     5.946846       20.301     302.9114        43     1.482     1.412  89.13   0
        93    530.8331    717.4481 300.1217875 +22.7606521     1275.249     71.99275      1.612     3.64     5.957077       20.301     134.4429        20     1.157     1.136 -39.70   0
        94    450.8789    717.1177 300.0969834 +22.7366002     347.5276     72.08429      1.583     5.45     6.051182       20.301     33.41906        10     1.154     0.725 -21.02   0
        95    914.0124    708.0637 300.2443459 +22.8727141     1728.054     71.91944      1.822     4.18      6.00326       20.301     122.7505        29     1.377     1.291  52.18   0
        96    143.1404    702.7994 300.0058347 +22.6402460     197.0026     71.91944      1.092     3.73     5.968512       20.301     31.30518         6     0.760     0.565 -43.87   0
        97    276.9958    701.5618 300.0478910 +22.6800197     887.9198     71.99275      1.955     6.82      5.95228       20.301     61.48452        15     1.355     0.961 -35.83   0
        98    740.2553    699.1485 300.1930252 +22.8181252     2403.275     71.99275      1.745     3.55     5.711142       20.301     188.1302        30     1.415     1.200  12.50   0
        99    945.0750    698.1005 300.2572803 +22.8791486     1668.543     72.08429      1.935     4.64     5.971888       20.301     121.6185        27     1.471     1.262 -76.68   0
       100    125.8143    685.5045 300.0060637 +22.6300875     536.0709     71.88276      1.714     4.78     6.008351       20.301     50.99178        12     1.148     1.004 -80.30   0
       101    822.8455    685.2276 300.2233141 +22.8388552     496.2068     71.99275      1.981     6.62     5.986791       20.301     45.46371         9     1.194     1.029  -2.14   0
       102    858.7045    676.1577 300.2374509 +22.8469842     148484.8     71.97443      1.820     3.82     6.365267       20.301     11205.42       161     1.645     1.565  88.82   0
       103   1005.8441    678.3504 300.2826719 +22.8916592     1205.855     71.99275      1.984     4.64      5.81662       20.301     86.77676        24     1.439     1.218   2.50   0
       104    621.1554    679.4536 300.1622852 +22.7767953      296.004     71.97443      1.697     5.78      5.93044       20.301     32.06671         7     1.023     0.919 -28.73   0
       105    711.0714    676.4583 300.1912954 +22.8028648     853.7032     71.99275      1.816     4.05     5.723915       20.301     70.47565        13     1.086     0.983  38.08   0
       106    891.2690    669.0700 300.2499170 +22.8546955     426.8389     72.01107      1.657     5.35     6.305431       20.301     36.43531         9     0.940     0.861  72.75   0
       107    544.9256    664.9926 300.1432226 +22.7498061      1551.47      71.9011      1.548     3.20     6.191681       20.301     159.1738        23     1.187     1.077  17.12   0
       108    726.1311    662.1714 300.2006339 +22.8032689     9450.979     71.93777      1.683     3.46     5.734672       20.301      797.853        50     1.414     1.333  82.09   0
       109    227.5818    657.0739 300.0469642 +22.6524360     5028.185     71.95611      1.852     3.67     5.875174       20.301     380.1163        41     1.441     1.386 -43.77   0
       110    309.6126    655.3057 300.0730724 +22.6765154     1186.898     71.88276      1.751     3.82     5.961977       20.301     97.14982        20     1.223     1.119 -30.37   0
       111    185.6227    653.0732 300.0352066 +22.6387096     566.7823     72.01107      1.831     3.14     5.964092       20.301     60.66274        10     1.004     0.741 -24.08   0
       112    518.0862    650.6593 300.1395150 +22.7376482     769.3351     72.06599      1.528     3.20     6.306892       20.301     82.10437        14     1.036     0.919 -32.12   0
       113    509.6597    642.9187 300.1394038 +22.7329001     3262.828     72.04769      1.611     3.37     6.372726       20.301     292.1723        32     1.290     1.218  87.04   0
       114    499.8835    636.6138 300.1384057 +22.7281602     1381.199     71.91944      1.585     3.12     6.422102       20.301     140.3926        18     1.076     1.046  74.79   0
       115    893.2621    634.9171 300.2616346 +22.8454731     435.8691     72.04769      1.532     4.68     6.444715       20.301     41.05402        10     0.991     0.744 -28.50   0
       116    410.3939    634.0751 300.1113519 +22.7006195     361.7827     71.88276      1.523     4.07     6.134559       20.301     35.38834         5     0.803     0.591   8.94   0
       117    163.1015    632.6192 300.0348432 +22.6260869      561.704     71.88276      1.737     4.67     6.018587       20.301     58.93803        15     1.233     1.005  17.76   0
       118    177.8691    631.4413 300.0398206 +22.6301757     660.6958     71.93777      1.791     3.55     5.983047       20.301     61.07897        11     0.919     0.889   4.99   0
       119    946.6420    628.2870 300.2804516 +22.8595443     559.7905     71.93777      1.818     4.18       6.2917       20.301     47.24442         9     1.110     0.731  50.67   0
       120    234.6288    628.0662 300.0585798 +22.6462204     398.7769     71.95611      1.718     3.37     5.876288       20.301     34.30181         5     0.764     0.430 -69.62   0
       121    203.6844    627.8281 300.0490271 +22.6368767     545.1326     71.95611      1.630     4.66     5.921443       20.301     43.24171         8     0.955     0.645  80.56   0
       122    523.2654    626.9395 300.1488341 +22.7323855     353.3736     71.99275      1.546     5.61     6.504395       20.301     38.68724         9     1.024     0.867 -52.35   0
       123    424.6850    626.3143 300.1183241 +22.7026724     1744.558     72.08429      1.739     3.49     6.204833       20.301     164.2981        26     1.282     1.176  50.74   0
       124   1000.5229    624.1404 300.2986221 +22.8744775     785.1089     72.01107      1.877     5.19     5.947589       20.301      61.7088        17     1.318     1.074   9.82   0
       125     78.5835    621.0158 300.0123209 +22.5974179     19997.95     71.91944      1.958     3.97     5.950342       20.301     1377.154        75     1.649     1.570  42.31   0
       126    509.4368    621.5974 300.1462601 +22.7267083     1034.628     71.97443      1.618     4.44     6.545542       20.301     105.3594        18     1.224     1.040  49.71   0
       127    544.8371    621.0974 300.1574542 +22.7371689     386.0688     71.95611      1.410     3.40     6.553771       20.301     42.73762         7     0.821     0.694  13.20   0
       128    927.6058    608.2316 300.2810234 +22.8480799     1176.767     71.95611      1.828     4.41     6.559561       20.301     84.55864        23     1.382     1.134 -40.06   0
       129     91.5974    605.7869 300.0213145 +22.5969486     466.9489     71.79096      1.492     4.59     5.921008       20.301     46.03909         9     1.244     0.480  84.97   0
       130     24.6766    605.1353 300.0007147 +22.5766974      1561.73     72.04769      2.281     5.69     5.920167       20.301     92.88068        32     1.840     1.325 -85.27   0
       131    794.5861    606.0811 300.2402088 +22.8076435     476.8826     71.93777      1.585     3.96     5.831751       20.301     47.13719         9     0.881     0.788 -24.17   0
       132    472.9283    602.7277 300.1410138 +22.7103507     506.8875     72.01107      1.560     4.26     6.594833       20.301     56.29109        10     1.292     0.909  64.55   0
       133    867.8972    600.8524 300.2647833 +22.8280864      890.707     72.02938      2.514     5.29     6.549068       20.301     51.21753        15     1.197     0.999  87.37   2
       134    612.9932    597.7482 300.1862822 +22.7508736     790.9066     71.95611      1.084     5.44     6.149698       20.301     475.0308         9     1.219     0.684 -88.25   0
       135    430.0232    594.7082 300.1302523 +22.6951933     611.8278     71.88276      1.502     2.83      6.28475       20.301     70.16092        11     0.938     0.768  68.80   0
       136    577.9928    593.5981 300.1767197 +22.7391986     421.7392     71.77259      1.455     4.75     6.405073       20.301     48.03634         9     1.027     0.752  -7.82   0
       137    624.9054    591.6411 300.1919794 +22.7526861     471.5018     71.97443      1.777     5.17     6.107414       20.301     46.13794         7     1.001     0.833 -70.76   0
       138    595.7161    591.5716 300.1829024 +22.7439244     666.3139     71.95611      1.783     4.46     6.271885       20.301     67.15572        13     1.278     0.811  19.77   0
       139    474.1234    590.4730 300.1453662 +22.7071882     976.3706     72.02938      1.738     2.96     6.602045       20.301     91.44919        14     0.993     0.887  47.94   0
       140    907.7220    586.2916 300.2819427 +22.8358197     3335.188     72.10258      1.745     3.49     6.529999       20.301     309.8295        33     1.387     1.225  58.04   0
       141    439.3701    585.7657 300.1360682 +22.6954247     1748.302     71.97443      1.646     3.26     6.349651       20.301     190.3207        24     1.235     1.100  71.41   0
       142   1005.7812    584.7180 300.3130692 +22.8647130     678.1591     71.93777      1.653     4.47     5.978932       20.301     68.13599        12     1.139     0.820  -9.65   0
       143    804.6722    583.6225 300.2506501 +22.8042066     215.8416     71.99275      1.478     3.98       6.0501       20.301     36.75055         5     1.018     0.687  57.99   0
       144      2.2067    579.2742 300.0021264 +22.5625381     3533.161     60.76752      1.498     3.38      5.89832       20.301     385.0975        32     1.608     0.907  88.89  24
       145    946.3273    576.0131 300.2973325 +22.8444179     305.1193     71.97443      1.425     4.50     6.400606       20.301     40.41323         6     1.273     0.453 -84.03   0
       146    468.9257    576.8658 300.1481659 +22.7017221     339.3639     72.01107      1.797     4.72     6.565988       20.301     33.72187         7     1.054     0.600  -0.50   0
       147    302.8780    572.4829 300.0978759 +22.6507139     9210.958     72.06599      1.695     3.41     5.992959       20.301     830.8376        48     1.410     1.324  57.72   0
       148    425.3464    569.6108 300.1369461 +22.6865828     9116.587     71.95611      1.650     3.14     6.248693       20.301      948.609        45     1.359     1.295  73.83   0
       149    671.3585    566.3234 300.2146854 +22.7593203      412.386     71.91944      1.636     4.84     6.048791       20.301     39.36863         8     0.965     0.689  -8.93   0
       150    190.7625    566.4338 300.0649446 +22.6153772     404.9476     71.99275      1.838     4.28     5.941227       20.301     26.28163         5     0.910     0.574  50.34   0
       151    837.0042    563.9670 300.2671221 +22.8082338     1959.427     71.95611      1.680     3.45     6.360979       20.301     159.9916        24     1.216     1.108 -44.46   0
       152    921.6846    561.2394 300.2944374 +22.8327944     12579.77     71.93777      1.760     3.54     6.496986       20.301      1092.46        55     1.482     1.379 -75.49   0
       153    485.8927    559.2601 300.1591695 +22.7017464     11618.02     72.02938      1.581     3.14     6.652523       20.301     1096.064        47     1.338     1.260  73.62   0
       154    789.9866    560.1057 300.2537056 +22.7930494     896.9539     71.88275      0.488     2.23       6.1917       20.301     683.4711         7     0.395     0.384  -1.26   0
       155    655.2828    555.4469 300.2132049 +22.7513807     433.0799     71.95611      1.446     2.82     6.134485       20.301     48.71937         6     0.680     0.640 -40.46   0
       156    213.3727    554.4421 300.0758744 +22.6187105     1314.278     71.97443      1.702     3.35     5.930822       20.301     140.0283        20     1.202     1.077  35.79   0
       157    371.6189    553.9645 300.1252932 +22.6659920     268.3807     71.95611      1.415     3.65     6.141346       20.301     46.62064         7     1.032     0.815  75.85   0
       158    459.8915    552.1995 300.1533614 +22.6919294     414.2548      71.8277      1.569     4.65     6.501087       20.301     40.45737         7     1.011     0.774  -5.28   0
       159    417.4502    547.3560 300.1417132 +22.6778242     4640.101     71.99275      1.710     3.35     6.191004       20.301     441.0022        40     1.420     1.247  38.83   0
       160    760.4804    547.5431 300.2485801 +22.7806047     790.4658     71.99275      1.730     3.49      6.21936       20.301     69.64401        17     1.112     0.994  80.08   0
       161    395.8774    545.9541 300.1354492 +22.6709587     1230.944     71.93777      1.558     2.96     6.169876       20.301     138.7396        17     1.063     0.969 -30.17   0
       162    150.4566    545.4891 300.0592046 +22.5972831     673.3644     71.99275      1.629     4.44     5.924486       20.301     65.37936        12     1.145     0.945 -27.74   0
       163    837.4521    543.1812 300.2740118 +22.8023913     1624.017     71.93777      1.697     3.78     6.399671       20.301     124.0217        22     1.217     1.177  84.24   0
       164     84.5584    542.2993 300.0397411 +22.5766145     318.6012     71.93777      2.813     6.03     5.873157       20.301     33.86171         6     1.411     0.725 -83.44   0
       165    755.0445    541.9767 300.2486920 +22.7773772     4784.887     71.99275      0.451   -13.76     6.221552       20.301     3593.606         9     0.392     0.367  74.94   0
       166    534.2489    535.0174 300.1821095 +22.7092642       206768     71.99275      1.572     3.05     6.628129       20.301     18891.79       191     1.534     1.513 -15.03   0
       167    358.3931    541.3202 300.1252803 +22.6583976     399.4414     71.88276      1.482     2.71     6.123903       20.301     51.41813         5     0.846     0.462  77.04   0
       168    717.9438    540.1395 300.2377163 +22.7657420     803.2142     72.02938      1.663     4.16     6.175689       20.301     76.46581        17     1.231     1.015 -43.09   0
       169    220.3050    534.7941 300.0844114 +22.6151462     3583.346     71.84605      1.788     3.28     5.936131       20.301     359.1281        32     1.363     1.259  69.08   0
       170    786.1067    531.4265 300.2618080 +22.7836425     610.7646      71.9011      1.920     3.86     6.220266       20.301     48.40285         9     0.996     0.772 -11.24   0
       171    805.3843    529.5139 300.2684436 +22.7888630     256.0856      71.9011      1.698     3.43     6.235536       20.301     29.87388         5     1.118     0.304  69.34   0
       172   1013.0169    528.3915 300.3336209 +22.8506764     683.3414      71.9011      0.628     0.69     6.157743       20.301     373.4286         6     0.489     0.417  84.13   0
       173    424.8595    515.4677 300.1543749 +22.6708827     2790.806     71.99275      1.640     3.19     6.157435       20.301     248.2717        32     1.544     1.064  86.65   0
       174    269.2904    517.8707 300.1051525 +22.6249652     458.5197     72.12087      1.597     2.15     5.960097       20.301     63.06339         6     0.697     0.574 -33.72   0
       175    836.4842    511.9107 300.2838634 +22.7931098     504.9777     72.08429      1.927     5.19     6.163202       20.301     31.51817         8     0.919     0.828  67.24   0
       176    853.6353    507.0081 300.2908074 +22.7968331     229.7629     71.95611      1.425     4.20      6.15908       20.301     27.97243         5     0.822     0.612  -0.99   0
       177    742.0497    504.3853 300.2568441 +22.7626797      299.116     71.97443      1.251     2.86     6.136521       20.301     45.67059         7     0.724     0.679   0.62   0
       178    821.8257    501.6478 300.2826215 +22.7857714     1712.426     71.97443      1.647     3.24     6.061993       20.301     167.7305        24     1.288     1.097  23.80   0
       179    693.1659    499.3517 300.2432319 +22.7465987     2552.691     71.99275      1.528     3.05     6.166792       20.301     234.7069        28     1.247     1.132  67.74   0
       180    937.4568    497.0202 300.3202138 +22.8190443     476.1299     71.97443      1.518     4.81     6.475159       20.301     63.78251        10     1.311     0.741 -37.88   2
       181    936.1420    492.8755 300.3211490 +22.8174588     774.2676     72.01107      2.117     4.35     6.478585       20.301     56.70937        10     1.041     0.729 -87.73   3
       182    597.8765    496.2708 300.2145213 +22.7171831      461.173     72.06599      1.612     2.59     6.501078       20.301     60.16013         7     0.818     0.587  34.34   0
       183    480.3580    495.1329 300.1782661 +22.6816632     610.2422     71.93777      1.402     4.44     6.239663       20.301     66.00616        10     0.987     0.684 -34.00   0
       184    950.5339    493.4337 300.3254609 +22.8219256     1317.833     71.95611      1.747     4.10     6.484706       20.301     114.1613        19     1.200     1.066 -22.80   0
       185    822.1289    491.9359 300.2858691 +22.7830694     2113.436     71.99275      1.729     3.83     5.987535       20.301     185.4405        27     1.442     1.080  72.80   0
       186    575.4681    489.9757 300.2095800 +22.7086639     506.3404     71.93777      1.454     3.12     6.551035       20.301      58.5359         8     0.841     0.651  -8.98   3
       187    574.6695    486.0014 300.2106213 +22.7072825     496.1636      71.9011      2.190     5.75     6.558144       20.301     37.81437         8     1.110     0.838  80.88   2
       188    860.2651    486.8498 300.2994212 +22.7930201     4255.524     71.99275      1.594     3.24     6.015279       20.301     377.0121        35     1.351     1.174  76.99   0
       189    414.2451    487.8771 300.1600258 +22.6597763     443.8359     71.93777      1.491     6.25     6.057225       20.301     49.59659        11     1.739     0.630  87.98   0
       190    361.7981    489.6592 300.1431129 +22.6445777     284.4426     71.91944      1.340     2.25     6.019327       20.301     49.61524         5     0.736     0.417  21.82   0
       191    520.5101    482.7411 300.1948002 +22.6901273     394.7672     72.04769      1.357     4.26     6.413595       20.301     41.50629         7     0.905     0.611  18.48   0
       192    952.4067    477.6227 300.3311787 +22.8179380     854.6871     71.93777      1.734     3.98     6.498726       20.301       81.936        15     1.146     0.963 -33.45   0
       193     92.4223    477.0775 300.0633605 +22.5602471     1001.401     71.93777      1.700     3.66     5.955803       20.301     106.1313        20     1.215     1.069  10.49   0
       194    723.0047    474.4911 300.2606088 +22.7483838     223.8355     71.86441      1.352     4.55     6.137298       20.301     32.00111         5     1.036     0.568  75.74   0
       195    753.4774    470.9912 300.2712501 +22.7564990     301.9147     71.91944      1.369     4.60     6.061929       20.301     40.81055         8     1.020     0.732  55.20   0
       196    359.1609    470.2264 300.1485998 +22.6382050     160.2688     71.97443      1.350     3.49     6.018259       20.301     28.01763         5     1.023     0.344 -44.57   0
       197    947.6142    466.4646 300.3333048 +22.8132944     183.2814     71.91944      1.822     5.79     6.415244       20.301     29.52991         7     1.094     0.862 -56.88   0
       198     84.9429    467.2201 300.0642337 +22.5551752     343.3581     71.95611      1.736     4.11     5.969089       20.301     40.95331         6     1.035     0.563  20.70   0
       199    692.0372    461.5512 300.2551512 +22.7353935     489.0952     71.97443      1.448     4.04      6.18539       20.301      56.0182         8     0.856     0.692  32.68   0
       200    301.5597    459.9336 300.1340057 +22.6179924     323.1421     71.91944      1.559     3.74     5.983736       20.301     26.08224         6     1.198     0.336 -39.45   0
       201    633.7592    457.0967 300.2384248 +22.7166663      778.244     71.95611      1.518     4.10     6.427059       20.301     75.45788        16     1.197     0.986 -41.44   0
       202    948.0626    450.1510 300.3387404 +22.8087357     444.8839     72.01107      1.324     3.41     6.313317       20.301     60.80755         8     0.902     0.722  58.25   0
       203    694.5424    449.6906 300.2597824 +22.7327334     913.0608     72.01107      1.658     2.71     6.191212       20.301     88.06952        11     0.909     0.768 -21.02   0
       204    851.9307    445.8003 300.3101457 +22.7787201     895.8945      71.9011      1.578     3.59     5.966507       20.301     95.73638        14     1.028     0.930  37.67   0
       205    835.9553    442.0171 300.3063883 +22.7728514     669.5269     71.97443      1.565     4.35     5.956305       20.301     57.89793        11     1.097     0.804 -76.49   0
       206    816.4461    442.9124 300.3000100 +22.7672706      359.477     71.91944      1.667     4.44     5.940789       20.301     34.41806         7     1.030     0.579  17.12   0
       207    580.3274    439.9493 300.2273335 +22.6957399     3236.066     71.95611      1.528     2.91     6.478314       20.301     333.7507        30     1.318     1.092  76.15   0
       208    940.7530    439.2212 300.3400061 +22.8034046     508.3671     71.99275      1.590     5.29     6.238801       20.301      49.7154        10     1.072     0.737  70.49   0
       209     57.5937    430.4058 300.0676759 +22.5364082     268.9267     71.80933      1.314     5.28     6.200082       20.301     43.17908         6     1.532     0.514 -67.97   0
       210    420.6595    427.1600 300.1817317 +22.6442516     363.7125     71.95611      1.424     1.62     6.044346       20.301     68.62755         5     0.638     0.458 -74.00   0
       211    352.2700    427.6155 300.1602843 +22.6238988     299.5171     71.97443      1.167     3.48     6.101515       20.301     37.79339         5     0.743     0.470 -12.44   0
       212    991.8633    419.3611 300.3624106 +22.8129812     1078.783     71.93777      1.570     3.40     6.118371       20.301     119.6416        18     1.184     0.993  11.67   0
       213    950.3042    418.1450 300.3498288 +22.8001988     1089.559     72.02938      1.716     3.88     6.109521       20.301     93.02283        20     1.358     0.982  62.15   0
       214    863.7209    419.2034 300.3224579 +22.7745982     425.5196      71.8644      1.510     3.98     5.976922       20.301       60.198        11     1.109     0.791  40.23   0
       215    690.9775    414.2086 300.2701868 +22.7214645      1195.89     71.95611      1.462     2.87     6.229569       20.301     120.9675        15     0.981     0.894  34.40   0
       216    486.9620    414.7542 300.2064136 +22.6605421     515.0776     72.01107      1.262     3.38     6.069813       20.301     59.34551         5     0.797     0.484 -47.43   0
       217    194.8225    412.1382 300.1162948 +22.5722849     611.2333     71.93777      1.630     3.52     6.059393       20.301     70.70628        11     1.059     0.691 -10.39   0
       218    990.4911    406.5377 300.3661439 +22.8088812     4547.763     72.04769      1.806     3.54     6.090592       20.301     368.7564        43     1.474     1.401  80.16   0
       219    257.2445    407.6172 300.1371894 +22.5896879     3817.268     71.97443      1.640     3.04     6.138685       20.301     413.0592        34     1.289     1.262  79.02   0
       220    204.4631    402.3247 300.1224794 +22.5723547     7647.516     72.01107      1.711     3.26     6.115451       20.301     790.6332        44     1.386     1.322  71.22   0
       221    970.4449    397.4555 300.3628320 +22.8002715     2089.402     71.99275      1.879     3.52     6.074241       20.301     178.6565        31     1.468     1.196  80.99   0
       222    345.3542    396.6288 300.1681866 +22.6129243     4968.971     71.99275      1.598     3.01     6.141537       20.301     542.8221        38     1.311     1.210  77.97   0
       223    589.5497    393.4884 300.2452866 +22.6851452     18661.07     71.97443      1.559     2.78     6.462538       20.301     2188.891        60     1.359     1.270  88.42   0
       224    437.2106    395.3731 300.1972031 +22.6400738      359.129     71.95611      1.851     3.41     6.094344       20.301      28.2845         5     0.746     0.451  16.99   0
       225    606.9296    393.5797 300.2506750 +22.6903744     814.4222     71.95611      2.107     6.68     6.512292       20.301     50.89067        17     1.585     0.800 -34.82   0
       226    833.1652    390.3141 300.3222979 +22.7571456     353.4822     71.93777      1.559     3.38     5.973545       20.301     36.75515         5     0.768     0.431  15.78   0
       227    786.4678    384.2119 300.3097074 +22.7414171     424.3324     71.95611      1.520     3.57     6.014938       20.301     50.03122         8     0.999     0.596  29.80   0
       228    209.4331    380.3749 300.1311485 +22.5675388      389.424     71.95611      1.652     5.32     6.209919       20.301     36.87269         8     1.195     0.669  13.53   0
       229    923.2953    376.5181 300.3549059 +22.7801429     851.8474     72.12087      1.807     3.73     6.024678       20.301     82.76038        15     1.099     0.960  30.50   0
       230    144.1293    373.3117 300.1131201 +22.5459445     2049.632     72.12087      1.770     3.63      6.11385       20.301     187.5265        29     1.444     1.165  64.51   0
       231    632.8312    373.9827 300.2651094 +22.6924937     310.8936     71.93777      1.486     3.21     6.402419       20.301     37.00452         5     0.891     0.642 -61.82   0
       232    943.9415    363.5067 300.3655736 +22.7825755     1143.052     72.01107      1.673     3.24     6.013371       20.301      134.309        21     1.299     1.075 -84.39   0
       233    530.1937    362.8881 300.2367157 +22.6585784     6568.582      71.8644      1.527     2.92     6.359951       20.301     648.8142        39     1.303     1.177  83.24   0
       234    244.9646    362.3702 300.1480488 +22.5730110     714.3015     71.97443      1.543     3.82     6.286878       20.301     67.14408        14     1.068     1.029 -84.65   0
       235    102.8751    355.4442 300.1060832 +22.5284518     511.8301     71.93777      1.589     4.39      6.33999       20.301     62.93411        13     1.230     0.885 -84.02   0
       236    789.5867    354.8721 300.3202009 +22.7339116     153.5621     71.97443      1.254     4.36     6.009182       20.301     33.41472         7     1.077     0.502  41.11   0
       237    643.8386    353.3816 300.2752258 +22.6898650     671.4163     71.97443      1.740     3.05     6.348764       20.301     63.64016        13     1.012     0.875  41.01   0
       238    734.4160    352.1534 300.3038719 +22.7166203     1179.407     71.97443      1.597     3.31     6.205514       20.301     104.0215        19     1.115     1.051 -72.07   0
       239    436.8200    349.1318 300.2120854 +22.6266671     6337.392     71.93777      1.537     2.92     6.198678       20.301     624.5454        38     1.304     1.183  83.71   0
       240    926.3456    344.1241 300.3663693 +22.7717352     711.3207     71.99275      1.761     4.35      5.98778       20.301     60.80959        11     1.072     0.843  25.64   0
       241    828.8081    343.7805 300.3360377 +22.7424566     1322.188     71.91944      1.510     2.83     6.028793       20.301     142.5596        20     1.167     0.983 -31.06   0
       242    421.4989    338.2802 300.2108334 +22.6189605      419.313     72.08429      1.227     2.98     6.207248       20.301     67.91689         9     0.940     0.747  37.46   0
       243    503.9776    336.1142 300.2372327 +22.6430331      552.051      71.9011      2.127     4.63     6.322367       20.301     54.51248         9     1.119     0.778 -59.52   0
       244    801.9493    331.5092 300.3316381 +22.7308905     569.5775     71.97443      1.359     2.91     6.097908       20.301     74.65659        11     0.917     0.805 -39.70   0
       245    324.3526    328.3328 300.1838059 +22.5870099      2623.54     71.95611      1.596     3.15     6.245371       20.301     268.1399        26     1.168     1.140  87.96   0
       246     42.8453    325.8390 300.0970167 +22.5019618     1025.008     72.02938      1.696     3.44      6.44508       20.301      92.4774        17     1.136     0.958 -15.37   0
       247    293.7483    317.6465 300.1777439 +22.5747734      30341.1     71.99275      1.651     3.18     6.325864       20.301     3154.499        80     1.522     1.368  56.56   0
       248    828.3864    315.6272 300.3450399 +22.7342315     1338.671     71.95611      1.567     3.35     6.201799       20.301     147.3454        20     1.176     1.025  73.44   0
       249    867.1605    305.2679 300.3605011 +22.7428508     252.7682     71.91944      1.950     5.11      6.27144       20.301     31.34938         5     1.074     0.688 -61.69   0
       250    743.7860    304.8883 300.3221288 +22.7058299     546.0399      71.9011      1.374     3.61     6.286025       20.301     66.32138         9     1.024     0.633   3.06   0
       251    392.4570    303.4351 300.2130911 +22.6002493     431.7434     71.97443      1.345     3.38     6.242083       20.301     48.88768         8     0.802     0.791 -44.36   0
       252    167.8960    304.0551 300.1429823 +22.5331714     409.4107     72.02938      1.520     5.59     6.346481       20.301     39.26791        11     1.196     0.735 -37.58   0
       253    704.3319    297.6533 300.3121696 +22.6919430     1920.234     71.97443      1.598     3.03     6.307003       20.301     207.5664        24     1.287     1.025  82.41   0
       254    512.4758    292.9792 300.2538737 +22.6331767     370.5271     71.95611      1.480     4.11     6.412325       20.301     37.12339         5     0.728     0.663  -6.94   0
       255    919.3234    290.8124 300.3814725 +22.7542947     590.5577     71.97443      1.734     4.10      6.04546       20.301      60.3511         8     0.994     0.663  65.65   0
       256    365.8982    282.0245 300.2117643 +22.5861430     2045.999     71.88275      1.660     3.86     6.271658       20.301     194.6127        24     1.480     0.964  61.59   0
       257    578.1653    281.2390 300.2781552 +22.6494641     360.3965     72.01107      1.503     2.53      6.38526       20.301     43.85987         6     0.707     0.581  52.69   0
       258    805.1437    275.5428 300.3507901 +22.7157461     610.5368     72.02938      1.500     2.66       6.3418       20.301     66.16214         8     0.825     0.637 -47.94   0
       259    797.8423    276.1529 300.3483141 +22.7137373     226.3784     71.99275      1.446     3.59      6.33954       20.301     48.73954         5     1.313     0.282 -10.01   0
       260    703.6525    273.1613 300.3199020 +22.6846952     260.4727     71.95611      1.456     4.72     6.320862       20.301     28.98248         6     1.151     0.549  21.90   0
       261    687.5703    272.7821 300.3150094 +22.6797738     493.3598     71.93777      1.594     2.59      6.32319       20.301     66.98318         9     0.858     0.743  58.71   0
       262    441.8130    261.6243 300.2420265 +22.6030085     1292.498     71.95611      1.547     2.90     6.358258       20.301     143.1864        17     1.106     0.960 -24.93   0
       263    248.9998    261.7457 300.1819453 +22.5453084     213.1399      71.8644      1.253     5.00     6.430554       20.301     45.55092         8     0.904     0.800  84.09   0
       264     14.0070    262.1745 300.1086980 +22.4750368     327.3835     71.95611      1.630     4.29     6.437353       20.301     40.60679         6     1.158     0.453  26.27   0
       265    953.1536    258.5239 300.4025075 +22.7551210     378.3082     71.95611      1.714     4.18     6.037271       20.301     34.34161         6     1.022     0.489  -6.61   0
       266    686.7590    253.4833 300.3210157 +22.6739802     2256.052     71.91944      1.563     2.71     6.329371       20.301     284.0019        22     1.194     1.028  81.74   0
       267    948.0720    248.0735 300.4043103 +22.7505936     3042.021     72.01107      1.615     3.21     6.061936       20.301     296.8663        29     1.349     1.140  69.76   0
       268    495.2233    246.7287 300.2634982 +22.6147148     184.3639     71.99275      1.243     4.51       6.4142       20.301      32.3494         5     0.773     0.750  32.23   0
       269   1009.1728    243.0647 300.4250140 +22.7674236     368.9832     71.93777      1.421     4.23     5.993437       20.301      45.2756         9     0.878     0.874  78.78   0
       270    319.2070    239.4738 300.2110247 +22.5599324     266.3727      71.9011      1.212     3.41     6.422629       20.301     35.81845         5     0.754     0.445  21.81   0
       271   1017.5202    235.9312 300.4299345 +22.7678662     1743.849     72.06599      1.885     3.86     5.981415       20.301     145.9682        31     1.530     1.272 -66.58  16
       272    394.9750    237.2753 300.2353330 +22.5819865     754.7565     71.97443      1.570     3.58     6.382136       20.301     77.68092        14     1.034     0.942  -7.19   0
       273    100.7655    231.6621 300.1455751 +22.4922648     624.4603     71.97443      1.592     3.28     6.429177       20.301     77.24314         9     0.911     0.746  12.64   0
       274     69.7922    230.9799 300.1361622 +22.4827902     1523.509     71.91944      2.144     5.02     6.431866       20.301     114.1014        26     1.476     1.336 -76.40   0
       275    964.0576    228.4967 300.4156504 +22.7497397     545.9149     72.02938      1.554     5.27     6.072151       20.301     62.14743        13     1.396     0.775 -52.78   0
       276    807.2090    225.4583 300.3676781 +22.7019541     477.3876     71.91944      1.978     5.26      6.26793       20.301      36.2066         9     1.023     0.765  55.57   0
       277    153.7673    223.7522 300.1646291 +22.5058686     465.4516     71.99275      1.504     4.44     6.413837       20.301      41.0778         8     0.950     0.600  -5.84   0
       278    949.2034    221.4408 300.4133008 +22.7432668      307.179     71.97443      1.241     2.69     6.110815       20.301     38.25463         5     0.711     0.464  19.17   0
       279    758.3294    214.8429 300.3558703 +22.6842778     730.5086     71.91944      1.647     4.09     6.301181       20.301      72.8944        12     1.081     0.845 -69.83   0
       280    348.8969    214.5798 300.2283420 +22.5616669     405.2036      71.8644      1.740     4.80      6.40688       20.301     45.72455         9     1.041     0.676 -32.89   0
       281    849.1286    207.8390 300.3864729 +22.7094230     512.4933     71.91944      1.684     4.78     6.298192       20.301     36.28719         7     1.052     0.616  75.24   0
       282    856.6041    204.1503 300.3900021 +22.7105974     2154.464     71.93777      1.644     2.96     6.305312       20.301     221.7197        29     1.287     1.163 -89.71   0
       283    275.0523    201.0356 300.2097416 +22.5356633     2116.654     71.97443      1.592     3.31       6.4152       20.301      194.378        28     1.341     1.142  60.59   0
       284    352.8636    196.3628 300.2354839 +22.5576180     1079.166     71.95611      1.590     3.55     6.392303       20.301     111.7544        19     1.219     1.003  -4.76   0
       285    105.3570    196.4893 300.1584078 +22.4835354     288.0288     71.97443      1.308     4.93     6.444388       20.301     32.66493         7     0.901     0.840 -43.60   0
       286    754.8813    196.0892 300.3608757 +22.6778507      364.906     72.06599      1.294     3.12     6.311771       20.301      57.2956         8     0.894     0.681   6.96   0
       287    861.7809    192.7409 300.3953173 +22.7088623     412.4935     71.91944      1.808     4.77     6.324893       20.301     44.84697         7     1.082     0.682  42.03   0
       288    169.8932    188.6907 300.1810147 +22.5006241     778.9848     72.12087      1.521     3.52     6.432117       20.301     85.05547        13     1.093     0.803  -9.19   0
       289    707.5656    185.5247 300.3495421 +22.6606564     1605.081     71.95611      1.503     2.50     6.325602       20.301     234.5732        20     1.076     1.026  82.37   0
       290    772.7914    185.1777 300.3700011 +22.6800688     520.4469     71.95611      1.381     4.17     6.325831       20.301      60.1599         8     1.255     0.536 -36.71   0
       291    191.0597    181.8376 300.1898231 +22.5049939     613.6423     71.97443      1.950     5.58     6.416132       20.301     42.15488        10     1.197     0.733   6.61   0
       292    979.0617    178.4097 300.4365770 +22.7398089     856.9502     71.88276      1.583     4.07     6.135748       20.301     85.35799        15     1.198     1.008  83.89   0
       293    711.8757    176.9645 300.3536619 +22.6594831     749.2888     71.91944      1.546     3.85     6.323274       20.301     81.65144        13     1.135     0.824 -47.35   0
       294    481.1753    177.8069 300.2814692 +22.5906926     425.0506     71.95611      1.436     3.48     6.410592       20.301      40.3014         6     0.747     0.570 -36.84   0
       295    632.2103    176.1830 300.3290719 +22.6354236     1199.636     71.91944      1.515     3.39     6.327702       20.301     123.1821        19     1.170     1.016 -88.13   0
       296    453.1225    172.6263 300.2744084 +22.5808065     434.3339     71.95611      1.759     4.54     6.408622       20.301      35.7569         7     0.958     0.700 -48.17   0
       297    839.8575    167.0150 300.3968163 +22.6949020      817.574     71.93777      1.465     3.71     6.371177       20.301     80.68681        14     1.070     0.917  -7.59   0
       298    827.8178    167.3619 300.3929467 +22.6914010     1535.918     71.95611      1.763     5.00     6.371177       20.301     158.9422        26     1.454     1.194  78.34   0
       299    558.5513    168.0771 300.3087372 +22.6110512     919.7273     71.95611      1.421     2.95     6.369531       20.301     108.6631        15     1.139     0.816  -8.78   0
       300   1000.6884    157.9319 300.4499697 +22.7403799      1743.97     72.10258      1.848     3.70      6.12485       20.301     135.3575        29     1.398     1.228 -53.88   0
       301    956.4017    157.2689 300.4363556 +22.7269479     1137.304      71.9011      1.542     3.23     6.223773       20.301       127.02        22     1.219     1.104 -24.29   0
       302    190.3459    149.8217 300.1999798 +22.4955795     752.2131     71.97443      1.703     3.54     6.416547       20.301     86.63589        15     1.183     0.907   9.26   0
       303     52.1881    144.3647 300.1587676 +22.4526339     2311.551     71.95611      1.946     4.03      6.41833       20.301     221.7288        34     1.529     1.327  61.66   0
       304    875.6515    142.2385 300.4160200 +22.6984757     672.5906     71.95611      1.476     3.29       6.4033       20.301     69.09486        11     1.001     0.722  55.36   0
       305      2.7822    141.4821 300.1443380 +22.4370064     224.8398       63.547      1.047     1.90     6.384037       20.301     52.33736         5     0.663     0.464 -23.11  16
       306    209.6710    137.7955 300.2098922 +22.4979101     5605.958      71.9011      1.714     3.52     6.394215       20.301     513.9327        40     1.486     1.270  73.63   0
       307    192.3427    138.9482 300.2041258 +22.4930525     220.4202     72.01107      1.265     3.52     6.410982       20.301     30.86586         5     0.873     0.475  89.84   0
       308   1008.7298    125.8203 300.4628911 +22.7335388     18523.59     71.95611      1.794     3.59     6.124164       20.301     1672.996        68     1.621     1.429  89.83   0
       309    193.2750    128.6249 300.2077621 +22.4903648     663.1937     71.97443      1.685     3.99     6.407359       20.301     67.70015        11     1.097     0.711 -88.36   0
       310    854.0304    119.8483 300.4165299 +22.6855657     3655.545     71.97443      1.645     3.15     6.448584       20.301     331.1398        33     1.368     1.173 -79.25   0
       311    957.7218    118.6756 300.4492788 +22.7162325     2891.399     72.06599      1.747     3.36     6.315507       20.301     258.2478        34     1.330     1.320  21.78   0
       312    403.2800    115.0891 300.2775328 +22.5493438     579.6534     72.08429      1.552     3.56     6.405439       20.301     68.50945        10     1.068     0.681 -12.46   0
       313    156.1346    115.3172 300.2005181 +22.4754186     449.2021     72.06599      2.157     4.81     6.416458       20.301     38.38421         7     0.979     0.670  10.52   0
       314    517.5319    113.0653 300.3137854 +22.5829544     263.9258     72.01107      1.320     3.29     6.331991       20.301     62.32168         7     1.082     0.493 -85.53   0
       315    327.4182    106.7853 300.2565982 +22.5242487     624.7717     71.93777      1.897     3.74     6.410567       20.301     73.43893        11     1.090     0.864  -4.81   0
       316     94.0967    103.6603 300.1849956 +22.4534904     705.4733     72.02938      1.931     2.80     6.402873       20.301     71.99934        12     0.946     0.832  85.76   0
       317    454.6943    102.0429 300.2977779 +22.5609799     1805.528     71.95611      1.643     3.19     6.369246       20.301     172.3693        25     1.269     1.126  67.98   0
       318    382.9611    102.2832 300.2753546 +22.5395799     445.9228     71.91944      1.476     4.52     6.411491       20.301     70.45418         9     1.123     0.759 -81.68   0
       319    516.6367    101.7321 300.3171797 +22.5794269     378.9609     71.93777      1.449     4.27     6.318715       20.301     53.66364         8     1.004     0.697 -23.97   0
       320    198.7456     97.5330 300.2195416 +22.4830666     487.3996     71.99275      1.690     4.00       6.3989       20.301     43.66291         7     0.987     0.463 -12.30   0
       321    670.8755     96.3012 300.3670229 +22.6240103     260.2705     72.08429      1.204     3.41     6.384361       20.301     69.74063         5     0.870     0.386  18.55   0
       322    888.9719     86.8616 300.4381275 +22.6865187     370.7455     71.95611      1.525     4.35     6.543997       20.301      32.4039         6     0.830     0.650   6.46   0
       323   1019.0392     83.2272 300.4799165 +22.7243565     3896.193     71.97443      2.000     3.60     6.343243       20.301     361.2981        45     1.729     1.451 -55.71  16
       324    735.7345     82.9884 300.3915666 +22.6395796     293.8704     71.91944      1.469     3.23     6.496315       20.301     39.62497         6     0.882     0.467  53.23   0
       325    228.7363     81.7279 300.2339976 +22.4875030     6046.572     71.99275      1.687     3.45     6.404904       20.301     578.7053        42     1.426     1.322  76.77   0
       326     80.2246     81.5321 300.1878517 +22.4429772     716.5447     71.93777      2.047     5.54      6.37247       20.301     56.25922        13     1.581     0.740 -42.30   0
       327    857.7335     79.8162 300.4306607 +22.6751503     303.8043     71.93777      1.458     4.35     6.506868       20.301     35.55117         6     0.967     0.556  23.43   0
       328    244.2989     73.4906 300.2415110 +22.4897942     414.8902     72.12087      1.144     3.03     6.410619       20.301     52.91502         5     0.736     0.412 -27.65   0
       329    474.8303     67.2571 300.3153251 +22.5570012     6409.073     71.97443      1.608     3.01      6.34138       20.301     686.3444        39     1.366     1.215  80.72   0
       330    360.0642     67.2206 300.2795865 +22.5226448     707.1254     71.93777      1.556     3.83     6.420025       20.301     77.83048        13     1.144     0.864  64.85   0
       331    531.6332     62.6251 300.3345272 +22.5726653     293.7919     71.95611      1.298     4.32     6.300064       20.301     35.16877         7     1.106     0.483  -1.54   0
       332    727.2830     57.4362 300.3972111 +22.6296985     858.1963     71.93777      1.595     3.40     6.698169       20.301     74.20026        14     1.078     0.824 -18.87   0
       333    820.0428     56.2699 300.4265291 +22.6571024     443.9845     71.91944      1.377     3.03     6.688002       20.301      57.9946         7     0.853     0.562 -31.45   0
       334    167.9902     50.6351 300.2251682 +22.4603782     495.6706     71.95611      1.654     5.43     6.400526       20.301     50.64926         9     1.246     0.668 -67.45   0
       335    526.5165     49.8024 300.3370877 +22.5674458     466.1236     71.88276      1.560     3.46     6.302739       20.301     59.40791         9     1.033     0.667 -61.47   0
       336    603.2209     47.3866 300.3617798 +22.5896984     6369.627     71.91944      1.580     2.92     6.286337       20.301      712.944        37     1.379     1.154  81.25   0
       337    378.1164     46.2717 300.2919969 +22.5220236     1565.701     72.08429      1.690     3.02     6.418709       20.301     142.9281        23     1.205     1.067  46.17   0
       338    644.3606     45.0563 300.3753617 +22.6013341     840.2473     71.95611      1.408     3.41     6.562209       20.301     107.0567        13     1.090     0.827   4.72   0
       339    660.3863     40.7650 300.3817494 +22.6048928     623.4782     71.95611      1.847     4.92     6.713674       20.301     60.19116        11     1.219     0.728 -62.90   0
       340    538.7471     40.3528 300.3439614 +22.5683867      32.2784     71.99275      1.360     5.23     6.295113       20.301     27.32334         5     1.414     0.546  38.98   0
       341    127.1499     39.1951 300.2161677 +22.4448619     558.0222     71.93777      1.360     3.83     6.371935       20.301      74.2536        10     1.054     0.763 -19.17   0
       342    930.2747     38.7822 300.4666022 +22.6850251     355.7463     71.95611      1.579     4.48     7.165955       20.301     52.75951         8     1.169     0.489 -28.47   0
       343    969.3346     37.9135 300.4790792 +22.6964510     291.9621     72.04769      1.425     4.21     7.163597       20.301     34.02999         6     0.796     0.635  41.38   0
       344    698.8392     37.1284 300.3949198 +22.6153474      358.025     71.91944      1.433     3.06     6.853856       20.301      59.7931         8     1.051     0.680 -33.07   0
       345    647.4208     32.3296 300.3804397 +22.5985874     2842.501     71.95611      1.644     3.02     6.648891       20.301     304.0273        30     1.345     1.115  83.58   0
       346    662.3803     31.3404 300.3854250 +22.6027772     1015.515      71.9011      1.913     4.07     6.796397       20.301      71.6306        15     1.177     0.950  75.60   0
       347    288.2486     33.1852 300.2682528 +22.4913629     447.9151     71.99275      1.635     3.35     6.421153       20.301     45.32659         5     0.938     0.347 -41.56   0
       348    734.0587     24.1551 300.4101088 +22.6221467     1465.469     71.99275      1.512     2.87     6.955267       20.301     166.1057        21     1.147     1.091  77.53   0
       349    671.9337     17.3995 300.3929211 +22.6016228     691.7022     71.93777      1.398     3.47     7.000317       20.301     86.83965        13     1.095     0.842 -33.70   0
       350    136.0781   1017.2748 299.9013975 +22.7283480     602.6843     72.06599      2.081     5.95     96.90379       20.301     33.11667         8     1.344     0.742 -75.46  16
       351    276.5167   1012.7734 299.9465609 +22.7691873      343.526     71.93777      1.573     5.36     19.67397       20.301     50.49807        16     1.475     1.246   3.25   0
       352    111.9822   1007.9584 299.8969334 +22.7184466     1553.788     71.97443      3.289    12.88     88.85832       20.301     53.69994        42     2.777     1.662 -36.18  18
       353    130.7057   1011.4590 299.9016184 +22.7250683      427.176     72.02938      2.529     4.95     91.62788       20.301      31.4351         5     1.409     0.492  85.23   2
       354    180.3668    986.9457 299.9250418 +22.7329366     4146.572     71.97443      9.259    38.51     66.74978       20.301     90.92056       403     8.693     4.733  88.90  19
