#   1 NUMBER                 Running object number                                     
#   2 X_IMAGE                Object position along x                                    [pixel]
#   3 Y_IMAGE                Object position along y                                    [pixel]
#   4 ALPHA_J2000            Right ascension of barycenter (J2000)                      [deg]
#   5 DELTA_J2000            Declination of barycenter (J2000)                          [deg]
#   6 FLUX_APER              Flux vector within fixed circular aperture(s)              [count]
#   7 FLUXERR_APER           RMS error vector for aperture flux(es)                     [count]
#   8 FLUX_RADIUS            Fraction-of-light radii                                    [pixel]
#   9 FWHM_IMAGE             FWHM assuming a gaussian core                              [pixel]
#  10 BACKGROUND             Background at centroid position                            [count]
#  11 THRESHOLD              Detection threshold above background                       [count]
#  12 FLUX_MAX               Peak flux above background                                 [count]
#  13 ISOAREA_IMAGE          Isophotal area above Analysis threshold                    [pixel**2]
#  14 A_IMAGE                Profile RMS along major axis                               [pixel]
#  15 B_IMAGE                Profile RMS along minor axis                               [pixel]
#  16 THETA_IMAGE            Position angle (CCW/x)                                     [deg]
#  17 FLAGS                  Extraction flags                                          
         1    209.8731     11.0766 300.2354459 +22.4425051     3915.095     72.36774      1.514     2.83     5.711236     20.39637     428.5262        33     1.329     1.117  71.54   0
         2    778.0225     11.7805 300.4121093 +22.6127937     663.3459     72.29412      1.320     2.57     5.298223     20.39637     115.4107        12     0.984     0.862   4.63   0
         3      2.2110     11.6083 300.1707275 +22.3804426     359.1783     61.00935      1.358     3.95      4.54396     20.39637     47.71132         6     0.848     0.606 -29.88  24
         4    632.4005      8.4833 300.3677972 +22.5682693     300.0741     72.16511      1.085     2.99     5.690114     20.39637     46.10279         6     0.893     0.421 -71.39   0
         5    535.7166      9.0082 300.3375131 +22.5394814       328.93     72.23886      1.257     2.43      5.54076     20.39637     54.91029         5     0.766     0.545  -1.16   0
         6    771.0284      3.6814 300.4125534 +22.6083715     952.5131      67.6717      1.511     2.61     5.331051     20.39637     129.6053        16     1.011     0.984  12.18  24
         7    325.7467      3.1787 300.2740463 +22.4749401     1184.543     65.59391      1.365     2.57     5.320622     20.39637     166.6463        18     1.072     0.959  63.11  24
         8    736.8757      2.7412 300.4022127 +22.5978823     233.6638      63.6785      1.347     2.71     5.357222     20.39637     63.85758         6     1.074     0.337  61.72  24
         9    552.4448      1.1402 300.3452719 +22.5422267     190.1252     55.11701      1.018     3.16     5.693735     20.39637     55.90019         5     0.964     0.336   5.50  24
        10    585.4794    998.9484 300.0315802 +22.8386937      2318.57     72.29412      1.872     4.29     3.996887     20.39637     166.3483        33     1.445     1.314  17.79   0
        11    288.1418   1022.7247 299.9313093 +22.7563017     1037.381     61.42254      2.437     9.94     43.05521     20.39637     51.30176        28     2.127     1.295 -17.16  27
        12    286.4183   1019.3654 299.9318664 +22.7548213     1047.738     72.29412      2.390     7.76     43.07617     20.39637     43.57135        16     2.167     0.777 -34.51  19
        13    192.4121   1023.3247 299.9013479 +22.7277398     527.5541     58.24083      2.420     7.56     91.29341     20.39637     48.22291        11     1.742     0.917   2.03  26
        14    169.5892   1014.9611 299.8969745 +22.7184915     2328.993     72.29412      3.700    18.92     84.47159     20.39637     68.95251        89     3.880     2.563 -29.99  18
        15    129.3152   1014.4306 299.8846293 +22.7062490     3168.736     72.31254     13.605    80.80      85.8087     20.39637      127.854      1249    22.317     8.117  45.97  27
        16    118.2861    955.0773 299.9005103 +22.6859274     5134.697     72.42291     22.337    92.21     35.68192     20.39637      215.934      2547    18.379    12.837  22.24  19
        17    258.6786    992.9268 299.9318417 +22.7389166     5821.646     72.40453     10.411    38.46     48.71634     20.39637     109.7943       613     7.822     6.481  55.20  19
        18     20.1846    979.4719 299.8620940 +22.6634661     1391.457     72.29412      7.686     9.35    -4.622947     20.39637     47.22658        20     2.137     1.142  58.47   3
        19    536.5021    983.6441 300.0213089 +22.8196130     362.8904     72.29412      1.768     3.57     3.813351     20.39637     40.07812         5     0.920     0.494 -84.24   0
        20    114.9906    924.7341 299.9093555 +22.6762411     4140.643     72.25729     19.468    58.31      12.1146     20.39637     86.97439      1030    12.756     8.196 -19.95   3
        21    963.9965    978.7519 300.1561259 +22.9463811     777.8858     72.27571      2.334     6.31     3.468897     20.39637     51.99924        13     1.251     0.894  53.23   2
        22      8.6067   1004.6631 299.8503023 +22.6672075     2730.399     72.23886     14.782    52.82     -21.9018     20.39637     71.51437       753    14.057     5.507  84.00  24
        23    183.3595    964.5944 299.9176408 +22.7081884     1585.723     72.31254      5.892    11.15     47.79919     20.39637     49.15284        31     2.642     1.394  24.19   3
        24    677.5071    991.7184 300.0625973 +22.8642188     9012.009     72.44129      1.895     4.44     3.806477     20.39637     503.7094        50     1.528     1.396  64.50   3
        25    672.1987    994.2339 300.0601250 +22.8633487     8713.152     72.25729      1.994     4.65     3.816211     20.39637     536.1301        51     1.602     1.444  -1.83   3
        26    690.2797    961.2351 300.0764942 +22.8593015     6740.718     72.23886      1.844     4.06     3.937917     20.39637     434.5818        48     1.479     1.427  58.25   0
        27    187.6528   1015.1243 299.9025365 +22.7239607     839.0699     72.31254      2.852     8.94     85.09955     20.39637      41.0509        13     1.724     1.295  26.96  16
        28    841.4194    954.4226 300.1258155 +22.9026575     413.9523     72.29413      1.639     3.44     3.931819     20.39637     30.37339         5     1.075     0.318 -68.42   0
        29    598.8129    951.9605 300.0510196 +22.8292119     1474.305     72.29412      1.771     3.93     4.051546     20.39637     113.8019        26     1.362     1.201 -26.02   0
        30    492.4578    948.5467 300.0190149 +22.7963336     961.9485     72.34935      1.730     4.19     3.842766     20.39637     93.84092        20     1.328     1.055   7.79   0
        31    423.2408    946.4400 299.9981568 +22.7749657     6567.178     72.36774      1.812     3.85     3.850696     20.39637     511.0066        45     1.452     1.382   6.03   0
        32    771.9841    995.1915 300.0909069 +22.8935440     643.2926     72.22043      1.728     6.64     3.616299     20.39637     47.32147        13     1.318     0.984  25.92   0
        33    456.7275    933.3765 300.0128279 +22.7812642     368.1401     72.33094      1.273     3.87     3.880944     20.39637     48.76727         7     1.004     0.538  64.65   0
        34    525.1580   1007.4514 300.0100310 +22.8230391     470.7191     72.29412      2.343     4.76     3.777758     20.39637     35.74904         7     1.343     0.478 -24.00   0
        35    969.5739    925.3165 300.1752499 +22.9327086     2175.821     72.27571      2.000     4.95     3.637895     20.39637     116.9033        35     1.505     1.420  51.77   0
        36    619.4642    922.5253 300.0670264 +22.8269588      445.207     72.33094      1.756     4.21     4.095059     20.39637     38.82812         5     1.017     0.497 -87.69   0
        37    758.3439    913.7368 300.1131547 +22.8660755     821.8216     72.34934      1.953     6.30     4.206633     20.39637     53.15527        15     1.179     1.014  64.28   0
        38    793.3030    908.4702 300.1257638 +22.8750431     1049.419     72.42291      1.775     4.68      4.28804     20.39637     77.34237        19     1.200     1.126  45.04   0
        39    571.2690    909.5207 300.0562466 +22.8087747     276.3508     72.40453      1.377     3.66      4.01197     20.39637     40.50409         5     1.259     0.306  46.02   0
        40    950.5534    906.3843 300.1754750 +22.9215724      299.103     72.31254      1.665     4.15     4.041743     20.39637     27.78118         5     1.011     0.486  -0.36   0
        41    815.4189    902.0285 300.1347530 +22.8798230      11257.3     72.29412      1.792     4.01     4.348631     20.39637     742.6216        52     1.447     1.392  33.00   0
        42    861.4800    901.9852 300.1491275 +22.8936159     372.2256     72.27571      1.526     5.52     4.348631     20.39637     44.04347        10     1.182     0.728  41.03   0
        43   1005.9822    901.8255 300.1942494 +22.9368715     389.7789     72.31254      1.551     5.39     3.841456     20.39637     31.68482         9     1.031     0.795 -82.14   0
        44    103.0995    898.9256 299.9140535 +22.6652741     757.8346      72.4229      4.125     4.64     7.603233     20.39637     29.81296         5     1.229     0.498  22.29   0
        45    127.3092    893.3017 299.9234062 +22.6709285     965.8414     72.47803      4.862     6.09     10.36308     20.39637     55.95285        17     1.398     1.068 -15.81   0
        46    520.4025    889.8608 300.0468025 +22.7878792     418.1239     72.27571      1.678     5.08     4.054439     20.39637     39.99224         9     1.164     0.766  79.24   0
        47    202.4708    974.6857 299.9202993 +22.7168173     684.4243     72.40453      1.949     5.95     54.68205     20.39637     42.65092        10     1.426     0.699 -62.24   3
        48    205.9076    984.1335 299.9182943 +22.7205572     1959.315     72.44128      4.759    15.84     61.57879     20.39637     60.59579        63     3.641     1.915  78.94   3
        49    823.9589    884.1083 300.1432437 +22.8772378     1366.182     72.29412      1.669     3.80     4.498213     20.39637     113.6578        22     1.210     1.138  49.56   0
        50   1006.7956    882.8967 300.2006597 +22.9316786     254.3052       72.202      1.467     4.50     4.231133     20.39637     33.22239         5     0.814     0.706 -41.64   0
        51    676.2839    881.5760 300.0980446 +22.8322436     398.4257     72.25729      1.657     3.67     4.163392     20.39637     44.55867         8     0.935     0.795  14.54   0
        52    862.2166    877.7596 300.1572362 +22.8868809     907.3573     72.31254      1.933     5.53     4.548074     20.39637      56.0117        17     1.301     1.048 -88.76   0
        53    970.5319    874.6445 300.1920303 +22.9184435     293.2153     72.25729      1.741     4.53     4.442309     20.39637     31.52385         7     1.475     0.395  36.29   0
        54    910.2450    868.6813 300.1751656 +22.8986668     576.3156     72.27571      1.678     5.22     4.579233     20.39637     47.83572        12     1.162     0.955 -19.33   0
        55    761.6512    867.9481 300.1290775 +22.8539228     723.8524     72.33094      1.564     4.71     4.485771     20.39637      51.5466        14     1.214     0.864 -12.11   0
        56    773.2342    864.8875 300.1336829 +22.8565161      632.651     72.25729      1.571     4.30       4.5467     20.39637     59.28746        11     1.015     0.815  28.46   0
        57    474.4657    864.0448 300.0408975 +22.7666955      4243.67     72.29412      1.659     3.44     4.182917     20.39637     402.0169        33     1.314     1.228 -10.99   0
        58    253.1103    853.0392 299.9756078 +22.6971365     336.8685     72.27571      1.388     5.08     5.896764     20.39637     42.23369         8     1.132     0.645 -67.69   0
        59    199.5144    849.7117 299.9600250 +22.6801005     748.3198     72.42291      1.921     4.88     7.089785     20.39637     66.47153        16     1.402     1.033  45.49   0
        60    176.7578    846.8054 299.9538954 +22.6724384     1549.215     72.31254      1.758     4.00     7.150321     20.39637     152.6361        26     1.399     1.206 -18.02   0
        61     52.3796    836.3673 299.9186347 +22.6321180     313.9738     72.29412      1.422     3.86     4.756549     20.39637     32.16356         5     0.977     0.437  76.05   0
        62   1002.7595    834.5062 300.2151373 +22.9165700      2136.97     72.31254      1.836     4.35     4.596618     20.39637     130.8902        29     1.494     1.164 -16.32   0
        63    708.3292    834.5178 300.1233316 +22.8283426     415.3306     72.42291      1.728     5.45     4.413333     20.39637      40.6926         6     0.972     0.861  77.90   0
        64    786.3792    828.5175 300.1496068 +22.8500140     610.0984     72.25729      1.559     3.70     4.620476     20.39637     66.67092        12     1.035     0.853  27.57   0
        65    208.7413    828.2740 299.9698636 +22.6767220     529.1763     72.33094      1.800     6.39     5.933414     20.39637     45.69796        10     1.212     0.946   5.94   0
        66    654.4352    822.2285 300.1105364 +22.8086592      4767.65     72.31254      1.588     3.31     4.358069     20.39637     419.6433        33     1.278     1.170  37.53   0
        67    144.5137    823.3987 299.9514824 +22.6560512     413.1704     72.22043      1.686     5.22      5.64019     20.39637      37.3636         7     1.002     0.859  77.99   0
        68    456.7061    819.1702 300.0499606 +22.7484943     600.8826       72.202      1.464     3.87     4.291218     20.39637     71.33704        11     1.024     0.828  87.16   0
        69    204.6356    816.0505 299.9725611 +22.6719848     1395.118     72.31254      1.718     3.56     5.365806     20.39637     137.2443        23     1.314     1.127  38.03   0
        70    675.0023    815.0579 300.1192751 +22.8127663     766.7056     72.25729      1.496     3.61     4.427361     20.39637     76.43321        12     1.035     0.796   2.37   0
        71    224.1297    813.1971 299.9795498 +22.6770156     429.5255     72.23886      1.656     4.67     5.153463     20.39637     42.09839         7     0.888     0.698  47.27   0
        72    591.1706    805.4678 300.0962800 +22.7848820     337.4576     72.27571      1.424     4.22     4.330174     20.39637     33.89042         6     1.037     0.490   6.07   0
        73    830.4224    802.0903 300.1719288 +22.8556246     4195.733     72.22043      1.609     3.37     4.682378     20.39637      346.639        34     1.283     1.199   5.91   0
        74    239.3164    795.6424 299.9899787 +22.6765375      429.195     72.25729      1.518     5.72     4.553544     20.39637     45.43338        10     1.284     0.895 -72.85   0
        75    547.4938    794.2476 300.0863265 +22.7685666     621.0204     72.31254      1.633     3.10     4.340836     20.39637     71.19785         9     0.898     0.679 -14.61   0
        76    193.8418    792.4584 299.9768746 +22.6619808     1031.183     72.29412      1.692     3.75     4.636025     20.39637     93.39948        18     1.243     0.954 -23.23   0
        77    609.4066    787.8726 300.1076798 +22.7852989     440.0969     72.23886      1.459     4.36     4.352842     20.39637     58.83497        13     1.063     1.029  25.22   0
        78    343.4998    784.4760 300.0260124 +22.7045875     53831.03     72.42291      1.648     3.27     4.400552     20.39637     5574.233        89     1.410     1.382  -3.61   0
        79   1014.5297    782.8064 300.2356192 +22.9052440      849.954     72.25729      1.752     4.53     4.502558     20.39637     71.93138        17     1.217     1.129  25.90   0
        80    601.3279    783.5234 300.1065775 +22.7816286     1637.522     72.38614      1.473     3.13     4.354603     20.39637     189.4194        19     1.117     0.994  14.75   0
        81    271.9522    782.7851 300.0043072 +22.6826406     528.1082     72.33094      1.679     5.90     4.467146     20.39637     42.84331        12     1.282     0.764  81.14   0
        82    317.7068    782.6553 300.0185805 +22.6963286      264.557     72.34934      1.920     4.91     4.411365     20.39637     28.74471         6     1.151     0.593  64.97   0
        83     29.6687    779.3818 299.9301033 +22.6089658     803.0387     72.29412      1.847     3.51     4.702976     20.39637     93.89175        18     1.175     1.118 -31.48   0
        84    630.1808    779.6109 300.1168362 +22.7891550      860.336     72.25729      1.488     3.28     4.404125     20.39637     101.3486        15     1.003     0.972 -65.20   0
        85    641.2043    777.8636 300.1208380 +22.7919580     595.2712     72.25729      1.497     5.07     4.427991     20.39637     68.24775        13     1.188     0.857  54.69   0
        86    961.1122    775.6552 300.2212789 +22.8871884     307.3591     72.33094      1.370     4.01     4.596745     20.39637     34.55398         6     1.068     0.431  11.82   0
        87    746.8770    774.6885 300.1547954 +22.8227195     268.4323     72.44129      1.366     4.98     4.573544     20.39637     43.62413         8     1.142     0.645   0.88   0
        88    784.2164    764.5518 300.1697284 +22.8309987     739.7168     72.33094      1.561     4.19     4.514668     20.39637     75.15203        14     1.076     0.945  78.77   0
        89    393.2381    761.7260 300.0488825 +22.7129784     31752.28     72.23886      1.558     2.97     4.442609     20.39637     3696.982        69     1.343     1.308  37.33   0
        90    407.5245    762.3280 300.0531325 +22.7174356     1980.504     72.36774      1.617     3.21     4.424073     20.39637     196.9603        24     1.149     1.135  74.30   0
        91    916.3542    757.6802 300.2131616 +22.8686168      2840.78     72.27571      1.659     3.68      4.64402     20.39637     219.5224        30     1.250     1.231  48.17   0
        92    945.9633    756.5831 300.2227533 +22.8771716     324.9756     72.29412      1.517     3.95     4.587393     20.39637      32.1049         5     0.909     0.492  -2.53   0
        93    404.7540    756.2828 300.0542352 +22.7148702     706.4219     72.25729      1.780     3.97     4.443676     20.39637     59.81538        10     1.159     0.710  -5.34   0
        94    674.3708    753.7535 300.1390075 +22.7949779     842.3682     72.33094      1.463     3.59       4.4951     20.39637     99.01477        15     1.091     0.950 -11.43   0
        95    275.7371    753.5592 300.0149838 +22.6753929     622.8396     72.27571      1.463     4.06     4.508746     20.39637     83.11102        12     1.025     0.851 -36.84   0
        96    521.5735    748.3251 300.0931834 +22.7476154     995.0685     72.29412      1.599     5.51     4.340631     20.39637     93.07301        18     1.307     1.094 -25.83   0
        97     80.6751    748.6779 299.9559305 +22.6154700     499.0264     72.40453      1.327     4.93     4.678033     20.39637     49.56635         8     1.490     0.461  33.31   0
        98    922.4442    745.5071 300.2190178 +22.8669444     498.6397     72.29413      1.447     3.18     4.617737     20.39637     51.51109        10     0.921     0.810  21.11   0
        99    379.7304    744.0615 300.0504209 +22.7038592     220.2245     72.33094      1.161     3.67      4.52062     20.39637     38.44297         7     0.844     0.606  69.79   0
       100    510.5845    753.5492 300.0880642 +22.7458199     502.8117     72.31254      1.661     3.95     4.340631     20.39637     47.42364        10     1.003     0.735 -21.90   0
       101    467.2022    743.2459 300.0779081 +22.7298555     480.3092     72.29412      1.386     4.58     4.365881     20.39637     62.52223        10     1.086     0.684 -19.58   0
       102    108.6859    742.6517 299.9665936 +22.6221472     666.0214     72.31254      2.128     5.01     4.673053     20.39637      55.0582        10     1.182     1.027  83.50   0
       103    899.8535    740.6020 300.2135667 +22.8587678     370.7553     72.23886      1.494     3.63     4.634786     20.39637     40.36372         7     0.841     0.638  77.83   0
       104    273.4967    737.7917 300.0194116 +22.6701979     666.0472     72.18356      1.678     4.20     4.541532     20.39637     75.89127        12     1.252     0.759  46.40   0
       105    596.8051    728.2049 300.1231496 +22.7643936     459.4789     72.14666      1.429     5.85     4.402347     20.39637     49.98612        12     1.217     0.792 -74.28   0
       106    566.5845    726.7286 300.1142179 +22.7549107       533.96     72.29412      1.405     3.58     4.367346     20.39637     82.23798        12     1.137     0.784  24.11   0
       107    475.5658    726.1069 300.0860818 +22.7274446     307.8298     72.23886      1.571     3.84     4.345918     20.39637     47.80765         6     0.916     0.656 -35.15   0
       108    982.8282    723.1078 300.2451341 +22.8785970     4568.376     72.23886      1.677     3.53     4.380758     20.39637     354.7284        37     1.330     1.279 -27.97   0
       109    588.2953    724.0237 300.1218582 +22.7606425     1252.111     72.18356      1.354     2.74     4.396396     20.39637     143.3968        16     0.985     0.920   7.46   0
       110    379.7417    724.7429 300.0567029 +22.6983195     178.4868     72.36774      1.423     4.46     4.499473     20.39637     30.40214         5     0.770     0.736 -63.94   0
       111    507.9638    723.4993 300.0970149 +22.7364097     489.2732     72.29412      1.566     4.61     4.338585     20.39637     38.18631         8     1.055     0.573 -45.07   0
       112    670.1175    718.9978 300.1489786 +22.7837244     234.5142       72.202      1.183     2.58     4.500621     20.39637     45.06928         5     0.778     0.476  25.85   0
       113    971.1300    714.6158 300.2442447 +22.8726534     1700.842     72.31254      1.696     3.74     4.387019     20.39637     125.6082        25     1.268     1.210   3.26   0
       114    334.0899    708.0217 300.0479335 +22.6798311     883.5516     72.22043      1.542     3.53     4.453162     20.39637     103.3613        16     1.180     0.847  37.38   0
       115   1002.5325    704.7723 300.2572408 +22.8792304     1596.728     72.27571      1.631     4.06     4.252495     20.39637     132.5028        24     1.304     1.208  64.15   0
       116    797.7720    705.7457 300.1930672 +22.8181724     2645.462     72.29412      1.697     3.40       4.3715     20.39637      248.405        31     1.473     1.115   5.94   0
       117     19.9497    695.6376 299.9542989 +22.5820394     863.3002     72.27571      1.863     4.87     4.617448     20.39637     86.94651        17     1.363     1.182  33.62   0
       118    880.0289    691.5823 300.2233160 +22.8387476     631.9164     72.27571      1.616     4.73      4.51103     20.39637     66.25231        12     1.135     0.968  61.95   0
       119    182.9976    691.8956 300.0061858 +22.6298858       558.64       72.202      1.437     3.98     4.556479     20.39637     62.05487        12     1.016     0.887 -18.79   0
       120    916.0508    682.6974 300.2374372 +22.8469854     149166.8     72.36774      1.584     3.24     4.420709     20.39637     13703.78       160     1.479     1.471 -15.59   0
       121    678.6449    686.9499 300.1620501 +22.7770781     284.5758     72.33094      1.389     4.29     4.523933     20.39637     39.65485         6     1.211     0.433  79.67   0
       122    768.4749    682.9590 300.1913401 +22.8028499     783.2335     72.27571      1.490     3.34     4.452936     20.39637     88.82157        13     0.988     0.890  25.59   0
       123    948.9439    675.7914 300.2499410 +22.8548535     510.4121     72.27571      1.396     3.64     4.310851     20.39637     53.20507         8     0.795     0.692 -16.04   0
       124    602.1716    671.4043 300.1432793 +22.7496954     1711.954     72.25729      1.435     2.84     4.504751     20.39637     197.2465        23     1.156     1.067  40.07   0
       125    783.5000    668.8455 300.2006095 +22.8032980     9391.095     72.31254      1.459     2.80     4.410702     20.39637     1106.549        39     1.214     1.161  56.52   0
       126    285.0073    663.7847 300.0470398 +22.6524187     5004.889       72.202      1.512     3.01     4.321651     20.39637     620.2794        34     1.242     1.167  54.04   0
       127    366.9937    661.9180 300.0731509 +22.6764691     1183.747     72.22043      1.406     3.03     4.283738     20.39637     145.7196        20     1.239     0.939  12.32   0
       128    242.5522    659.6224 300.0351887 +22.6384916     522.8148     72.31254      1.572     3.72     4.447538     20.39637     51.33828         9     1.028     0.609  -4.72   0
       129    575.4189    657.4891 300.1394687 +22.7376819     698.4612     72.23886      1.317     3.05     4.521845     20.39637     90.27175        16     1.064     0.950  66.30   0
       130    567.0027    649.5764 300.1394185 +22.7328876     3352.587     72.23886      1.394     2.60     4.551861     20.39637     406.6555        29     1.156     1.058  54.27   0
       131    557.2467    643.3733 300.1383958 +22.7281825     1365.341     72.33094      1.347     2.62     4.583734     20.39637     145.1482        19     1.063     0.947  19.92   0
       132    950.8542    641.2142 300.2617719 +22.8454904      500.706     72.29412      1.365     3.63     4.348599     20.39637     59.14449        10     0.992     0.817  87.10   0
       133    468.4531    639.3030 300.1120732 +22.7003978     310.6155     72.36774      1.639     4.26     4.315867     20.39637     37.59327         6     1.350     0.383 -75.76   0
       134    220.4692    639.3661 300.0349026 +22.6260570     719.9601     72.29412      1.404     3.02     4.447938     20.39637     89.01714        12     0.979     0.889  19.86   0
       135    235.0276    637.8073 300.0399360 +22.6299761     647.7235     72.29412      1.588     3.56     4.422284     20.39637     75.35902        13     1.062     0.898 -29.61   0
       136   1003.9168    634.3752 300.2805480 +22.8594156     491.2705     72.25729      1.754     5.73     4.295885     20.39637     45.42685         9     1.299     0.711 -53.48   0
       137    291.5298    635.0361 300.0584083 +22.6461261     371.9019     72.27571      1.353     3.03     4.321911     20.39637     54.79859         6     1.057     0.334 -38.90   0
       138    260.7457    635.0455 300.0488309 +22.6368969     549.2498     72.33094      1.452     3.46     4.372842     20.39637     71.01601        10     0.989     0.779 -16.42   0
       139    581.2668    633.5838 300.1490564 +22.7325711     455.2281     72.27571      1.333     3.57     4.672254     20.39637     67.04149        10     1.076     0.701  46.84   0
       140    481.9768    632.8745 300.1183714 +22.7026065     1812.877     72.33094      1.402     3.02     4.329319     20.39637     210.7934        23     1.123     1.025  52.39   0
       141    135.9334    627.8450 300.0123645 +22.5973955     19712.26     72.29412      1.602     3.32     4.510314     20.39637     2217.161        60     1.408     1.313  29.01   0
       142     57.0925    629.6761 299.9872682 +22.5742690     789.0419     72.44129      1.942     4.06     4.528547     20.39637     66.63277        15     1.172     0.878 -17.81   0
       143    566.9869    628.3333 300.1463151 +22.7267838     1058.792     72.27571      1.333     2.78     4.697103     20.39637     135.1084        17     1.243     0.817 -43.71   0
       144    602.2519    627.5643 300.1575477 +22.7371320     312.6426     72.31254      1.241     2.95     4.725152     20.39637     62.02145         9     0.880     0.751 -24.45   0
       145    484.1848    625.4033 300.1214859 +22.7011237     307.0827      72.1282      1.413     3.49     4.342045     20.39637     29.91496         5     0.758     0.465  15.12   0
       146    320.8168    619.9169 300.0724297 +22.6505699     317.9901     72.25729      1.280     4.40     4.263516     20.39637     52.42976         7     0.965     0.572 -76.09   0
       147     82.0218    612.0480 300.0007407 +22.5766920     1504.425     72.31254      1.972     5.00     4.478542     20.39637     94.24677        32     1.687     1.227 -87.14   0
       148    851.6327    612.7854 300.2400639 +22.8076045     615.4417     72.27571      1.612     3.89     4.454027     20.39637     61.53418        10     0.900     0.827 -16.41   0
       149    148.0455    612.8091 300.0210134 +22.5967156     497.0458     72.31254      1.613     4.42     4.481931     20.39637     51.51347         7     0.965     0.576 -14.11   0
       150    530.2419    608.9619 300.1411659 +22.7102089     483.6747     72.38614      1.473     3.36     4.705763     20.39637     61.32223         7     0.907     0.587  73.89   0
       151    923.9582    607.3156 300.2643956 +22.8276947     981.5657     72.25729      2.030     6.18     4.406648     20.39637     87.45876        17     1.861     0.854   6.75   0
       152    984.8586    614.7577 300.2809753 +22.8480709     1191.738     72.27571      1.630     3.95     4.383294     20.39637     100.0694        19     1.258     1.058  58.17   0
       153    669.9256    605.9545 300.1856487 +22.7512058     255.7668     72.27571      1.267     2.97     4.755449     20.39637     41.01579         5     0.626     0.593  -4.86   0
       154    487.1547    601.2922 300.1302427 +22.6950923     795.3621     72.29412      1.371     2.62     4.426946     20.39637     85.61961        11     0.870     0.791  49.54   0
       155    634.8922    599.7833 300.1767393 +22.7389359     528.7827     72.22043      1.388     2.98     4.809739     20.39637     61.49174         9     0.883     0.687 -66.90   0
       156    682.1308    598.2652 300.1919492 +22.7526545     568.3867     72.34934      1.361     3.36     4.745647     20.39637     57.85425        10     0.915     0.749  22.23   0
       157    652.7478    598.0947 300.1828502 +22.7438014     515.7788     72.36774      1.330     2.86     4.791251     20.39637     61.06797        10     0.870     0.744   0.23   0
       158    531.3787    597.1860 300.1453451 +22.7071687     905.7817     72.25729      1.398     2.63     4.748215     20.39637     107.4504        13     0.927     0.817 -10.42   0
       159    718.0912    596.3850 300.2037651 +22.7628887     264.1585     72.22043      1.171     4.43     4.667722     20.39637     40.20572         7     0.877     0.635  68.54   0
       160    965.1456    592.6678 300.2820014 +22.8358196     3424.994     72.33094      1.566     3.12     4.383568     20.39637     346.8103        34     1.319     1.193  -7.83   0
       161    496.7472    592.5245 300.1360769 +22.6954504     1620.952     72.31254      1.394     2.57     4.545812     20.39637     209.4298        20     1.080     0.921  19.21   0
       162     58.7302    586.0150 300.0019585 +22.5622379     5214.415     72.31254      1.721     3.52     4.468986     20.39637     455.2432        42     1.393     1.378  10.18   0
       163    472.4405    587.7516 300.1300604 +22.6867945     326.3347     72.34934      1.450     2.29     4.453923     20.39637      49.7019         5     0.672     0.493 -82.40   0
       164   1004.8979    582.6895 300.2976448 +22.8448549     237.5619     72.47803      1.266     4.32     4.371068     20.39637     40.75449         7     0.802     0.663   9.64   0
       165    525.8395    583.3963 300.1480994 +22.7015493     280.7566     72.31254      1.178     3.55     4.761858     20.39637     48.90248         7     0.955     0.483   5.51   0
       166    360.1906    579.2210 300.0978977 +22.6506960     9226.813     72.27571      1.382     2.68     4.180263     20.39637     1019.286        42     1.287     1.110  54.50   0
       167    482.6417    576.2992 300.1369557 +22.6865643     9142.933     72.27571      1.371     2.49     4.582916     20.39637     1162.591        40     1.186     1.092  62.24   0
       168    247.7924    573.5116 300.0647896 +22.6153562       301.99       72.202      1.282     5.35      4.35417     20.39637     31.81129         8     1.049     0.769 -37.54   0
       169    729.1536    572.9613 300.2148208 +22.7594746     392.5829     72.34934      1.446     4.55      4.69601     20.39637     33.69611         7     0.905     0.650 -36.61   0
       170    979.0220    567.8264 300.2943995 +22.8328352     12647.43     72.27571      1.514     3.07     4.352318     20.39637      1260.12        54     1.305     1.279 -74.84   0
       171    894.3770    570.3031 300.2671926 +22.8082000     1847.586     72.22043      1.417     2.77     4.369793     20.39637     218.3147        23     1.241     0.993 -87.45   0
       172    543.2228    565.9541 300.1591771 +22.7017509     11722.39     72.33094      1.332     2.49     4.883073     20.39637     1450.583        41     1.177     1.088  47.06   0
       173    270.7409    561.3715 300.0758692 +22.6187538     1380.894     72.29412      1.458     2.93     4.347764     20.39637     166.2565        20     1.255     0.916  56.37   0
       174    712.6468    561.8675 300.2132800 +22.7513428     539.3938     72.27571      1.228     2.71     4.752784     20.39637     92.67754        10     1.025     0.601  57.11   0
       175    428.5757    560.1888 300.1253591 +22.6657334     332.4131     72.29412      1.336     4.09     4.369226     20.39637     45.03321         7     1.027     0.557  64.99   0
       176    517.4712    558.9521 300.1534330 +22.6920228     504.2278     72.27571      1.381     2.27     4.814281     20.39637     68.28576         8     0.761     0.662   8.03   0
       177    474.9013    554.0714 300.1417652 +22.6778627     4393.064     72.44128      1.356     2.72     4.698223     20.39637     576.6598        29     1.162     1.021  47.27   0
       178    817.7874    554.2433 300.2485272 +22.7806472     748.9611     72.27571      1.351     2.73     4.331285     20.39637     105.4369        10     0.850     0.829 -42.19   0
       179    453.2787    552.5823 300.1355181 +22.6709543     1142.039     72.29412      1.295     2.60     4.550894     20.39637     159.9753        16     1.000     0.904 -76.24   0
       180    207.4631    551.8312 300.0592899 +22.5970414     775.4562     72.31254      1.530     2.86     4.393635     20.39637     103.4792        12     0.999     0.797   5.44   0
       181    894.7991    549.8466 300.2739683 +22.8024480     1626.233     72.29412      1.481     3.14     4.331718     20.39637     179.3165        19     1.153     0.948 -18.24   0
       182    591.5531    541.6602 300.1821179 +22.7092575     201306.7     72.33094      1.357     2.30     4.949483     20.39637      30376.9       193     1.423     1.355  -4.29   0
       183    415.1084    548.3574 300.1250102 +22.6583001      467.978     72.29412      1.571     3.17     4.297414     20.39637     59.49476         8     1.001     0.554 -43.23   0
       184    775.3143    546.7283 300.2377277 +22.7657663     850.5291     72.40453      1.285     2.64     4.492769     20.39637     111.2062        15     1.124     0.793 -40.91   0
       185    844.1711    542.3553 300.2606139 +22.7851334     216.8201     72.33094      1.300     4.75     4.321157     20.39637      34.1748         5     1.066     0.600  62.59   1
       186    277.6744    541.5128 300.0844747 +22.6151336     3513.768     72.44129      1.411     2.74     4.350124     20.39637     465.4667        26     1.119     1.069   7.65   0
       187    843.7040    538.1982 300.2618183 +22.7837990     433.0896       72.202      1.328     3.65     4.321111     20.39637     54.64052         9     1.114     0.558 -12.63   0
       188    622.9970    528.3656 300.1962292 +22.7148609       273.32     72.29412      1.200     2.73     4.934752     20.39637     46.44732         5     0.763     0.551 -89.61   0
       189    482.2227    521.9865 300.1544635 +22.6708448     2753.012     72.27571      1.413     2.50     4.790356     20.39637     323.8424        25     1.273     1.003 -87.83   2
       190    326.5035    524.4142 300.1052156 +22.6248657     566.1282       72.202      1.442     4.05      4.29387     20.39637     71.83279        11     1.191     0.737 -87.06   0
       191    931.6909    522.7300 300.2942808 +22.8057020      187.419     72.45966      1.130     3.33     4.377707     20.39637     39.86447         6     0.715     0.653 -35.42   0
       192    893.8983    518.2177 300.2839590 +22.7930887     598.2039     72.22043      1.826     2.70     4.345629     20.39637     58.15562         8     0.794     0.723  -4.75   0
       193    586.6556    517.5458 300.1884233 +22.7008646     224.3048     72.33094      1.213     3.97     4.934398     20.39637     35.81852         5     1.024     0.440  14.63   0
       194    799.2875    510.6713 300.2569099 +22.7625869     483.7624     72.44129      1.221     2.84     4.330133     20.39637        62.09         5     0.725     0.453 -12.75   0
       195    879.2238    508.2856 300.2826079 +22.7858401     1800.629     72.25729      1.362     2.82     4.337166     20.39637     195.2027        17     1.027     0.927  75.83   0
       196    750.2609    505.9052 300.2431758 +22.7465334     2624.359     72.38614      1.363     2.42     4.566632     20.39637     359.0615        24     1.090     0.982  45.08   0
       197      9.2696    506.8391 300.0123016 +22.5246905     878.5095     72.25729      1.840     3.56     4.431638     20.39637     94.37632        13     1.167     0.885  23.07   0
       198    959.9183    503.2872 300.3093996 +22.8085651     172.2558     72.42291      1.147     3.73     4.643105     20.39637     43.16306         6     0.847     0.627  43.96   0
       199    655.1735    502.6166 300.2146138 +22.7171049     582.5522     72.31254      1.376     2.88     4.892519     20.39637     64.97583         8     0.931     0.666  89.39   0
       200   1007.6047    500.0549 300.3253267 +22.8219122     1251.018     72.29412      1.455     3.26     5.062994     20.39637     135.6291        19     1.184     1.035  57.79   0
       201    537.6049    501.5929 300.1783282 +22.6815854     800.2693     72.14666      1.413     2.80     4.879734     20.39637     109.4182        12     0.985     0.788  66.09   0
       202    993.4623    499.3539 300.3211418 +22.8174769     917.9097     72.31254      2.082     3.47     4.952585     20.39637     73.63047        13     1.017     0.973 -20.63   0
       203    879.4005    498.3523 300.2858885 +22.7830382      2291.66     72.29412      1.634     3.73     4.341343     20.39637     269.3646        25     1.426     0.988  74.70   0
       204    632.6157    496.7107 300.2095041 +22.7086504     771.8514     72.22043      1.511     2.30     4.916312     20.39637      88.7382         9     0.808     0.706  52.82   0
       205    917.6718    493.3836 300.2994376 +22.7930697     4480.766     72.29412      1.432     2.52     4.405383     20.39637     541.2736        34     1.213     1.143 -75.75   0
       206    471.3567    495.0256 300.1598351 +22.6598470     329.7757     72.31254      1.341     2.34     4.730921     20.39637     47.28237         7     0.694     0.660  80.23   0
       207    558.5209    493.1839 300.1875717 +22.6854377     266.0392     72.31254      1.033     2.03     4.898261     20.39637     61.87189         5     0.696     0.471  70.95   0
       208    418.6173    496.2642 300.1430175 +22.6443964     262.5258     72.27571      1.105     3.73     4.543537     20.39637     50.55513         6     0.897     0.588  23.82   0
       209    578.1001    489.3447 300.1949156 +22.6902016     376.6576     72.38614      1.323     3.04     4.912002     20.39637      53.1847         7     0.832     0.591 -27.59   0
       210   1009.3069    483.8123 300.3311318 +22.8177524     670.6509     72.23886      1.404     3.25     5.337114     20.39637     99.70368        15     1.066     0.953  77.09   0
       211    149.5026    483.6284 300.0634154 +22.5600901     984.0505     72.23886      1.448     2.78     4.504027     20.39637     132.2088        14     0.966     0.908  23.00   0
       212    810.9706    477.5214 300.2713157 +22.7565601     235.9196     72.29412      1.147     3.06      4.31982     20.39637      37.6762         6     0.775     0.495  -6.61   0
       213    170.3472    474.9301 300.0727191 +22.5638445     231.5035     72.29412      1.391     4.67     4.493096     20.39637      31.4589         5     1.017     0.608  20.36   0
       214    141.8951    473.8815 300.0642148 +22.5550120     379.7961     72.45966      1.331     4.67     4.537401     20.39637     59.01091         8     1.095     0.772 -68.37   0
       215   1005.9034    472.8136 300.3336410 +22.8135715     268.8822       72.202      1.020     4.25     5.236516     20.39637     44.31386         7     0.733     0.703  59.18   0
       216    749.8647    467.9499 300.2553757 +22.7355094     381.7278     72.34934      1.332     3.38     4.478915     20.39637     57.14527        10     0.949     0.731  22.73   0
       217    639.1094    465.6239 300.2216199 +22.7016660     372.8157     72.22043      1.293     3.58     4.881303     20.39637     45.09409         7     0.912     0.554 -53.61   0
       218    691.1062    464.0148 300.2383423 +22.7167795     757.6149     72.22043      1.355     2.25     4.742008     20.39637     113.2705        10     0.843     0.684   7.90   0
       219     51.1279    458.3353 300.0410525 +22.5233311      250.752     72.33094      1.451     4.75     4.511376     20.39637     33.27795         6     1.448     0.441 -24.35   0
       220   1005.6605    456.7072 300.3387944 +22.8088683     537.8379     72.36774      1.407     3.51     5.006214     20.39637     66.00606        10     1.083     0.655 -26.76   0
       221    751.8831    456.1131 300.2598476 +22.7327127     930.7943     72.40453      1.339     2.49     4.447993     20.39637     135.2902        13     0.907     0.853 -89.92   0
       222    909.1183    452.5675 300.3100217 +22.7787768     1044.429     72.27571      1.360     2.91     4.412426     20.39637     135.4975        17     1.028     0.984   6.00   0
       223    867.3301    450.1671 300.2977689 +22.7655752     245.9509     72.27571      1.188     3.42     4.353529     20.39637     32.71368         5     0.765     0.443  75.28   0
       224    893.2334    448.6159 300.3063504 +22.7728850     613.8387     72.27571      1.221     2.68     4.390832     20.39637     90.45724        13     0.950     0.871 -58.23   0
       225    873.9035    449.3618 300.3000801 +22.7673119     316.2859     72.27571      1.266     2.33     4.364243     20.39637     50.58608         5     0.830     0.472  -7.54   0
       226    637.6478    446.4925 300.2273754 +22.6957323     3145.202     72.31254      1.290     2.30     4.846786     20.39637     486.4284        25     1.112     0.978  72.27   0
       227    998.0708    445.7954 300.3399688 +22.8034592     556.7931     72.23886      1.382     2.46     4.805586     20.39637     75.85918        10     0.868     0.713 -55.57   0
       228    643.0756    434.5955 300.2329282 +22.6939404     322.0149       72.202      1.391     3.87     4.817114     20.39637     49.21885         7     0.927     0.679 -22.48   0
       229    409.6031    434.1467 300.1603777 +22.6238593     253.0187     72.25729      1.438     4.01     4.709155     20.39637     46.57204         6     0.961     0.560  18.39   0
       230    477.1454    433.3987 300.1816435 +22.6438846     302.6835     72.22043      1.169     3.05     4.752156     20.39637     51.69557         7     0.727     0.657  24.07   0
       231    920.8647    425.4500 300.3224884 +22.7744984     590.0999     72.34934      1.216     2.53     4.429883     20.39637     96.18402         9     0.861     0.680  68.16   0
       232   1007.2527    424.5583 300.3497278 +22.8001016     930.6457     72.29412      1.330     2.59     4.547012     20.39637     124.6854        15     1.156     0.792  42.56   0
       233    748.1765    420.5206 300.2702463 +22.7213750     1146.397     72.25729      1.347     2.37     4.380538     20.39637      161.247        17     1.043     0.856  57.94   0
       234    543.8837    421.1799 300.2063884 +22.6603715     446.4792     72.23886      1.206     2.40     4.867915     20.39637     70.45959         6     0.732     0.549 -47.73   0
       235    252.0993    418.8319 300.1163485 +22.5722541     643.1544     72.27571      1.360     2.98     4.698298     20.39637     78.81405        11     0.951     0.801   0.36   0
       236    314.5172    414.3940 300.1372033 +22.5896899     3841.451     72.22043      1.391     2.41     4.786421     20.39637     509.5123        30     1.149     1.093  54.82   0
       237    261.7010    409.1024 300.1224924 +22.5723394     7481.208     72.51476      1.407     2.65     4.753111     20.39637     960.9142        38     1.231     1.104  57.03   0
       238    640.4670    408.9561 300.2404378 +22.6857929     328.7818     72.27571      1.743     3.88     4.781459     20.39637     34.85148         6     0.934     0.513  14.92   0
       239    402.5686    403.3670 300.1681787 +22.6129128     4829.745     72.31254      1.301     2.35     4.805053     20.39637     687.4929        27     1.071     1.033  77.83   0
       240    646.7423    400.1564 300.2452488 +22.6851443     18771.27     72.29412      1.290     2.43     4.749913     20.39637     2523.723        52     1.229     1.128  32.15   0
       241    664.5573    400.0711 300.2508267 +22.6904556     918.2421     72.25729      2.022     5.31     4.693654     20.39637     81.13296        17     1.600     0.778 -33.48   0
       242    273.8808    398.1820 300.1298247 +22.5728553     343.8109     72.29412      1.516     3.29     4.818729     20.39637     42.71095         8     0.848     0.635  48.58   0
       243    843.3635    390.9591 300.3095145 +22.7413812     280.4365     72.38614      1.079     3.71     4.384215     20.39637     71.23047         8     1.070     0.614 -79.86   0
       244    266.5447    387.2489 300.1310911 +22.5675177     290.1945     72.33094      1.145     2.05     4.834824     20.39637     54.94228         5     0.693     0.475  72.80   0
       245    980.4288    382.8141 300.3549079 +22.7800702     797.7523     72.31254      1.429     2.93     4.460582     20.39637     109.6502        16     1.013     0.932 -75.90   0
       246    517.4121    382.2863 300.2107689 +22.6412689     393.3176     72.23886      1.003     2.25      4.84911     20.39637     63.84366         6     0.759     0.522 -44.38   0
       247    201.4306    380.2597 300.1131104 +22.5459928      2081.64     72.33094      1.399     2.44     4.689181     20.39637     276.1514        22     1.063     1.033  84.12   0
       248    215.0389    374.6866 300.1191502 +22.5484724     139.3978     72.27571      1.382     4.27     4.721479     20.39637     31.87084         5     1.098     0.474  64.31   0
       249    587.4221    369.6006 300.2366874 +22.6585972     6672.588     72.22043      1.257     2.15     4.874907     20.39637      988.353        34     1.127     1.029  56.70   0
       250   1001.1796    370.0316 300.3655307 +22.7826054     1136.397     72.29412      1.388     2.99     4.472611     20.39637     133.7163        16     1.049     0.890  68.76   0
       251    302.4446    369.0423 300.1481658 +22.5730507      589.958     72.38614      1.273     2.47     4.957901     20.39637     86.85547        11     0.907     0.723 -16.61   0
       252    160.0086    362.2245 300.1060844 +22.5283984     467.1702     72.29412      1.229     2.02     4.616849     20.39637     77.49071         7     0.686     0.627 -51.44   0
       253      7.1550    359.6942 300.0594029 +22.4818418     1313.576     72.31254      1.702     3.25     4.845749     20.39637     163.5759        21     1.226     1.081  26.78  16
       254    791.5534    358.8334 300.3037876 +22.7166350     1221.255     72.33094      1.437     2.83     4.396599     20.39637     138.6139        17     1.077     0.980  71.20   0
       255    701.2587    359.8597 300.2753123 +22.6898925     549.8959     72.36774      1.341     3.13     4.548025     20.39637     81.69338        12     0.932     0.881  -5.36   0
       256    881.5579    358.2112 300.3320524 +22.7434017     189.7393     72.29412      1.212     3.43     4.444016     20.39637     29.82715         5     0.746     0.456 -70.48   0
       257    494.0652    355.7998 300.2120951 +22.6266664     6029.859     72.27571      1.294     2.31     4.866574     20.39637     961.5618        30     1.116     0.990  60.36   0
       258    983.6818    350.4299 300.3664325 +22.7717319     590.1976     72.31254      1.261     3.29      4.48612     20.39637     85.48687        12     1.019     0.899 -65.24   0
       259    886.1647    350.4834 300.3359969 +22.7425590     1395.139     72.25729      1.339     2.42     4.459828     20.39637     197.0419        16     1.034     0.869  43.49   0
       260    478.7220    344.3425 300.2110362 +22.6187787     544.9801     72.33094      1.359     2.91      4.87223     20.39637     62.47646        12     0.950     0.800 -25.11   0
       261    561.4902    342.6179 300.2373669 +22.6430775     485.4133     72.22043      1.120     2.83     4.871067     20.39637     65.59264         8     0.947     0.604  -7.25   0
       262      5.6977    341.1521 300.0649662 +22.4760843     1052.197     72.33094      1.633     3.79     4.906809     20.39637      97.8525        18     1.163     1.057  86.27  16
       263    839.6920    341.2873 300.3244894 +22.7260034     250.1979     72.45966      1.062     3.52     4.483212     20.39637     40.69868         5     0.826     0.470 -44.48   0
       264    542.0696    340.4601 300.2320193 +22.6366403     240.8845     72.33094      1.087     2.27     4.875017     20.39637     54.43348         6     0.746     0.498  -1.00   0
       265    859.0595    337.8913 300.3316303 +22.7308250     560.8527     72.36774      1.367     3.30     4.498851     20.39637     82.97755        12     1.010     0.857 -56.74   0
       266    381.5938    335.0589 300.1838178 +22.5870112     2561.535     72.25729      1.303     2.36     4.988928     20.39637     401.6953        23     1.098     0.953  63.56   0
       267    100.0322    332.4656 300.0970972 +22.5018762     1074.876     72.29412      1.489     2.96     4.617556     20.39637     126.8621        16     1.075     0.882   4.78   0
       268    350.9499    324.4103 300.1777376 +22.5747708      29985.5     72.31254      1.358     2.50     4.994305     20.39637     4257.085        66     1.256     1.168  57.28   0
       269    885.6077    322.0388 300.3450529 +22.7342143     1497.191     72.31254      1.402     2.66     4.544913     20.39637     162.1413        18     1.065     0.897  52.06   0
       270     47.3065    312.2017 300.0872861 +22.4802525     4954.885       72.202      1.544     2.86     4.774703     20.39637     550.7231        35     1.279     1.194  46.51   0
       271    800.9471    311.1352 300.3221931 +22.7057365     422.1233     72.33094      1.191     2.78     4.720343     20.39637     78.80302         8     0.901     0.626  24.53   0
       272    225.3324    310.7767 300.1430871 +22.5332103     461.1559     72.27571      1.423     2.71     4.843048     20.39637      55.5276         8     0.864     0.610  84.58   0
       273    449.3834    309.9346 300.2130670 +22.6001057     513.1019     72.27571      1.259     2.23     4.925142     20.39637     83.25085         9     0.843     0.645  13.70   0
       274    761.4216    304.2867 300.3120940 +22.6919346     1915.271     72.22043      1.234     2.30     4.795561     20.39637     267.9165        20     1.097     0.887  62.15   0
       275    569.6330    299.1598 300.2540027 +22.6330303     392.6989     72.34934      1.299     3.02     4.826279     20.39637     60.26579         6     0.743     0.607   6.29   0
       276    976.3929    297.3906 300.3813682 +22.7542979     476.0983     72.14666      1.170     3.22     4.497177     20.39637       63.878         9     0.978     0.649  46.10   0
       277    423.3646    288.8877 300.2117963 +22.5862651     2140.309     72.27571      1.519     3.24     4.972585     20.39637     216.5901        30     1.481     1.031  59.65   0
       278    830.2197    290.4621 300.3380264 +22.7085563     57.82275     72.27571      1.192     2.98      4.80185     20.39637     35.11441         5     0.724     0.476  15.89   0
       279    635.4969    287.5662 300.2782791 +22.6494239      155.832     72.29413      0.921     3.42     4.737129     20.39637     48.61266         6     0.919     0.421 -70.72   0
       280    862.3387    282.0228 300.3507792 +22.7157440     501.9605     72.27571      1.202     2.21     4.724914     20.39637     87.99106         9     0.838     0.635  19.34   0
       281    744.6005    279.7881 300.3147990 +22.6798564     378.2839     72.10975      1.024     2.01     4.895719     20.39637      69.7745         6     0.669     0.581 -39.34   0
       282    761.7773    279.6936 300.3201833 +22.6849717     256.0437       72.202      1.141     2.73     4.897368     20.39637     57.46567         5     0.843     0.451  -7.78   0
       283    712.8995    278.8188 300.3052337 +22.6700867     338.0022       72.202      1.401     2.45     4.841472     20.39637     52.74746         6     0.763     0.635  20.50   0
       284    644.8802    278.5962 300.2841122 +22.6496559     2272.508       72.202      0.641     0.41     4.756785     20.39637     1379.081         6     0.583     0.289  72.91   0
       285    499.0866    268.2046 300.2420771 +22.6030065      1193.66     72.22043      1.237     2.62     4.872243     20.39637     184.3457        13     0.948     0.778  48.80   0
       286    306.1925    268.1194 300.1820741 +22.5451936     209.7976     72.22043      1.548     3.34     5.000253     20.39637     39.55263         5     0.990     0.549  56.99   0
       287   1010.0674    264.5817 300.4025185 +22.7549384     352.3624     72.29412      1.369     3.78     4.592351     20.39637     50.65223         5     0.986     0.429  61.20   0
       288    882.3918    261.7296 300.3636157 +22.7159109     334.6371     72.27571      1.315     3.44     4.729845     20.39637     43.89456         5     0.909     0.424   9.57   0
       289    743.9186    260.1170 300.3209675 +22.6739977       2167.3      72.4229      1.316     2.43     4.905715     20.39637     290.3717        22     1.063     0.954 -25.85   0
       290   1005.1851    254.6047 300.4042315 +22.7506079     3235.471     72.16511      1.428     2.58     4.643064     20.39637     452.0197        29     1.208     1.073 -72.91   0
       291    452.2548    244.3077 300.2352489 +22.5821132      635.627     72.34934      1.110     2.22     4.930102     20.39637     105.5631        11     0.942     0.717  72.12   2
       292    455.3081    242.8887 300.2366596 +22.5826201     810.2699     72.45966      0.717     1.10     4.925187     20.39637     344.5338         6     0.738     0.366  11.82   3
       293    126.9925    237.9774 300.1361263 +22.4828350     1412.162      72.2757      1.775     3.73     5.258855     20.39637     136.1473        25     1.395     1.165  22.38   0
       294    157.7803    238.0874 300.1456613 +22.4920943     463.8849     72.23886      1.412     3.92     5.216723     20.39637     66.04536         9     0.974     0.812  68.72   0
       295   1021.1550    234.8416 300.4156252 +22.7497013     452.7772     68.35675      1.439     4.85      4.73824     20.39637     50.60891        10     1.151     0.684 -87.72  16
       296    211.4125    230.2480 300.1648788 +22.5059165     582.2819     72.31254      1.313     2.33     4.957437     20.39637     73.66861        10     0.887     0.655 -11.31   0
       297    887.0860    223.8888 300.3773536 +22.7064341     266.3237     72.45966      1.281     2.33     4.827837     20.39637     53.33405         5     0.744     0.495  53.12   0
       298    815.3521    221.7625 300.3556751 +22.6843537     560.2114     72.31254      1.118     2.40      4.90634     20.39637     85.27721         8     0.812     0.633  87.17   0
       299    406.0477    221.5008 300.2282638 +22.5617198     359.0606     72.33094      1.242     3.59     4.958119     20.39637     49.24224         6     0.783     0.474 -14.71   0
       300    913.7326    210.6038 300.3899729 +22.7105874     2104.607     72.27571      1.433     2.43     4.815078     20.39637     313.2917        20     1.052     0.986 -70.75   0
       301    332.1836    207.7970 300.2097237 +22.5356556     2140.191       72.202      1.343     2.53     4.857933     20.39637     279.4545        20     1.081     0.925  49.36   0
       302    410.0651    202.9637 300.2355255 +22.5575978     1100.394     72.29412      1.441     2.56     4.971891     20.39637      134.952        15     1.040     0.822 -39.26   0
       303    812.3957    202.3385 300.3610528 +22.6778836     537.1333     72.27571      1.338     3.56     4.906239     20.39637      87.3067        10     1.138     0.642 -35.21   0
       304    161.8734    203.0852 300.1582846 +22.4832710     346.2018     72.40453      1.342     3.27     5.197761     20.39637     50.05623         5     0.963     0.361 -33.13   0
       305      8.2152    197.1890 300.1124421 +22.4355223      348.688     72.23886      1.543     4.50     5.742766     20.39637     32.55902         6     0.933     0.617 -24.24   0
       306    345.0033    194.2878 300.2180929 +22.5356157     416.7918     72.22043      1.779     3.49     4.812696     20.39637     42.19399         6     1.087     0.446  71.31   0
       307    226.9090    195.1521 300.1810787 +22.5004818      825.509     72.29412      1.468     2.59     4.874605     20.39637     98.08012        11     0.890     0.764 -41.78   0
       308    829.6571    191.9836 300.3697925 +22.6800722     574.7891     72.25729      1.250     2.79     4.895411     20.39637     99.09079        11     1.026     0.675  47.98   0
       309    764.9136    192.0493 300.3495876 +22.6607134       1787.5     72.29412      1.343     2.29     4.910043     20.39637     262.2506        22     1.048     0.931 -88.73   0
       310     79.4893    192.8136 300.1360076 +22.4556307     266.6112     72.23886      1.261     2.17     5.528755     20.39637     43.71239         5     0.695     0.477 -72.92   0
       311    248.2105    188.3445 300.1899106 +22.5049095     526.5867     72.29412      1.318     3.04     4.910028     20.39637      71.2367        11     0.910     0.834 -33.05   0
       312    768.8511    183.3609 300.3536324 +22.6593938     848.2501     72.31254      1.443     2.89     4.906406     20.39637     126.8704        14     1.112     0.749 -74.08   0
       313    538.2687    184.3909 300.2814593 +22.5906576     335.7623     72.27571      1.215     2.76     4.855575     20.39637     40.77661         6     0.696     0.628 -56.70   0
       314    689.3901    182.7373 300.3290700 +22.6354289     1326.126     72.22043      1.281     2.27     4.860347     20.39637     192.7957        16     0.941     0.895 -39.33   0
       315    510.7868    179.3673 300.2745309 +22.5809842      290.626     72.27571      1.187     2.43     4.832157     20.39637     44.23959         5     0.709     0.452 -17.77   0
       316    407.4320    178.7703 300.2425510 +22.5498584     202.5142     72.29412      1.130     4.10     4.963318     20.39637     34.78528         6     0.721     0.670   5.33   0
       317    896.8334    173.4840 300.3967396 +22.6948546     805.7368     72.25729      1.437     3.03     4.865748     20.39637     113.6352        14     1.070     0.794  86.14   0
       318    884.7357    174.3593 300.3926828 +22.6914863     1412.119     72.25729      1.326     2.37     4.875957     20.39637     203.2809        17     1.028     0.894  55.16   0
       319    615.5625    174.5856 300.3087120 +22.6109832     940.0148     72.29413      1.184     2.19     4.835599     20.39637     133.7866        12     0.827     0.800  15.39   0
       320   1013.5311    163.7866 300.4362894 +22.7269796     1052.975     72.31254      1.477     2.84      5.08636     20.39637     128.0098        16     1.043     0.921  13.43   0
       321     37.2281    160.0732 300.1334902 +22.4335644     452.6351     72.31254      1.618     4.79     5.644902     20.39637     53.15018         9     1.147     0.831  56.98   0
       322    247.6003    156.5120 300.2000418 +22.4955840      800.603       72.202      1.565     3.14     4.905419     20.39637     108.0016        13     1.011     0.889 -35.88   0
       323    109.5193    151.4032 300.1587669 +22.4527415     2006.553       72.202      1.467     2.65      5.33947     20.39637     264.8712        25     1.185     1.051  -1.13   0
       324    932.6904    148.5747 300.4160004 +22.6984185     731.5826     72.23886      1.335     2.87     4.870986     20.39637     100.8079        13     0.996     0.878 -66.49   0
       325     59.1845    148.2826 300.1441353 +22.4367602     568.2001     72.25729      1.307     3.34     5.469007     20.39637     69.99319         9     0.935     0.664 -24.45   0
       326    266.8922    144.6546 300.2098862 +22.4979580     5781.432     72.34934      1.463     2.70     4.935763     20.39637     808.3268        36     1.324     1.058  59.11   0
       327    248.7305    145.9247 300.2038257 +22.4928817     349.2621     72.36774      1.435     3.00     4.922328     20.39637     50.90142         7     0.949     0.590  -3.31   0
       328     51.1216    139.0243 300.1446311 +22.4316855     1278.742     72.27571      1.579     3.32     5.400279     20.39637     132.3775        21     1.154     1.119 -28.55   0
       329    250.1166    135.5217 300.2076293 +22.4903089     647.2652     72.40453      1.431     2.86     4.937046     20.39637     98.46687        10     0.894     0.769  70.23   0
       330    911.0179    126.2947 300.4164638 +22.6855253     3611.322     72.22043      1.440     2.58     4.891974     20.39637     515.4377        28     1.205     1.067  75.56   0
       331   1014.7233    125.1739 300.4491806 +22.7162270      2830.41     72.31254      1.457     2.72      5.09079     20.39637     354.8778        28     1.193     1.133 -66.41   0
       332    460.3398    121.2896 300.2776547 +22.5491873     527.2559     72.38614      1.190     3.09     4.942305     20.39637     81.55669        10     0.908     0.798 -71.02   0
       333    575.4031    119.3358 300.3141158 +22.5830784     331.1315     72.29412      1.201     3.40     4.910088     20.39637     54.37628         8     0.818     0.788 -27.48   0
       334    386.2855    112.6920 300.2573926 +22.5245390     971.4955     72.45966      2.570     8.19     4.949425     20.39637     68.48637        21     2.134     0.973 -29.20   0
       335    150.9332    110.4837 300.1849051 +22.4534010     588.9753     72.40453      1.363     2.76      5.33947     20.39637     69.40081         8     0.829     0.653 -44.96   0
       336    511.8441    108.7317 300.2977605 +22.5610006     1760.841     72.25729      1.325     2.20     4.962132     20.39637      278.172        21     1.073     0.932  61.72   0
       337    439.9394    109.5088 300.2751233 +22.5396926     410.6529     72.38614      1.166     1.95     4.981002     20.39637     71.32687         6     0.712     0.497  -5.77   0
       338     49.1716    109.5463 300.1535805 +22.4226375     265.4131     72.29412      1.246     3.04     5.120055     20.39637     42.01276         5     0.732     0.464 -18.53   0
       339    573.4841    108.0003 300.3171927 +22.5792455     510.7102     72.16511      1.649     3.92      4.93271     20.39637     57.42391         8     1.075     0.568 -52.11   0
       340    335.9846    104.4389 300.2444161 +22.5071021     144.8208     72.31254      1.045     4.14     4.927962     20.39637     36.00531         5     0.744     0.657 -85.93   0
       341    255.0057    104.3059 300.2192687 +22.4828070     371.0857     72.18356      1.235     3.67     4.977859     20.39637     46.21307         7     0.896     0.646  -8.66   0
       342    800.2572     98.4212 300.3909611 +22.6443669     449.4294     72.31254      1.326     2.40     5.025919     20.39637     51.34747         5     0.681     0.477  15.25   0
       343    945.8521     93.3148 300.4380208 +22.6864589     259.5562     72.31254      0.962     2.30     4.945715     20.39637     58.60569         5     0.738     0.419 -19.19   0
       344    285.8435     88.5257 300.2339753 +22.4875114     6245.462     72.27571      1.469     2.74     5.029563     20.39637     872.9613        38     1.307     1.110  62.88   0
       345    792.4418     89.3303 300.3914715 +22.6394136     204.9357     72.25729      1.120     2.90     5.042566     20.39637     42.89068         6     0.847     0.469  -3.23   0
       346    137.1566     88.2401 300.1878320 +22.4428850     757.0852     72.38614      1.511     3.15     5.294679     20.39637     90.29187         9     0.993     0.657  -5.48   0
       347    257.7578     82.6002 300.2271600 +22.4773961     274.0481     72.29412      1.187     3.63     5.109688     20.39637     53.81175         7     0.914     0.546  49.91   0
       348    301.4474     79.8492 300.2416414 +22.4896926     309.7858     72.33094      1.310     3.42     5.079567     20.39637     54.89059         8     0.941     0.710  55.85   0
       349     47.0070     78.9367 300.1628288 +22.4131998     453.7762     72.27571      1.512     4.11     4.903268     20.39637     71.41026         8     1.153     0.735  44.83   0
       350    531.9825     73.9220 300.3153141 +22.5570246     6219.428     72.29412      1.375     2.65     5.128707     20.39637     868.7442        32     1.247     1.024  75.33   0
       351    417.5269     74.1132 300.2796200 +22.5228092     659.4273     72.44128      1.268     2.58     4.975314     20.39637     90.47556        10     0.876     0.719   2.02   0
       352    725.8570     65.5938 300.3784104 +22.6126616     360.4366     72.25729      1.476     1.77     5.093524     20.39637     46.87277         5     0.660     0.453  23.27   0
       353    784.6041     63.8478 300.3972876 +22.6297393     856.8347     72.27571      1.498     2.23     5.118688     20.39637     108.8313        11     0.918     0.731 -26.22   0
       354    876.9954     62.7325 300.4264566 +22.6570618     381.4361     72.27571      1.258     2.68      5.04589     20.39637     79.53328         5     0.842     0.638  65.77   0
       355    900.4484     58.5954 300.4351119 +22.6628878     158.6469     72.27571      0.933     4.11     4.995757     20.39637     30.55162         5     0.984     0.490  -1.87   0
       356    225.1224     57.6251 300.2251044 +22.4604454     484.8595     72.29412      1.352     2.42     5.349137     20.39637     75.91824        10     0.888     0.713 -84.30   0
       357    583.4745     56.6943 300.3369337 +22.5674870     443.3619     72.44129      1.101     2.06     5.265854     20.39637     61.82623         5     0.652     0.483 -73.37   0
       358    660.3516     54.0461 300.3617406 +22.5897365     6220.888     72.31254      1.370     2.51     5.280062     20.39637     753.2122        35     1.239     1.044  70.04   0
       359    435.2013     52.9403 300.2919831 +22.5220168     1469.161     72.25729      1.372     2.92     4.967399     20.39637     172.8657        20     1.148     0.968  84.22   0
       360    701.3524     51.4443 300.3753595 +22.6012591     907.9721     72.31254      1.394     2.86     5.235458     20.39637      112.878        12     0.919     0.860  42.64   0
       361    771.5132     48.9132 300.3980470 +22.6215267     389.2543     72.42291      1.412     4.57      5.16496     20.39637     50.60774         8     1.137     0.541 -52.40   0
       362    717.5516     47.5229 300.3816786 +22.6049793     626.5199     72.29413      1.486     2.74     5.209462     20.39637     73.95715        13     0.969     0.829 -45.86   0
       363    184.1577     45.6615 300.2162432 +22.4447371     505.4927     72.27571      1.202     2.62     5.510356     20.39637     77.90798        10     0.925     0.649  29.52   0
       364     30.4736     46.1267 300.1683240 +22.3988240     362.0672     72.34934      1.426     4.74     4.730651     20.39637     41.71622         7     1.140     0.559 -13.76   0
       365    987.0712     45.2963 300.4664442 +22.6849721      548.702     72.40453      1.406     3.19     4.933274     20.39637     62.44197         8     0.933     0.625  16.19   0
       366    755.9083     43.2217 300.3950273 +22.6152203     588.6801     72.22043      1.351     2.06     5.183495     20.39637      80.3578         8     0.746     0.635  43.61   0
       367    242.8624     43.4016 300.2352307 +22.4616732     342.6149     72.27571      1.485     3.41     5.473457     20.39637     33.52439         5     0.806     0.418 -21.79   0
       368    704.5610     39.0798 300.3803665 +22.5986636     2694.246     72.25729      1.358     2.45     5.305438     20.39637     333.5606        24     1.157     0.962 -89.96   0
       369    345.2032     39.4262 300.2683547 +22.4911829     307.3825     72.25729      1.503     5.01     5.007036     20.39637     59.62929         9     1.409     0.505  44.23   0
       370    719.8278     38.0359 300.3854625 +22.6029321      943.082     72.31254      1.701     4.55     5.260289     20.39637     89.62625        15     1.461     0.729  37.85   0
       371    791.0984     30.5724 300.4100961 +22.6221114     1454.552     72.23886      1.393     2.29     5.230304     20.39637     234.2648        17     1.040     0.919  67.86   0
       372    951.4058     29.7572 300.4603530 +22.6698333     309.8758     72.31254      1.710     3.47     4.909555     20.39637     32.44377         5     0.730     0.478 -78.05   0
       373    728.7884     23.9211 300.3928291 +22.6015540     703.5689     72.27571      1.337     2.89     5.299276     20.39637     97.78249        13     0.990     0.843  78.59   0
       374    534.4452     22.8613 300.3326284 +22.5430835      1069.57     72.33094      1.417     3.01     5.437722     20.39637     146.4515        14     1.125     0.762  37.47   0
       375    107.6875     22.8494 300.1998625 +22.4152750     627.6932     72.29412      1.769     3.56      4.81745     20.39637     69.53845        11     1.072     0.835  39.60   0
       376    438.7398     21.2515 300.3033534 +22.5139684     798.0109     72.34934      1.287     2.58     4.950778     20.39637     117.8795        13     1.030     0.795 -38.36   0
       377    820.6606     20.1548 300.4226885 +22.6279595     416.3981     72.31254      1.454     2.20     5.268583     20.39637     66.52013         7     0.769     0.592  61.58   0
       378    334.1674   1019.7321 299.9465987 +22.7692566     696.2614     72.09129      1.612     4.25     15.50608     20.39637     82.24723        17     1.265     1.066  11.88  16
       379    242.4539   1011.3997 299.9207864 +22.7393425     2676.868     72.23886      7.821    39.30     71.11502     20.39637     63.93724       293    11.362     3.773  -0.11  19
       380    276.6975    981.5425 299.9411489 +22.7410606     8422.321     72.38614     10.380    37.92     33.22435     20.39637     170.2296       945    13.005     5.214  67.82  19
       381    217.1576   1012.7313 299.9124878 +22.7321314      1030.76     72.27571      3.611     8.38     84.51839     20.39637     48.28603        19     1.844     1.064 -33.66  19
       382    210.5564   1003.7656 299.9133525 +22.7275800     3058.363     72.34934      6.745    26.98     77.24582     20.39637     69.92384       194     5.533     3.653 -74.19  19
       383    216.7876   1007.8372 299.9139651 +22.7306175     1605.726     72.27571      4.209     8.11     80.53622     20.39637     57.30321        20     1.664     1.249 -83.66   3
       384    238.8398    993.6731 299.9254300 +22.7331762     4492.633     72.27571      9.066    20.53      61.1195     20.39637     91.89407       270     5.075     4.317 -50.77  19
       385    394.0300   1005.7811 299.9697619 +22.7832198      619.465     72.29412      2.074     6.91     4.030458     20.39637     35.28159        15     1.285     1.040  68.08   0
