#   1 NUMBER                 Running object number                                     
#   2 X_IMAGE                Object position along x                                    [pixel]
#   3 Y_IMAGE                Object position along y                                    [pixel]
#   4 ALPHA_J2000            Right ascension of barycenter (J2000)                      [deg]
#   5 DELTA_J2000            Declination of barycenter (J2000)                          [deg]
#   6 FLUX_APER              Flux vector within fixed circular aperture(s)              [count]
#   7 FLUXERR_APER           RMS error vector for aperture flux(es)                     [count]
#   8 FLUX_RADIUS            Fraction-of-light radii                                    [pixel]
#   9 FWHM_IMAGE             FWHM assuming a gaussian core                              [pixel]
#  10 BACKGROUND             Background at centroid position                            [count]
#  11 THRESHOLD              Detection threshold above background                       [count]
#  12 FLUX_MAX               Peak flux above background                                 [count]
#  13 ISOAREA_IMAGE          Isophotal area above Analysis threshold                    [pixel**2]
#  14 A_IMAGE                Profile RMS along major axis                               [pixel]
#  15 B_IMAGE                Profile RMS along minor axis                               [pixel]
#  16 THETA_IMAGE            Position angle (CCW/x)                                     [deg]
#  17 FLAGS                  Extraction flags                                          
         1    725.6501     23.1765 300.3928617 +22.6015585     849.4185     72.42136      1.590     3.57     5.189236     20.43226     87.99284        14     1.184     0.757  53.44   0
         2    206.5179     10.2116 300.2354195 +22.4424405     3984.332     72.38445      1.651     2.94     5.558833     20.43226     446.0887        36     1.414     1.168  59.72   0
         3    774.6505     11.1758 300.4120265 +22.6127656     658.4138      72.4398      1.367     2.62     5.167774     20.43226     74.74832        11     0.864     0.785  59.44   0
         4    628.7090      7.5989 300.3676970 +22.5680736      278.696     72.31059      1.153     3.11     5.521132     20.43226     46.18357         5     0.725     0.453  19.23   0
         5    767.9454      3.0338 300.4125742 +22.6084177     880.5023      65.1581      1.254     2.45     5.162987     20.43226     147.3705        14     0.967     0.932  73.81  24
         6    322.4953      2.6092 300.2739633 +22.4749845     1158.708     63.11685      1.328     2.42     5.005954     20.43226     172.2454        18     1.052     1.015  -1.64  24
         7    254.4905      2.5023 300.2528395 +22.4545914     255.3936       62.756      1.270     3.20     5.538302     20.43226     50.48682         5     0.946     0.488  82.44  24
         8    733.4525      2.0652 300.4021347 +22.5978206      273.133     60.43531      1.059     3.42     5.158344     20.43226     52.22875         5     0.775     0.438  68.22  24
         9    390.3704   1004.5492 299.9697711 +22.7829589     455.7832      72.4398      1.718     3.48     3.916536     20.43226     53.16444         9     1.102     0.736 -80.32   0
        10    283.9932   1021.3524 299.9312060 +22.7558602     1478.087      67.6132      3.156    13.83     34.77995     20.43226     59.85132        41     3.761     1.414 -22.43  19
        11    283.7006   1018.3060 299.9321062 +22.7548991     1939.495     72.60559      4.398    15.78     33.88181     20.43226     62.51348        48     2.976     2.326  51.57  19
        12    138.6214   1021.0046 299.8861139 +22.7121327     4631.308     68.90492      8.493    39.31     97.91608     20.43226     110.4698       382    12.042     3.561  21.40  27
        13    118.0713   1021.9399 299.8794216 +22.7062324     3749.985     65.28101      5.286    20.23     96.95464     20.43226     95.54175       157     4.976     3.119  26.99  27
        14    115.0232    954.5717 299.9003905 +22.6860094     5252.026     72.42136     23.873   112.36     35.73336     20.43226     100.9163      3217    20.600    17.005 -88.35  19
        15    199.6917    974.2748 299.9203041 +22.7170670     974.4714     72.58719      3.384     8.60      55.2538     20.43226     47.18866        13     1.791     1.154  77.86   2
        16    533.1468    982.2402 300.0214771 +22.8193854     383.7209     72.40291      1.721     4.92     3.041708     20.43226     37.57792         7     1.238     0.554  52.65   0
        17     18.0361    979.7170 299.8620705 +22.6641038     1343.421     72.40291      5.719     6.91    -5.879217     20.43226     47.80636        16     1.677     0.797  70.55   3
        18    961.2595    976.8501 300.1566740 +22.9461706     666.6191     72.47668      1.838     6.41     3.017505     20.43226     40.84271        14     1.180     1.066  13.97   0
        19    111.7152    923.8167 299.9093656 +22.6762011     4040.772     72.38445     18.705    59.21     11.03719     20.43226     248.9744      1070    12.969     7.502 -28.43   3
        20    197.2678   1004.3174 299.9097766 +22.7249515      423.642     72.53195      1.804     5.93     80.73489     20.43226     35.58212         9     1.393     0.710 -59.06   1
        21    582.1086    998.0298 300.0315886 +22.8385981     2258.027     72.38445      1.886     4.50     2.857083     20.43226     152.9006        30     1.415     1.320 -35.30   0
        22    181.6285    965.2250 299.9176315 +22.7090521     957.0349     72.42136      5.055    14.21     49.62491     20.43226     49.85456        21     3.233     1.736  48.09   2
        23    180.1358    961.7859 299.9182861 +22.7076183     1432.091     72.38445      6.553    10.69     47.29381     20.43226     53.48673        25     2.420     1.356 -10.01   3
        24    768.9888    994.1791 300.0910737 +22.8935230      576.587     72.40291      1.806     6.00     3.240201     20.43226     43.75776        16     1.383     1.060 -69.99   0
        25    687.0872    960.5211 300.0764977 +22.8593114     6760.709     72.56878      1.876     4.09     3.315181     20.43226      415.897        47     1.521     1.381  33.74   0
        26    566.8738    954.9074 300.0408729 +22.8216579      513.289     72.55037      2.349     6.34     3.261312     20.43226     34.83413         9     1.229     0.919 -56.89   0
        27    278.6864    954.3643 299.9513488 +22.7350619     442.0818     72.40291      1.362     4.49     16.52708     20.43226     60.80254        12     1.307     0.664  42.27   0
        28    595.6892    951.2739 300.0510302 +22.8292556     1501.902     72.58719      1.677     4.08     3.317662     20.43226     116.0743        22     1.237     1.151  33.75   0
        29    489.3778    947.6011 300.0191172 +22.7963224      1076.24     72.34753      1.821     3.86     3.373888     20.43226     88.56788        18     1.137     1.083  -4.55   0
        30    166.3895   1014.3764 299.8969031 +22.7185674     1302.849     72.42136      2.810    11.86     93.20933     20.43226     55.84609        30     2.416     1.621  -9.18  16
        31    419.9569    945.6818 299.9981306 +22.7749510     6485.661     72.38445      1.826     3.99     3.973601     20.43226     518.7106        44     1.448     1.374  53.93   0
        32    452.7728    932.5474 300.0126178 +22.7810260     590.6503      72.4398      2.128     4.66     3.717092     20.43226     50.94004        10     1.118     0.776  29.07   0
        33    966.3843    924.6356 300.1752599 +22.9327122     2219.796     72.42136      2.033     4.88     3.301836     20.43226     139.9036        36     1.527     1.422  17.42   0
        34    158.3436    924.1021 299.9237679 +22.6902760     877.0114     72.51353      9.146     8.99     19.45216     20.43226     39.01178        11     1.833     1.231  62.47   3
        35    151.4669    923.8444 299.9217139 +22.6881385     1324.104     72.40291     14.599    14.83     18.17162     20.43226     38.03964        33     3.192     1.916 -82.85   3
        36    464.7813    920.4174 300.0203016 +22.7811478     350.5042     72.40291      1.577     4.46       3.6724     20.43226     31.30866         7     1.515     0.373  65.67   0
        37    567.4777    908.3381 300.0562090 +22.8084770     394.7389     72.49511      2.034     6.52     3.606841     20.43226     40.72208         8     1.288     0.928 -10.45   0
        38    789.8651    907.2704 300.1258548 +22.8748335     1014.645     72.45824      1.806     4.90     3.631874     20.43226     61.01746        20     1.278     1.129 -34.77   0
        39    812.2078    901.2957 300.1347641 +22.8798139     11231.14     72.31059      1.803     3.94     3.652079     20.43226     769.2653        51     1.498     1.383  70.34   0
        40    214.2368   1007.4849 299.9140227 +22.7309519     1239.036     72.40291      3.467    11.25     81.07024     20.43226     68.24653        29     4.390     0.803 -44.21  19
        41   1002.5997    901.6143 300.1940485 +22.9369497     427.9183     72.27364      1.877     5.33     3.459374     20.43226     32.05602         9     0.980     0.818   6.79   0
        42    857.9217    901.4293 300.1489755 +22.8935509     359.9216     72.42136      1.527     6.29     3.627942     20.43226     35.06795        10     1.123     0.989   6.78   0
        43    755.3565    913.5604 300.1130512 +22.8662967     786.5338     72.51353      2.093     6.53     3.613716     20.43226     50.05426        18     1.518     1.154  55.71   0
        44    668.5889    993.4297 300.0600268 +22.8632091     8427.543     72.42136      1.918     4.51     2.940491     20.43226     464.7815        49     1.547     1.457  49.59   3
        45    123.8920    892.3248 299.9233923 +22.6708279      1222.65     72.58719      5.777     6.16     9.489345     20.43226     76.74564        22     1.467     1.426 -55.86   0
        46    517.3033    889.1403 300.0468271 +22.7879244     423.0562     72.49511      1.407     5.04     3.724629     20.43226     47.34371         9     0.936     0.768 -11.77   0
        47    674.3170    991.1520 300.0625527 +22.8642729     9239.011     72.42136      1.936     4.62     2.971132     20.43226     574.4894        51     1.536     1.450  53.26   3
        48    820.8174    883.3411 300.1432882 +22.8772390     1392.443       72.366      1.824     4.58     3.743977     20.43226     92.24258        22     1.323     1.123  60.72   0
        49      8.2988   1005.1592 299.8507683 +22.6684707     2553.777     72.40291     14.725    51.29    -21.98199     20.43226     78.58716       679    13.333     5.474  84.66  24
        50   1004.2186    882.3028 300.2008348 +22.9318879     470.9247     72.32906      2.029     4.08     3.601423     20.43226     32.15148         6     0.742     0.641 -68.05   0
        51    672.5494    880.4752 300.0980042 +22.8319800     474.5966     72.42136      1.812     5.39     3.808874     20.43226     41.22343         8     1.042     0.786  15.61   0
        52    858.9927    876.7773 300.1573273 +22.8867933     866.3104     72.40291      1.896     4.34     3.769537     20.43226     59.16901        17     1.232     1.011  53.56   0
        53    198.7574    876.3760 299.9518547 +22.6887191     501.3583     72.47668      3.461     4.49     9.149815     20.43226     32.09312         5     0.821     0.696  58.51   0
        54    967.6412    874.5182 300.1919532 +22.9186952     339.4319     72.38445      1.770     3.82     3.772118     20.43226     39.00787         6     1.045     0.401  18.03   0
        55    907.2355    868.2650 300.1751422 +22.8988030     501.9354     72.42136      1.841     5.48     3.929399     20.43226     43.50259         8     1.569     0.540  60.69   0
        56    758.7032    867.0015 300.1292370 +22.8539340     768.6319     72.32906      1.764     4.55     3.831259     20.43226     62.25599        16     1.205     0.962  34.68   0
        57    471.0915    863.3174 300.0408361 +22.7666586     4084.878     72.55037      1.636     3.37     3.930182     20.43226     377.7661        34     1.342     1.200  48.61   0
        58    770.1472    864.2601 300.1336960 +22.8565765     619.8874     72.47668      1.720     4.71     3.843047     20.43226     53.42742        12     1.125     0.827 -83.48   0
        59    514.2983    850.9006 300.0583266 +22.7760511     490.3797     72.66077      1.771     6.24     3.856503     20.43226     42.57439         8     1.373     0.796  83.61   0
        60    249.6432    852.0624 299.9755857 +22.6970131     472.6696     72.42136      1.706     3.97     5.435562     20.43226     33.64498         5     1.309     0.344  42.34   0
        61    196.9097    849.0552 299.9601637 +22.6803308     721.2787     72.47668      1.524     3.88     6.600384     20.43226     64.59084        11     0.972     0.813 -46.91   0
        62    202.6251    984.5699 299.9178671 +22.7208985     1717.831     72.42136      4.064    12.57     64.10844     20.43226     61.93462        45     2.523     1.743  57.24   2
        63    173.4405    845.9968 299.9538606 +22.6724126     1536.693      72.4398      1.783     4.37     6.985258     20.43226     129.8096        24     1.304     1.208  -0.55   0
        64    801.2492    843.2120 300.1502370 +22.8598534     438.5067      72.4398      3.151     4.32     3.924221     20.43226     40.19581         5     1.139     0.655  14.46   0
        65    999.7107    833.6580 300.2152476 +22.9165646     2160.656     72.49511      1.914     4.91     3.867602     20.43226     121.1753        33     1.553     1.326  12.33   0
        66    705.4551    833.1353 300.1236528 +22.8282536     423.3218     72.47668      1.880     4.19     3.885671     20.43226     41.97844         5     0.764     0.655 -26.28   0
        67    783.1770    827.7086 300.1496437 +22.8499866     653.0805     72.34753      1.697     4.74     3.952223     20.43226     60.82492        12     1.156     0.952 -17.15   0
        68    206.1510    827.1910 299.9701461 +22.6768335     482.3316      72.4398      1.631     4.82     5.325551     20.43226     58.71967        10     1.303     0.666  61.90   0
        69    530.5772    824.1832 300.0720831 +22.7732648     216.1002     72.40291      1.539     4.51     3.806439     20.43226     26.15219         5     0.836     0.691  40.10   0
        70    651.2345    821.4572 300.1105538 +22.8086507     4814.458      72.4398      1.579     3.09     3.873632     20.43226     479.0829        33     1.220     1.214 -35.86   0
        71    140.6440    822.3721 299.9513450 +22.6557988     359.9977      72.4398      1.654     5.39     5.143168     20.43226     43.42444         7     1.299     0.631 -29.40   0
        72    453.4653    818.5143 300.0499164 +22.7485185     626.6743     72.51353      1.619     3.67     3.951684     20.43226      64.3129        13     1.043     0.948  54.94   0
        73    201.4097    815.2501 299.9725538 +22.6719868     1322.358     72.42136      1.717     3.75     4.783763     20.43226     131.6068        24     1.345     1.210 -88.69   0
        74    671.8745    814.1964 300.1193458 +22.8127525     716.8335     72.32906      1.533     3.64      3.90416     20.43226     71.87611        12     0.948     0.884  80.94   0
        75    220.6299    811.5543 299.9797323 +22.6766926     430.4012     72.45824      1.624     5.97      4.52144     20.43226     43.33529        11     1.421     0.704  49.20   0
        76    588.1651    804.4168 300.0964455 +22.7848553     301.0765     72.42136      1.275     4.45     3.815276     20.43226     45.47722         6     0.891     0.631  33.48   0
        77    827.2721    801.2261 300.1720025 +22.8555940     4238.873      72.4398      1.609     3.47     4.105968     20.43226     337.0349        32     1.247     1.203  57.98   0
        78    558.2152    798.3049 300.0891039 +22.7741234     409.5318     72.34753      2.084     6.39     3.782702     20.43226     29.92303         7     1.502     0.763  48.01   0
        79    236.2111    795.2238 299.9898869 +22.6766829     486.6408     72.42136      1.700     4.29     4.142823     20.43226      58.7956         9     1.241     0.692  54.53   0
        80    544.3004    794.0016 300.0861692 +22.7687171     677.5873     72.29211      1.522     2.63     3.776052     20.43226       75.347        10     0.889     0.727  -5.40   0
        81    190.8167    791.5820 299.9769538 +22.6620216     1029.522     72.40291      1.685     4.06     4.067777     20.43226     87.05893        16     1.110     1.027   4.33   0
        82    340.2876    783.7457 300.0259947 +22.7046052     53908.15      72.4398      1.622     3.13     4.364299     20.43226     6051.043        94     1.445     1.364  47.18   0
        83    605.7952    787.0117 300.1075958 +22.7851439     495.2738     72.29211      1.593     5.26     3.856686     20.43226     50.45369        11     1.058     0.884   7.57   0
        84    598.1988    782.9549 300.1065482 +22.7817025     1563.551     72.42136      1.502     3.41     3.853163     20.43226     153.0209        18     1.118     0.974  17.10   0
        85   1011.1006    782.0875 300.2355694 +22.9051606     771.3292     72.58719      1.925     7.11     4.054173     20.43226     57.10923        19     1.464     1.178  83.24   0
        86    627.4280    778.8005 300.1170044 +22.7892706     1048.679     72.38445      1.628     3.70      3.89299     20.43226     92.20048        16     1.148     0.886 -38.26   0
        87     26.5239    778.6116 299.9301011 +22.6090106      906.425      72.4398      1.912     4.63     3.989959     20.43226     77.60384        17     1.325     1.123 -66.51   0
        88    637.8974    777.1967 300.1207876 +22.7919479     663.2031     72.32906      1.467     4.19     3.910872     20.43226     57.66151        13     1.087     0.870   2.21   0
        89    957.5165    774.8779 300.2211931 +22.8870414     340.0794     72.53195      1.851     4.89     4.219079     20.43226      38.0832         8     1.494     0.453  59.44   0
        90    743.5345    773.5554 300.1548917 +22.8225588     412.2088     72.42136      1.591     4.10     3.930961     20.43226     52.10429         9     1.029     0.701  29.06   0
        91    538.3360    770.8337 300.0918430 +22.7602797      377.454     72.42136      1.464     5.09     3.828037     20.43226     39.31794         6     1.026     0.714 -76.73   0
        92    781.1100    763.9556 300.1697259 +22.8310606      743.912     72.42136      1.466     4.31     4.051414     20.43226     71.43478        13     1.035     0.880  -9.59   0
        93    390.0188    760.9804 300.0488705 +22.7129864     31735.77     72.42136      1.530     3.14     4.212168     20.43226     3175.821        67     1.345     1.305  35.50   0
        94    404.2799    761.4661 300.0531513 +22.7174018     1917.976     72.53195      1.519     2.90     4.144601     20.43226     214.9087        23     1.201     1.068  60.39   2
        95    401.0468    755.2136 300.0541772 +22.7146383     626.4343     72.42136      1.563     3.74     4.165402     20.43226     62.62506        11     0.976     0.802  71.88   2
        96    913.1884    757.0120 300.2131717 +22.8686323     2815.653     72.31059      1.644     3.54     4.376571     20.43226     209.3734        31     1.329     1.219 -23.26   0
        97    671.2872    752.9673 300.1390674 +22.7949983       952.24     72.40291      1.494     3.77      4.00455     20.43226      82.8381        17     1.120     1.024 -31.48   0
        98    507.7964    752.9333 300.0881511 +22.7459875     497.5202     72.40291      1.563     3.48     3.853601     20.43226     68.31757         8     1.047     0.575  22.37   0
        99    272.3210    752.5407 300.0149924 +22.6752704     891.2507     72.45824      1.863     4.25     4.348758     20.43226     93.18852        16     1.328     0.996  41.31   0
       100    565.3416    751.1700 300.1066454 +22.7627305     165.4661      72.4398      1.439     4.74     3.879457     20.43226     27.29895         6     0.949     0.673  16.93   0
       101    518.1486    747.6382 300.0930959 +22.7475709     968.7401     72.42136      1.624     4.57     3.863353     20.43226     81.31807        18     1.365     0.911  62.93   0
       102     77.3977    747.9485 299.9558768 +22.6154834     530.8326     72.42136      1.835     3.84       3.9665     20.43226     48.89941         9     0.984     0.702 -67.05   0
       103    918.9134    744.8334 300.2189163 +22.8668485     538.4446     72.38445      1.551     3.89     4.433135     20.43226     56.23663        11     0.993     0.798  37.66   0
       104    420.2252    743.7950 300.0638579 +22.7171119     279.2505     72.38445      1.503     4.19      4.08035     20.43226      36.4571         6     1.227     0.409  58.68   0
       105    464.2678    742.7175 300.0779185 +22.7300067     315.3439     72.53195      1.192     3.67     3.910452     20.43226     56.28166         8     1.016     0.579  56.77   0
       106    106.5978    742.2202 299.9668145 +22.6226011     605.2092     72.34753      2.172     2.77     3.970579     20.43226     51.66732         7     0.737     0.682  56.80   2
       107    270.0530    736.7960 300.0194040 +22.6700736     624.9309     72.40291      1.559     4.93     4.324898     20.43226     55.30413        11     1.225     0.778 -62.77   0
       108    593.6899    727.5133 300.1231644 +22.7644360     416.2282     72.58719      1.491     3.73     3.989691     20.43226      45.9496        10     1.007     0.746  48.36   0
       109    562.9927    725.8386 300.1141470 +22.7547550     603.6273      72.4398      1.437     4.46     3.990945     20.43226     73.84496        11     1.004     0.823 -56.83   0
       110    472.1429    724.8703 300.0861708 +22.7272454     347.5425      72.4398      1.171     3.15     3.940403     20.43226     52.84495         6     0.916     0.558 -80.90   0
       111    979.5304    722.3950 300.2451215 +22.8785559      4486.65     72.38445      1.688     3.58     4.340495     20.43226     362.3168        32     1.280     1.224  31.79   0
       112    584.9499    723.1934 300.1218459 +22.7605764     1342.097     72.42136      1.438     3.10     4.027617     20.43226     117.1059        19     1.091     0.978  45.64   0
       113    504.8771    722.6600 300.0970813 +22.7364234     320.5486     72.47668      1.312     4.72     3.949375     20.43226      43.2864         6     0.958     0.658 -16.93   0
       114    666.4055    718.5242 300.1487409 +22.7836462     319.2657     72.32906      1.375     4.36     4.159057     20.43226     41.63958         6     1.053     0.513 -56.02   0
       115    968.0866    713.7560 300.2443585 +22.8726468     1619.437     72.40291      1.603     3.90     4.407704     20.43226     138.9032        27     1.402     1.124  78.13   0
       116    196.5070    708.9547 300.0055779 +22.6400299     245.2718      72.4398      1.779     4.80     4.221945     20.43226      47.0634         5     1.282     0.509 -13.48   0
       117    331.0453    707.6189 300.0478611 +22.6799927     785.0579     72.45824      1.414     3.24     4.475968     20.43226     94.06955        15     1.014     0.934  13.02   0
       118    794.5186    704.9859 300.1930729 +22.8181418     2752.366     72.40291      1.740     3.45     4.320713     20.43226     220.5286        34     1.570     1.152  18.33   0
       119    999.1462    703.9100 300.2572503 +22.8791184      1663.53     72.45824      1.716     3.60      4.25229     20.43226     128.7943        22     1.228     1.093  61.48   0
       120     17.1766    694.9542 299.9543835 +22.5822203     902.9144      72.4398      1.768     3.80     3.969364     20.43226     79.96914        16     1.228     0.991  58.03   0
       121    179.7673    691.5513 300.0060276 +22.6300172     778.0609     72.45824      1.871     3.67     4.328833     20.43226     71.32564        15     1.202     0.909  -7.20   0
       122    876.8456    691.0502 300.2232744 +22.8387984     577.9863      72.4398      1.716     3.56     4.729051     20.43226     59.69234         8     0.945     0.747   3.69   0
       123    912.8250    681.9183 300.2374646 +22.8469503     148289.2     72.40291      1.572     3.18     4.775975     20.43226     12967.02       154     1.482     1.440  83.45   0
       124    765.2119    682.0963 300.1913746 +22.8027882      731.642     72.32906      1.444     3.08     4.440086     20.43226     75.80154        11     0.937     0.769  48.67   0
       125    675.1926    685.5616 300.1621911 +22.7768141     451.2163      72.4398      1.521     3.81     4.403435     20.43226      52.7311         9     0.893     0.777 -19.36   0
       126    944.9232    674.9493 300.2497428 +22.8545602     377.2792     72.42136      1.537     5.83     4.682497     20.43226     38.83028         9     1.063     0.899  32.33   0
       127    780.2871    668.0077 300.2006523 +22.8032575     9315.145     72.32906      1.444     2.95     4.522084     20.43226     950.1351        42     1.264     1.165  63.11   0
       128    599.1208    670.7022 300.1433178 +22.7497531     1562.431     72.55037      1.377     2.85     4.485018     20.43226     187.2819        20     1.106     0.944  -1.91   0
       129    281.7560    663.0106 300.0470208 +22.6524142     4941.048     72.42136      1.522     3.05     4.510654     20.43226     565.4003        36     1.282     1.175  32.38   0
       130    363.9084    661.2913 300.0731404 +22.6765518     1126.948     72.58719      1.398     3.05     4.486756     20.43226      125.767        16     1.010     0.954  -9.99   0
       131    239.0770    658.8409 300.0351000 +22.6384202     450.8978     72.40291      1.453     4.94     4.525879     20.43226     49.39466        11     1.100     0.846  28.13   0
       132    572.1440    656.6888 300.1394678 +22.7376457     724.4281     72.45824      1.386     2.79     4.490821     20.43226     95.42424        10     0.911     0.734  62.62   0
       133    563.7072    648.7990 300.1394033 +22.7328521      3210.28     72.31059      1.411     2.57     4.510009     20.43226     451.9043        28     1.199     1.004  49.64   0
       134    554.0135    642.6522 300.1383811 +22.7281825     1452.958     72.45824      1.364     2.77     4.517442     20.43226     174.9855        18     1.079     0.938  40.54   0
       135    482.6280    641.8366 300.1164160 +22.7065547     417.2314      72.4398      1.591     4.57     4.275903     20.43226     40.18889         7     1.034     0.573  15.98   0
       136    947.5388    640.7306 300.2616775 +22.8455108     337.7867     72.45824      1.409     3.99     4.736137     20.43226     51.42525         9     1.084     0.736   6.04   0
       137    463.2903    639.2854 300.1112240 +22.7000264      559.609     72.58719      1.506     1.56     4.315077     20.43226     276.0172         9     1.500     0.622  13.95   0
       138    217.4097    638.8579 300.0348531 +22.6261898     546.8062     72.38445      1.343     3.61     4.555318     20.43226     87.78098        12     1.109     0.781  54.97   0
       139    231.6711    636.8596 300.0399377 +22.6298929     568.8732     72.45824      1.491     2.65     4.559508     20.43226     90.57384        14     0.985     0.922  17.58   0
       140   1000.8377    633.8418 300.2805465 +22.8594893     626.1366     72.51353      1.784     4.31     4.203931     20.43226     52.38971        12     1.005     0.913 -82.01   0
       141    257.3420    633.7061 300.0489467 +22.6366855     533.9956     72.47668      1.560     3.48     4.540656     20.43226     53.08358        12     0.959     0.916 -30.17   0
       142    578.0118    632.9504 300.1490079 +22.7325882     489.7132     72.45824      1.390     2.90      4.60446     20.43226     54.96447         9     0.795     0.747 -13.96   0
       143    478.8029    632.2321 300.1183452 +22.7026511     1806.425     72.40291      1.364     2.71      4.30238     20.43226     231.3542        21     1.087     0.991  15.81   0
       144    132.7159    627.0664 300.0123487 +22.5974082     20096.06     72.53195      1.638     3.25     4.574377     20.43226     1982.455        64     1.451     1.324  40.86   0
       145     53.4225    628.6561 299.9871856 +22.5740813     727.3771      72.4398      1.992     4.81     4.677007     20.43226     63.83681        14     1.167     0.983 -14.87   0
       146    563.8301    627.4603 300.1463741 +22.7267622     1162.049     72.45824      1.499     3.81     4.605243     20.43226     140.5761        14     1.110     0.811 -48.43   0
       147    480.5551    624.2682 300.1214779 +22.7008900     345.4828     72.40291      1.503     4.20     4.322654     20.43226     40.13555         6     1.095     0.460 -79.10   0
       148    317.3242    618.8640 300.0724283 +22.6504104     210.6766     72.49511      1.097     2.30     4.510447     20.43226     43.67889         5     0.741     0.415 -69.44   0
       149    981.7036    613.8292 300.2810775 +22.8480092     1098.704     72.34753      1.548     3.52     4.411028     20.43226     96.83333        18     1.163     0.990  54.37   0
       150    848.3430    612.2034 300.2400036 +22.8076098     516.4739     72.38445      1.424     3.84     4.824505     20.43226     50.67437        11     1.016     0.763  46.84   0
       151     78.6982    611.3353 300.0006673 +22.5766947     1482.242     72.51353      2.019     4.63     4.718199     20.43226     103.6983        27     1.550     1.152  79.51   0
       152    145.4632    611.6851 300.0213081 +22.5968188     466.7317     72.53195      1.425     4.15     4.577287     20.43226     46.95387         9     1.152     0.578  61.68   0
       153    527.1898    608.1200 300.1412453 +22.7102296     453.3574     72.38445      1.288     2.79     4.577948     20.43226     61.20219        10     0.886     0.723 -14.01   0
       154    921.0622    606.8027 300.2644399 +22.8278335     934.3998     72.42136      2.160     6.62     5.012694     20.43226      84.9555        14     1.786     0.765  11.90   0
       155    319.9183    607.1140 300.0770522 +22.6478161     352.1971     72.56878      1.556     4.46      4.51881     20.43226     33.63105         8     0.862     0.656  41.53   0
       156    483.9529    600.4533 300.1302719 +22.6950714     879.5746     72.45824      1.422     2.37     4.422046     20.43226     105.9093        12     0.967     0.763  61.99   0
       157    631.6849    599.2897 300.1766634 +22.7390039     368.8524     72.56878      1.208     2.67      4.81925     20.43226     56.48765         8     0.846     0.629  86.20   0
       158    679.0287    597.5952 300.1919661 +22.7527005     510.8189     72.38445      1.312     3.35     4.775076     20.43226     69.25121        10     1.056     0.656 -57.44   0
       159    649.6993    597.2444 300.1829406 +22.7438134     550.1777      72.4398      1.389     2.66     4.815476     20.43226     70.15938         9     0.848     0.656   8.00   0
       160    528.0282    596.0608 300.1454236 +22.7070184     959.8505     72.42136      1.405     3.36      4.65812     20.43226     101.6857        14     1.027     0.879 -84.51   0
       161    961.9026    591.9702 300.2820000 +22.8357988     3266.906       72.366      1.488     2.97     4.746173     20.43226     298.5247        30     1.207     1.173 -17.95   0
       162    493.5706    591.8199 300.1360709 +22.6954750     1855.277     72.42136      1.418     2.60     4.509576     20.43226     251.2992        17     1.003     0.919  31.17   0
       163    858.7803    589.6617 300.2505813 +22.8042586     307.2351     72.38445      1.246     2.79     4.886209     20.43226     39.76657         5     0.740     0.437  17.76   0
       164     55.4511    585.2387 300.0019183 +22.5622368     4978.711     72.42136      1.695     3.40     4.842696     20.43226     461.4304        38     1.359     1.248  36.08   0
       165    522.5041    582.5745 300.1480837 +22.7014908     332.5923     72.38445      1.282     3.78     4.712776     20.43226     53.02022         8     1.127     0.512  37.65   0
       166   1000.9677    581.8221 300.2974864 +22.8445771     414.4054     72.42136      1.642     4.58     4.545186     20.43226     44.11824         6     0.991     0.602  62.16   0
       167    615.1497    579.8192 300.1778361 +22.7284583     330.1144     72.40291      1.673     3.94     4.971659     20.43226     41.26567         6     1.069     0.545  63.45   0
       168    356.9431    578.4299 300.0978898 +22.6506824     9228.982      72.4398      1.438     2.73     4.626737     20.43226     1058.792        41     1.233     1.157  48.11   0
       169    479.4398    575.5458 300.1369569 +22.6865680     8920.271     72.42136      1.345     2.44     4.513235     20.43226     1205.132        34     1.146     1.058  44.33   0
       170    891.0291    569.6658 300.2671346 +22.8081691      1996.75      72.4398      1.484     2.99      4.96184     20.43226     217.0135        23     1.261     1.006  50.00   0
       171    975.7957    567.0161 300.2944406 +22.8327860     12746.99     72.32906      1.519     3.04     4.839534     20.43226     1187.645        51     1.313     1.272  67.99   0
       172    540.0145    565.1766 300.1591877 +22.7017420     11651.08     72.42136      1.346     2.56     4.927939     20.43226     1410.968        42     1.174     1.097  71.81   0
       173    709.6647    560.9774 300.2134076 +22.7513593     574.0999     72.40291      1.260     2.72     4.794785     20.43226     80.83784         9     0.819     0.734 -24.83   0
       174    267.5144    560.4785 300.0758957 +22.6187222     1415.186     72.55037      1.502     2.60     4.678167     20.43226      178.354        19     1.082     0.971 -21.06   0
       175    514.3224    558.3799 300.1533939 +22.6920921     388.5821     72.42136      1.457     2.72     4.807284     20.43226     58.97838         7     0.801     0.636  79.86   0
       176    471.6378    553.3339 300.1417416 +22.6778527     4443.854     72.40291      1.348     2.48     4.601768     20.43226     571.8818        30     1.191     1.039  26.99   0
       177    814.4685    553.4814 300.2485143 +22.7805935     744.2954     72.53195      1.374     3.28      4.64952     20.43226     89.35812        13     1.005     0.792  34.70   0
       178    449.9499    551.7897 300.1354908 +22.6709101     1353.752      72.4398      1.371     2.74     4.569815     20.43226     154.5937        16     0.978     0.903 -64.70   0
       179    204.2236    550.9893 300.0592920 +22.5970242     808.2093     72.42136      1.435     3.00     4.576146     20.43226     110.0972        11     1.000     0.732  38.11   0
       180    891.5406    548.9691 300.2740163 +22.8023745      1568.93      72.4398      1.523     3.18     4.963535     20.43226     146.6872        17     1.031     1.010  13.19   0
       181    138.3964    548.9254 300.0394938 +22.5766944     347.3405     72.32906      1.648     5.28      4.52799     20.43226     34.44712         6     1.363     0.577  69.98   0
       182    588.3425    540.9063 300.1821229 +22.7092516     202820.5     72.47668      1.365     2.47     5.215852     20.43226     26248.38       187     1.402     1.349  11.18   0
       183    412.2496    547.3027 300.1252120 +22.6583237     293.0859     72.47668      1.330     3.39     4.540704     20.43226      47.1405         5     0.744     0.448   9.79   0
       184    771.9672    545.7751 300.2377657 +22.7656515     814.8639     72.42136      1.374     2.77     4.660131     20.43226     111.7122        13     1.039     0.898  42.70   0
       185    274.3795    540.7471 300.0844389 +22.6151175     3460.732     72.40291      1.425     2.53     4.741455     20.43226     483.4967        29     1.170     1.081  50.63   0
       186    840.5211    537.2069 300.2619239 +22.7837183     581.3022     72.34753      1.592     4.32     4.781014     20.43226     51.81636        11     1.087     0.882  15.07   0
       187    619.9402    527.3461 300.1963701 +22.7148228     227.6054     72.47668      1.240     4.58     5.259723     20.43226     34.53972         6     0.922     0.645  41.60   0
       188    478.9566    521.1421 300.1544742 +22.6708026     2762.141     72.40291      1.373     2.62     4.672271     20.43226     346.2097        25     1.144     0.989  61.00   2
       189    323.5473    523.3469 300.1053860 +22.6248615     448.1999     72.45824      1.425     3.46     4.838519     20.43226     49.06523         5     0.742     0.467 -72.51   0
       190    928.7009    521.3566 300.2945758 +22.8055638      241.697     72.42136      1.378     4.00     4.985572     20.43226       35.328         6     0.861     0.531  45.19   0
       191    890.6742    517.8200 300.2838619 +22.7931631     450.3581     72.42136      1.335     3.55     4.858927     20.43226     59.19155         9     1.014     0.712  50.38   0
       192    710.1770    517.3782 300.2277263 +22.7389878     187.9879     72.42136      1.340     3.38     4.946703     20.43226     32.55464         5     0.763     0.433  20.25   0
       193    796.1828    509.7800 300.2570047 +22.7625607      365.223     72.40291      1.300     3.74     4.773079     20.43226     46.75987         9     0.871     0.763  75.09   0
       194    876.0001    507.4872 300.2826401 +22.7858002     1681.725     72.31059      1.457     2.99     4.759825     20.43226     195.0083        21     1.082     1.013  47.14   0
       195      6.3553    506.0098 300.0123890 +22.5247857     934.6656      72.4398      1.806     4.62     4.528952     20.43226     90.72022        15     1.317     0.908  18.00  16
       196    747.2256    505.1211 300.2432545 +22.7465616     2609.114     72.42136      1.330     2.32     4.867018     20.43226     361.3351        22     1.075     0.947  71.26   0
       197    107.2190    505.2405 300.0439860 +22.5548119     294.9319      72.4398      1.485     5.52     4.521168     20.43226     32.97821         7     1.358     0.634  32.94   0
       198    956.2061    501.9686 300.3094530 +22.8082246      361.492     72.42136      1.391     4.21     4.984115     20.43226     43.93062         6     1.145     0.442  64.31   0
       199    651.8977    501.9298 300.2145805 +22.7170946     526.0614     72.55037      1.329     2.51     5.228244     20.43226     75.13699        10     0.877     0.696  11.92   0
       200    534.3137    500.8712 300.1782945 +22.6815673     739.6622     72.53195      1.318     2.80     5.119423     20.43226     102.1903        11     0.935     0.782  69.93   0
       201   1004.4570    499.0877 300.3254450 +22.8218389     1241.589     72.49511      1.489     3.22     5.039657     20.43226     128.6032        19     1.121     0.994  31.02   0
       202    876.1765    497.5378 300.2859259 +22.7829935      2299.68     72.40291      1.649     3.36     4.718001     20.43226     251.8899        26     1.555     0.948  66.81   0
       203    990.1324    498.1595 300.3212761 +22.8172846      853.195     72.38445      2.247     3.84     5.022521     20.43226     62.94815        11     1.051     0.834  23.25   0
       204    629.5019    495.8063 300.2095906 +22.7086274     776.3015     72.31059      1.920     2.54     5.321592     20.43226     85.00417        10     0.871     0.752  83.57   2
       205    415.5291    495.3280 300.1431097 +22.6443844     348.6105     72.49511      1.371     4.37     4.721615     20.43226     32.29334         7     0.959     0.566 -31.93   0
       206    914.4373    492.6788 300.2994383 +22.7930511     4407.841     72.40291      1.458     2.60     4.869238     20.43226     552.1302        32     1.191     1.124  43.01   0
       207    468.1866    494.2866 300.1598408 +22.6598640     486.9324       72.366      1.379     2.69     4.704005     20.43226     61.49957         8     0.781     0.682 -62.02   0
       208    555.3979    492.3012 300.1876438 +22.6854225     368.8258     72.31059      1.549     3.56     5.256534     20.43226     35.84387         6     0.838     0.538 -44.64   0
       209   1006.2738    483.1108 300.3311997 +22.8177895     697.2256     72.58719      1.443     4.06     5.047603     20.43226     71.87009        13     1.083     0.896  28.87   0
       210    146.3119    482.9053 300.0633907 +22.5601243     1018.275     72.60559      1.477     3.10     4.501331     20.43226     132.5239        17     1.100     1.017 -59.19   0
       211    807.6648    477.2786 300.2711379 +22.7566590     161.3731     72.51353      1.052     2.20     4.879446     20.43226     54.18446         5     0.705     0.439  -9.41   0
       212    138.8435    472.9055 300.0643150 +22.5550157     378.8936      72.4398      1.434     4.17     4.519692     20.43226     44.39679         8     0.905     0.744  -8.59   0
       213    746.7595    467.2330 300.2554108 +22.7355355     340.9563     72.47668      1.154     2.23      4.95728     20.43226     70.61399         7     0.719     0.685  33.95   0
       214    635.5980    465.1570 300.2214408 +22.7016489     335.5793     72.42136      1.249     4.40     5.314917     20.43226      45.0445         7     0.997     0.589  36.95   0
       215    687.8833    462.9888 300.2384376 +22.7166850     773.4382     72.38445      1.206     2.30     5.156267     20.43226      124.096        10     0.869     0.701  61.39   0
       216    666.8917    461.3314 300.2324339 +22.7099222     272.0307     72.55037      1.325     3.81      5.22489     20.43226     45.46317         5     0.873     0.478 -46.15   0
       217   1002.5351    455.7876 300.3389040 +22.8088149     522.4659       72.366      1.394     3.25     4.720443     20.43226     59.11976        10     0.887     0.797 -38.70   0
       218    748.5581    455.1555 300.2598925 +22.7326036     737.0754     72.51353      1.307     3.51     4.962917     20.43226     103.2004        13     1.050     0.839  58.54   0
       219    905.7380    451.6293 300.3100521 +22.7786475     1099.283      72.4398      1.390     2.80     4.530042     20.43226     140.0699        15     0.995     0.866  85.10   0
       220    890.2502    447.9967 300.3064003 +22.7729672      530.176     72.42136      1.365     2.73     4.463914     20.43226     84.48322        12     0.946     0.821  30.67   0
       221    870.8383    448.6027 300.3001487 +22.7673304     207.0802     72.45824      1.265     3.92     4.434643     20.43226     36.72574         5     0.900     0.489  -1.62   0
       222    634.4008    445.8564 300.2273335 +22.6957455     3326.271     72.34753      1.332     2.28     5.271524     20.43226     452.7354        25     1.119     0.966  67.02   0
       223    994.7763    444.9944 300.3399867 +22.8033897     502.5292     72.40291      1.450     3.66      4.57002     20.43226      80.1104        11     1.034     0.825  29.62   0
       224    110.2319    436.7793 300.0671469 +22.5360708     343.0102     72.42136      1.373     3.62     4.604435     20.43226     62.08723         5     0.948     0.491  58.58   0
       225    639.7965    433.8620 300.2329082 +22.6939156     279.0645     72.42136      1.347     3.32        5.226     20.43226     44.51096         5     0.875     0.437  42.85   0
       226    474.4600    433.2087 300.1816223 +22.6442035     266.0739     72.38445      0.945     3.32     5.142475     20.43226     45.46264         5     0.747     0.427  65.18   0
       227    406.2616    433.6039 300.1602628 +22.6238842     314.7823     72.40291      1.253     3.56       5.0344     20.43226     39.48837         5     0.790     0.463 -14.34   0
       228    917.6236    424.5010 300.3225665 +22.7744066     506.4123       72.366      1.385     3.26     4.275033     20.43226     71.95918        11     0.989     0.821 -80.37   0
       229   1004.2016    423.8828 300.3497814 +22.8001403     793.6306     72.32906      1.367     3.12     4.307981     20.43226     111.5356        13     0.997     0.871  25.14   0
       230    654.3052    421.9057 300.2413101 +22.6948255     333.4908     72.58719      1.306     2.80      5.16158     20.43226     50.11339         5     0.739     0.433 -74.80   0
       231    745.1434    419.7559 300.2703193 +22.7214086     1026.039     72.42136      1.357     2.24     4.987525     20.43226     164.6034        14     0.908     0.858 -85.23   0
       232    540.9451    420.3315 300.2065060 +22.6604213     420.1659     72.45824      1.148     2.93     5.258763     20.43226     63.49357         7     0.724     0.662 -49.14   0
       233    249.1549    417.8355 300.1164951 +22.5722769     724.3802     72.45824      1.530     2.97     4.948957     20.43226     81.14443        12     1.007     0.772 -53.27   0
       234    311.3661    413.6160 300.1372184 +22.5897097     3715.503     72.40291      1.430     2.51     5.022705     20.43226     490.7207        32     1.245     1.047  51.30   0
       235    258.4867    408.2917 300.1224954 +22.5723339     7738.876     72.58719      1.445     2.66     4.969857     20.43226     962.3158        40     1.279     1.153  62.99   0
       236    637.1009    408.0574 300.2404442 +22.6856944     312.7141     72.51353      1.468     3.69     5.154896     20.43226     41.63064         5     0.638     0.615 -11.91   0
       237   1023.6516    403.1971 300.3625661 +22.8000124     894.0772     56.38713      1.108     3.14     4.224702     20.43226     198.4947        10     1.141     0.475  87.88  24
       238    399.3087    402.5827 300.1681672 +22.6128929     4903.816     72.34753      1.337     2.37     5.111789     20.43226      711.894        27     1.117     1.009  69.48   0
       239    643.5009    399.3542 300.2452632 +22.6851104      18898.9      72.4398      1.299     2.30     5.109477     20.43226     2683.643        59     1.297     1.128  37.37   0
       240    490.8893    401.0823 300.1971654 +22.6398981     158.6021     72.53195      1.019     2.18     5.285008     20.43226     52.30476         5     0.734     0.490  35.01   0
       241    661.2622    399.3784 300.2507898 +22.6904361     812.1297     72.40291      1.834     6.45     5.084796     20.43226     72.51727        16     1.611     0.847 -42.49   0
       242    270.2700    397.6876 300.1296024 +22.5728210     178.8245     72.58719      0.898     3.24     4.992733     20.43226     50.49577         5     0.741     0.449 -11.41   0
       243     19.5589    396.5638 300.0520172 +22.4973455     315.3831     72.49511      1.489     3.46     4.371289     20.43226     38.92598         5     1.065     0.324 -68.23   0
       244    840.6191    390.4216 300.3096094 +22.7415606     341.3014     72.42136      1.266     3.59     4.670422     20.43226     62.78026         7     0.965     0.656 -45.11   0
       245    263.9415    386.1987 300.1313622 +22.5676261     405.5628     72.38445      1.484     4.13      4.99445     20.43226       55.595         7     0.990     0.547 -32.97   0
       246    977.0089    382.2856 300.3547972 +22.7800419     783.1896       72.366      1.481     3.01      4.20751     20.43226     86.44949        12     0.964     0.811   2.80   0
       247    514.0428    381.2429 300.2108141 +22.6411349     298.9955     72.53195      1.180     3.71     5.197819     20.43226     41.50307         5     0.820     0.483  51.26   0
       248    198.1502    379.3875 300.1131092 +22.5459531     2063.424     72.47668      1.450     2.71     4.875602     20.43226     236.5489        23     1.145     1.019  34.44   0
       249    997.8555    369.3554 300.3654991 +22.7825618     1281.734     72.45824      1.478     3.22     4.212094     20.43226     134.1521        19     1.107     0.970  32.77   0
       250    584.2004    368.7736 300.2367124 +22.6585653     6782.344     72.38445      1.298     2.40     5.016745     20.43226     995.8931        34     1.139     1.039  58.08   0
       251    299.1453    368.1127 300.1481833 +22.5729828     686.3293     72.45824      1.379     3.12     5.054855     20.43226     80.02095         9     0.895     0.690 -77.63   0
       252    311.6167    367.7751 300.1521731 +22.5766229     105.7132      72.4398      0.971     3.76     5.068319     20.43226     25.54875         5     1.001     0.407  -5.95   0
       253    156.7871    361.5353 300.1060398 +22.5284312     478.6429       72.366      1.290     4.17     4.833809     20.43226     72.46246        10     1.174     0.752  64.60   0
       254    844.1739    360.7523 300.3203468 +22.7340957     342.3634      72.4398      1.322     4.02     4.831411     20.43226     59.18229         6     1.139     0.521  36.41   0
       255      3.9961    358.9722 300.0593795 +22.4818928     1293.203     68.90492      1.511     3.32     4.753837     20.43226     148.1355        20     1.226     0.972  18.69  24
       256    788.4015    358.0193 300.3038422 +22.7166156     1175.481     72.34753      1.347     2.65     4.927286     20.43226     140.8741        17     1.037     0.876  60.84   0
       257    697.8691    358.8577 300.2753484 +22.6897532     503.9858      72.4398      1.320     2.83       4.9609     20.43226     80.86717        11     0.927     0.791  50.06   0
       258    490.8506    355.0749 300.2120837 +22.6266712     6002.202     72.42136      1.309     2.31     5.253309     20.43226     909.2986        26     1.084     0.963  63.81   0
       259    882.7739    349.5661 300.3360159 +22.7424328      1573.87      72.4398      1.408     2.42     4.684465     20.43226     220.1199        18     1.066     0.908  66.59   0
       260    980.2203    349.7744 300.3663502 +22.7716540     670.3223     72.42136      1.531     3.02     4.217692     20.43226     72.86006        10     0.899     0.788  30.83   0
       261    475.6535    343.7965 300.2110114 +22.6188795     557.1432     72.40291      1.462     3.38     5.231719     20.43226     69.80006         9     0.932     0.727  52.05   0
       262    558.0376    341.5370 300.2374009 +22.6429047     484.5432     72.42136      1.224     2.50     4.940122     20.43226     74.87647         8     0.853     0.672  79.69   0
       263    836.7509    340.6443 300.3245569 +22.7260932     232.0952     72.45824      1.222     3.49     4.883154     20.43226     35.30796         5     1.181     0.297 -53.86   0
       264      2.4413    340.3832 300.0649277 +22.4760925     910.4155     62.35022      1.459     2.80     4.983094     20.43226     129.3859        16     1.012     0.989  74.45  24
       265    538.7167    339.3991 300.2320768 +22.6365042     314.8437     72.31059      1.322     4.05     4.968615     20.43226     42.67276         6     0.885     0.529  47.15   0
       266    855.7933    337.2939 300.3315828 +22.7308294     439.7895     72.31059      1.311     3.22      4.86514     20.43226     73.93213         9     1.012     0.631  79.37   0
       267    378.4106    334.2042 300.1838517 +22.5869946     2492.975     72.25515      1.305     2.29      5.16209     20.43226     321.3041        24     1.103     0.982  54.41   0
       268     96.8405    331.4644 300.0971595 +22.5018315     1159.375     72.38445      1.601     3.00     4.839303     20.43226     136.4562        17     1.235     0.924  64.21   0
       269    726.3583    329.1073 300.2938818 +22.6897321     367.5279     72.42136      1.121     2.28     4.889591     20.43226     52.05125         5     0.716     0.437  69.57   0
       270    347.7473    323.6435 300.1777352 +22.5747753     29978.62     72.45824      1.386     2.46     5.212147     20.43226     4487.095        64     1.308     1.134  59.27   0
       271    882.4394    321.4303 300.3450412 +22.7342431     1219.752     72.42136      1.268     2.62     4.771791     20.43226     178.2754        17     1.037     0.896  68.22   0
       272    837.7891    318.7089 300.3319982 +22.7200977     321.7326       72.366      1.226     3.57      4.87179     20.43226     41.56997         5     0.927     0.401 -84.93   0
       273     44.0602    311.3200 300.0872897 +22.4802286     5024.853     72.47668      1.601     3.05     5.121674     20.43226       549.61        34     1.341     1.185  54.32   0
       274    797.7039    310.4024 300.3221933 +22.7057120     474.4876     72.32906      1.044     2.16     4.880189     20.43226     82.43089         8     0.835     0.565  68.72   0
       275    221.9386    309.9229 300.1430461 +22.5331398       545.23     72.47668      1.419     2.81     4.958501     20.43226     90.54287        10     0.940     0.723  62.18   0
       276    446.4450    308.9483 300.2132238 +22.6001203     494.6256      72.4398      1.453     3.31     5.068206     20.43226     62.76383         8     0.881     0.642  42.14   0
       277    758.1857    303.5707 300.3120888 +22.6919194     1862.753      72.4398      1.239     2.32     4.859882     20.43226     298.8881        15     0.984     0.823  56.96   0
       278    566.0923    298.1116 300.2539991 +22.6328396     373.8966     72.58719      1.223     3.60     4.850136     20.43226     58.87569         8     0.988     0.656  73.57   0
       279    973.0767    296.6060 300.3813727 +22.7542262     574.1602     72.32906      1.393     3.67       4.3884     20.43226     79.30309        10     1.152     0.662  65.67   0
       280    419.9097    288.0749 300.2117346 +22.5861762     2122.979     72.58719      1.461     3.39     5.110555     20.43226     262.9236        24     1.351     0.911  57.05   0
       281    632.0587    286.8945 300.2781891 +22.6493680     295.4771     72.49511      1.096     2.67     4.835671     20.43226     69.63935         6     0.877     0.445  40.18   0
       282    859.2758    280.8852 300.3509706 +22.7156531     700.7767     72.53195      1.412     2.78      4.85224     20.43226     95.45017         9     0.911     0.671 -83.81   0
       283    758.6205    278.9776 300.3202028 +22.6849798     352.1088     72.42136      1.338     3.01     4.839465     20.43226     48.27824         5     0.807     0.487  38.63   0
       284    741.6288    278.4295 300.3150835 +22.6797363     412.7228     72.38445      1.306     2.67     4.835796     20.43226     66.24551         5     0.736     0.464 -76.32   0
       285    709.6512    278.2181 300.3051843 +22.6701034     350.2483     72.40291      1.244     2.00     4.840369     20.43226     52.46484         5     0.719     0.414 -66.38   0
       286    495.6822    267.4652 300.2420116 +22.6029491     1245.506     72.53195      1.319     2.56     4.819265     20.43226     160.1791        15     0.985     0.851  61.66   0
       287    303.1999    267.8727 300.1819656 +22.5454124     269.6367     72.29211      1.241     2.29      5.32451     20.43226     42.56567         6     0.715     0.552 -34.70   0
       288   1007.5672    263.5452 300.4028614 +22.7550360     323.3904      72.4398      1.182     3.12      4.27562     20.43226     48.19269         6     0.848     0.495 -89.69   0
       289    740.7693    259.3204 300.3210143 +22.6739857     2175.384     72.42136      1.306     2.36     4.834508     20.43226     318.4673        23     1.065     1.033  75.77   0
       290   1002.0267    253.8776 300.4042683 +22.7505977      3232.54     72.42136      1.451     2.58     4.403101     20.43226     434.0504        29     1.241     1.065  86.79   0
       291    448.9424    242.9671 300.2354044 +22.5819130     588.5199      72.4398      1.252     2.84     4.860314     20.43226     92.93782        11     0.927     0.788 -40.35   0
       292    154.7893    237.4319 300.1456773 +22.4922045      622.485     72.42136      1.468     2.49     5.435133     20.43226     85.77516        10     0.884     0.744  35.66   0
       293    123.9045    237.2424 300.1361362 +22.4828951     1381.732      72.4398      1.664     3.08      5.34645     20.43226     153.6373        24     1.345     1.056 -11.37   0
       294   1017.7586    234.2695 300.4155383 +22.7496634     663.7437     72.38445      1.890     3.07     4.482731     20.43226     70.14302         9     0.911     0.762  21.99  16
       295    872.2696    234.4811 300.3700758 +22.7061976     200.2771     72.53195      1.197     4.21     4.834979     20.43226     37.06271         5     1.006     0.503 -43.19   0
       296    861.5656    231.2004 300.3678012 +22.7020513     345.9626     72.38445      1.515     2.00     4.819877     20.43226     48.22428         5     0.660     0.479 -73.77   0
       297    207.7705    229.5641 300.1647047 +22.5058203     384.0799      72.4398      1.153     2.95      5.36233     20.43226     52.50897         5     0.722     0.453  21.03   0
       298   1002.9200    227.1740 300.4132086 +22.7431835     348.4151     72.40291      1.215     2.60     4.616185     20.43226      52.8638         6     0.868     0.445  34.58   0
       299    883.8479    222.9670 300.3774217 +22.7063507     152.8422     72.45824      1.078     2.34     4.858203     20.43226     49.37215         6     0.726     0.543  55.21   0
       300    812.1780    220.9083 300.3557371 +22.6843131     593.7955     72.34753      1.287     2.73     4.808841     20.43226     111.6943        10     1.009     0.796  28.66   0
       301    402.6707    220.1125 300.2284119 +22.5614891     314.8272     72.58719      1.288     3.90     5.012958     20.43226     59.26807         8     1.092     0.537  47.16   0
       302    903.1559    213.9848 300.3863578 +22.7095443     345.1934      72.4398      1.162     2.29     4.902091     20.43226     60.01227         7     0.783     0.650 -23.83   0
       303     86.9611    212.8145 300.1325733 +22.4648109     186.5657      72.4398      1.285     3.89     5.435717     20.43226     27.72482         5     0.849     0.509  58.31   0
       304    910.5429    209.7999 300.3900195 +22.7105508     2104.459     72.32906      1.480     2.70     4.918234     20.43226     244.7632        23     1.157     1.043  73.35   0
       305    328.9794    207.0493 300.2097135 +22.5356650       2222.7     72.42136      1.401     2.58     5.344615     20.43226      299.364        24     1.205     0.954  49.35   0
       306    406.7416    202.2103 300.2354846 +22.5575651     985.8952     72.38445      1.399     2.72     5.121196     20.43226     116.3641        15     0.992     0.894 -42.23   0
       307    158.8661    202.4803 300.1582794 +22.4833902     366.3371     72.53195      1.692     4.97     5.590387     20.43226     37.29439         8     1.037     0.673  34.69   0
       308    808.8094    201.6252 300.3609404 +22.6777602     487.6445     72.42136      1.271     2.49     4.841578     20.43226      97.9856         8     0.848     0.619  66.44   0
       309    915.9926    198.4911 300.3953871 +22.7089285     418.4316     72.32906      1.313     3.75     4.930481     20.43226     44.74132         6     0.813     0.497   4.58   0
       310      5.2863    196.1396 300.1125963 +22.4355464     426.4868     72.32906      1.995     7.33     5.866836     20.43226     36.31463        11     1.645     0.915  69.11  16
       311    223.5779    194.1654 300.1811003 +22.5003905     740.6982      72.4398      1.442     3.01     5.401194     20.43226     98.80637        16     1.079     0.933  81.64   0
       312    761.5003    191.2794 300.3495447 +22.6606281     1632.473     72.55037      1.286     2.34     4.886321     20.43226     224.1757        17     1.052     0.818  66.47   0
       313     75.7672    191.7096 300.1359372 +22.4553972     240.0878     72.38445      1.594     5.50     5.614263     20.43226     35.08128         6     1.060     0.804 -43.48   0
       314    826.4216    190.7850 300.3699479 +22.6799130     697.0177     72.40291      1.494     2.90     4.863246     20.43226     80.17789        10     0.999     0.662  58.12   0
       315    193.1902    190.9996 300.1726759 +22.4903774     269.9528     72.23666      1.582     3.86     5.504055     20.43226     27.79763         5     0.831     0.514 -31.55   0
       316    245.0457    187.7405 300.1898612 +22.5049765     556.8478     72.45824      1.342     2.97     5.397097     20.43226     70.15269        10     0.955     0.726  75.83   0
       317    534.7071    183.6795 300.2813381 +22.5905579     308.8145     72.53195      1.116     2.60     4.878124     20.43226     62.40818         7     0.848     0.566  35.53   0
       318    765.7200    182.7585 300.3536234 +22.6594407     787.3956     72.40291      1.349     2.71     4.898945     20.43226     113.0923        11     0.925     0.830  46.74   0
       319    686.0467    182.0337 300.3290230 +22.6353879     1317.905     72.45824      1.362     2.24     4.941397     20.43226     208.5802        15     1.001     0.846  77.84   0
       320    507.1939    178.2568 300.2745278 +22.5807621     378.9749     72.38445      1.519     3.27     4.994578     20.43226     53.38676         6     0.862     0.505  32.08   0
       321    881.5803    173.4579 300.3927699 +22.6914331     1542.115     72.42136      1.329     2.61     4.909883     20.43226     207.0155        18     1.151     0.847  74.32   0
       322    612.4039    173.7088 300.3087744 +22.6109520     1043.033     72.32906      1.352     2.57     4.858289     20.43226     133.3674        14     0.935     0.881  46.03   0
       323    893.4823    172.7147 300.3967236 +22.6947801     796.1361     72.56878      1.479     2.60     4.919039     20.43226     98.09087        13     0.921     0.841 -45.78   0
       324    940.0401    172.0828 300.4114533 +22.7085263     385.2664     72.38445      1.431     3.92     4.947382     20.43226     48.42646         6     1.129     0.496 -13.05   0
       325    903.8912    169.3744 300.4010538 +22.6969333     185.7849       72.366      1.606     5.16     4.930567     20.43226     31.57831         5     1.011     0.745 -69.69   0
       326   1010.3749    162.8271 300.4364027 +22.7269017     1080.188     72.38445      1.404     2.83     4.993842     20.43226     148.3575        16     1.060     1.005 -18.39   0
       327     34.3322    159.4362 300.1335227 +22.4337146     349.4802     72.42136      1.378     4.31     6.220652     20.43226     53.90271        10     1.134     0.729 -65.65   0
       328    244.5673    155.7703 300.2000780 +22.4956507     707.8298      72.4398      1.261     2.71     5.449096     20.43226     107.6021        13     1.046     0.743  53.50   0
       329    106.2299    150.5792 300.1587420 +22.4527158     2124.475     72.42136      1.479     2.64     5.660719     20.43226     295.8781        25     1.223     1.024  47.82   0
       330    929.3381    147.9251 300.4159473 +22.6983757     703.7349     72.47668      1.372     2.58     5.020021     20.43226     106.2683        12     0.897     0.808  28.40   0
       331     55.9820    147.3732 300.1441621 +22.4367389     610.3259     72.42136      1.656     2.68     6.027044     20.43226     65.50895         9     0.878     0.661  71.88   0
       332    263.6872    143.8677 300.2098846 +22.4979590      5709.78     72.53195      1.480     2.69     5.438958     20.43226     751.8447        34     1.302     1.070  61.74   0
       333      9.1220    139.6191 300.1321127 +22.4204704     32.83448     72.42136      1.207     4.37     6.440661     20.43226      31.0874         7     1.062     0.511 -46.13   0
       334     47.8517    138.1432 300.1446273 +22.4316526     1302.345     72.47668      1.621     3.49     6.097446     20.43226     137.4452        21     1.245     1.018  57.50   0
       335    247.1764    134.7922 300.2076906 +22.4904065     694.2088     72.42136      1.607     4.00     5.469007     20.43226     64.53142        12     1.039     0.859  81.37   0
       336    907.8454    125.6467 300.4164650 +22.6855378     3444.314     72.45824      1.395     2.50     5.112325     20.43226     509.7835        27     1.162     1.038  88.53   0
       337   1011.5223    124.4653 300.4491987 +22.7162074     2676.656     72.51353      1.464     2.62     5.252238     20.43226     361.6782        23     1.116     1.063  59.18   0
       338    210.6896    121.4021 300.2006821 +22.4756311     275.7692     72.32906      1.126     2.88     5.534937     20.43226     56.27279         7     0.815     0.617 -80.04   0
       339    457.3055    120.7145 300.2776490 +22.5492885     533.6125     72.60559      1.285     2.87     5.382347     20.43226     71.86304         9     0.829     0.773  10.60   0
       340    571.3331    118.2820 300.3139494 +22.5827252     256.0385     72.53195      1.191     4.25     5.242605     20.43226     39.93852         6     0.750     0.687  -4.57   0
       341    381.1629    112.2370 300.2566936 +22.5240537     779.3057     72.49511      1.540     3.86     5.409328     20.43226     65.82381         7     0.891     0.538  49.46   0
       342    147.4114    109.6357 300.1848181 +22.4532959     581.4684     72.42136      1.369     3.69     5.626288     20.43226     81.84005        12     1.081     0.823 -86.03   0
       343    508.5399    107.9959 300.2977258 +22.5609717     1566.448     72.38445      1.286     2.40     5.397921     20.43226     248.6102        18     1.089     0.891  78.40   0
       344    436.5254    108.3882 300.2751750 +22.5395245      312.882      72.4398      1.273     4.49     5.419848     20.43226     58.94767         9     1.332     0.553  57.89   0
       345    252.1366    103.4688 300.2193872 +22.4828943     406.2965     72.47668      1.673     3.41     5.496419     20.43226      46.6085         7     0.939     0.469 -12.08   0
       346    796.8544     97.2737 300.3910459 +22.6441730     340.6224     72.42136      1.133     3.56     5.164675     20.43226     73.99136         7     0.934     0.652 -69.45   0
       347    644.2523     93.9246 300.3445636 +22.5975475     273.7253     72.42136      1.189     3.26     5.312628     20.43226      41.0284         5     0.712     0.685  68.28   0
       348    282.6407     87.6607 300.2340009 +22.4874888     6091.281     72.42136      1.533     2.70     5.469172     20.43226     816.0153        41     1.341     1.177  62.08   0
       349    789.0470     88.5887 300.3914268 +22.6393392     269.6769      72.4398      1.188     2.79     5.172301     20.43226     54.89305         6     0.773     0.492  -0.71   0
       350    397.4902     87.9954 300.2696333 +22.5219766     215.3055     72.32906      1.509     4.67     5.330346     20.43226     36.45875         6     1.015     0.624  33.40   0
       351    133.6298     87.1178 300.1878316 +22.4427001     786.4014      72.4398      1.633     3.44      5.62605     20.43226     83.36974        14     1.146     0.882  38.81   0
       352    911.9500     86.5217 300.4304286 +22.6755100     627.7384     72.42136      1.653     5.10     5.286338     20.43226     165.0039         9     1.347     0.546  85.79   0
       353    254.8289     81.6593 300.2272937 +22.4774354     286.5745     72.42136      1.235     3.10     5.505066     20.43226     59.87736         6     0.928     0.547 -70.06   0
       354    298.0464     79.4713 300.2414483 +22.4897496     266.9718     72.40291      1.293     4.68     5.435308     20.43226     39.35513         7     0.931     0.745 -42.17   0
       355     44.2847     78.1315 300.1629703 +22.4133523     389.9027     72.51353      1.485     3.53      5.94806     20.43226     46.23192         8     0.827     0.764  71.36   0
       356    528.8085     73.1360 300.3153374 +22.5570186     6431.133     72.40291      1.386     2.53     5.515502     20.43226      836.316        34     1.240     1.048  81.74   0
       357    414.2264     73.0003 300.2797032 +22.5226782     693.1747     72.38445      1.284     2.64     5.189053     20.43226     97.88887         9     0.863     0.700 -71.30   0
       358    585.7076     68.0528 300.3347085 +22.5725877     356.8589     72.47668      1.300     2.24     5.454172     20.43226     55.31102         5     0.742     0.468  36.20   0
       359    781.1083     63.7752 300.3969941 +22.6298272     1013.024       72.366      1.847     5.84      5.17601     20.43226     101.0348        16     1.617     0.888 -76.54   0
       360    548.7531     67.6231 300.3233362 +22.5614037     175.2901      72.4398      0.991     3.32     5.526909     20.43226     32.96434         5     0.741     0.446  18.74   0
       361    722.9783     64.8315 300.3785294 +22.6127393     236.7781     72.42136      1.230     2.10     5.221322     20.43226     48.85743         5     0.746     0.470 -56.71   0
       362    873.6812     61.9589 300.4264523 +22.6569970     444.6724     72.38445      1.254     2.73     5.260182     20.43226     70.91775        10     0.862     0.784  65.66   0
       363    221.1761     57.3254 300.2247120 +22.4603657     468.1712     72.45824      1.342     3.13     5.542859     20.43226     67.77358         7     0.788     0.628   0.43   0
       364    580.1614     55.6633 300.3369961 +22.5673658      394.578     72.40291      1.273     3.07     5.492746     20.43226     62.31022         7     0.915     0.582  46.50   0
       365    657.0758     53.2580 300.3617403 +22.5896917     6399.976     72.45824      1.355     2.48     5.346226     20.43226     893.6149        34     1.225     1.055  74.19   0
       366    432.0439     52.3000 300.2919587 +22.5220631     1324.116      72.4398      1.319     2.78     5.101765     20.43226     183.5469        16     1.025     0.860 -78.51   0
       367    698.1898     50.7292 300.3753733 +22.6012668     869.9149     72.40291      1.400     2.29     5.260378     20.43226     133.3306        12     0.906     0.767  71.86   0
       368    767.8955     48.5098 300.3978220 +22.6214836     438.9085     72.60559      2.013     5.58      5.17733     20.43226     36.86319         8     1.136     0.771  18.76   0
       369    714.1664     46.8504 300.3816102 +22.6049316     512.4814      72.4398      1.359     2.84     5.227989     20.43226     80.23497        10     1.047     0.652  75.89   0
       370     28.2872     45.3345 300.1686269 +22.3991413     404.6179     72.51353      1.573     4.74     5.647134     20.43226     32.07179         8     1.026     0.739 -60.67   0
       371    984.0370     44.3914 300.4665763 +22.6849466     462.8636     72.42136      1.286     3.59     5.429304     20.43226     62.06516         9     0.955     0.685  81.81   0
       372    180.9358     44.7543 300.2162706 +22.4447021       676.91      72.4398      1.407     2.85     5.588499     20.43226     98.79691        11     1.065     0.653 -25.21   0
       373    752.6457     42.1934 300.3951146 +22.6151046     450.5214      72.4398      1.277     3.35     5.177156     20.43226      65.8055         7     0.925     0.613  78.16   0
       374    716.3103     36.9865 300.3854751 +22.6027361     1008.155       72.366      1.914     4.37     5.218896     20.43226     106.0158        21     1.534     0.940  51.30   0
       375    701.3679     38.1718 300.3804334 +22.5986063     2825.823     72.42136      1.348     2.48     5.250279     20.43226     360.2255        26     1.127     1.035  73.26   0
       376    342.1789     38.9358 300.2683179 +22.4913173     568.8542     72.38445      1.724     3.25     4.958953     20.43226     62.10627         7     0.913     0.577  73.95   0
       377    787.8050     29.6650 300.4101367 +22.6220191     1642.623     72.40291      1.474     2.83     5.172299     20.43226     205.8231        20     1.207     0.941  83.17   0
       378    948.0149     28.7678 300.4603990 +22.6696788     297.2445     72.40291      1.117     3.31     5.445125     20.43226     50.76871         5     0.796     0.493  53.79   0
       379    865.9418     24.4820 300.4361839 +22.6439002     323.5401     72.49511      1.452     3.93     5.318579     20.43226     39.54928         5     1.074     0.411  64.62   0
       380    768.2012   1021.2886 300.0820069 +22.9010673     409.2354      67.8105      1.807     5.13     3.130797     20.43226      35.0108         8     1.004     0.741 -73.21  16
       381    104.1269     22.1756 300.1997044 +22.4152099     483.4256     72.45824      1.349     3.79     5.526699     20.43226     70.81097         9     0.970     0.825 -19.60   0
       382    435.2625     20.1728 300.3033717 +22.5137924     885.4866     72.42136      1.376     2.97     4.909496     20.43226     112.7216        14     0.998     0.911  86.07   0
       383    817.2433     19.1876 300.4227115 +22.6278110       491.16     72.40291      1.306     4.26     5.212697     20.43226     72.01354         7     1.232     0.494  57.13   0
       384    531.4703     22.0989 300.3327062 +22.5431432     1153.121     72.55037      1.345     2.75     5.563519     20.43226     131.6484        19     1.102     0.958 -55.52   0
       385    330.5952   1018.8989 299.9465019 +22.7691399     1003.297     72.31059      1.873     5.76     12.78275     20.43226     79.48077        19     1.350     1.079  83.62  16
       386    235.8228    992.8489 299.9254973 +22.7332341     4525.375     72.42136      8.287    31.81     60.35266     20.43226     84.14294       324     6.456     4.391 -77.76  19
       387    254.9037    991.7198 299.9317991 +22.7386361      6308.22     72.55037     15.126    56.27     46.35513     20.43226     133.2498       922    12.287     8.337 -65.40  19
       388    273.8555    980.9407 299.9412006 +22.7412324     8968.295     72.49511     11.773    41.87     28.81328     20.43226     183.5927      1068    13.829     5.712  71.04  19
       389    207.7083   1005.1580 299.9127496 +22.7283257     2716.625     72.42136      5.130    22.52      80.1747     20.43226      60.8748       109     4.480     3.144  49.72  19
       390    205.7335    999.8994 299.9138465 +22.7262257     1546.052     72.51353      4.664    13.87     76.26155     20.43226     67.61354        52     4.437     1.207 -48.32  19
