#   1 NUMBER                 Running object number                                     
#   2 X_IMAGE                Object position along x                                    [pixel]
#   3 Y_IMAGE                Object position along y                                    [pixel]
#   4 ALPHA_J2000            Right ascension of barycenter (J2000)                      [deg]
#   5 DELTA_J2000            Declination of barycenter (J2000)                          [deg]
#   6 FLUX_APER              Flux vector within fixed circular aperture(s)              [count]
#   7 FLUXERR_APER           RMS error vector for aperture flux(es)                     [count]
#   8 FLUX_RADIUS            Fraction-of-light radii                                    [pixel]
#   9 FWHM_IMAGE             FWHM assuming a gaussian core                              [pixel]
#  10 BACKGROUND             Background at centroid position                            [count]
#  11 THRESHOLD              Detection threshold above background                       [count]
#  12 FLUX_MAX               Peak flux above background                                 [count]
#  13 ISOAREA_IMAGE          Isophotal area above Analysis threshold                    [pixel**2]
#  14 A_IMAGE                Profile RMS along major axis                               [pixel]
#  15 B_IMAGE                Profile RMS along minor axis                               [pixel]
#  16 THETA_IMAGE            Position angle (CCW/x)                                     [deg]
#  17 FLAGS                  Extraction flags                                          
         1    515.8982     16.0065 300.3326692 +22.5432334     1066.436     72.13409      1.416     2.82      5.62445     20.38239     137.9022        18     1.173     0.944 -59.89   0
         2    419.5496     13.9715 300.3033260 +22.5138098     882.1639     72.26298      1.469     3.21     5.502676     20.38239     93.18034        15     1.063     0.951  80.57   0
         3    759.0356      4.9544 300.4120172 +22.6128032     696.0035     71.48613      1.401     2.55      5.91864     20.38239     106.6198        12     0.987     0.736  56.17  16
         4    190.8846      3.9810 300.2354072 +22.4424745     3896.102     68.63995      1.614     3.15     6.250058     20.38239     369.0474        36     1.321     1.293 -25.87  24
         5    516.5616      1.7296 300.3375007 +22.5393264     342.9319     58.45164      1.255     3.24     5.665707     20.38239     49.78902         7     0.847     0.637 -19.71  24
         6    242.4957      1.8201 300.2521611 +22.4573087     186.4226     58.88218      1.233     4.26     6.430029     20.38239     38.84984         5     0.925     0.559  42.12  24
         7    613.3012      1.2801 300.3677833 +22.5681462     207.4961      56.0601      1.011     3.28     5.961598     20.38239     49.70855         5     0.893     0.436  -8.06  24
         8    652.8053    987.2406 300.0600398 +22.8632714     8818.077     72.26298      2.031     4.78      4.01169     20.38239     484.9959        42     1.508     1.388  35.36   3
         9    267.7121   1016.1002 299.9307619 +22.7560468     2956.062        72.41      7.425    35.36     35.64168     20.38239     65.06413       255     7.611     4.560  85.79  27
        10    218.4196    987.0762 299.9248712 +22.7329331     4334.762     72.24458      8.772    32.02     65.60494     20.38239     91.63126       364     7.356     4.580  89.45  19
        11    239.4881    985.0699 299.9320763 +22.7386797     6088.421        72.41     11.446    49.30     50.61193     20.38239     111.5238       711    10.840     6.710 -63.23  19
        12    257.6030    974.3896 299.9411844 +22.7410524     9011.284     72.04188     14.166    42.11     29.38018     20.38239      179.872      1142    13.919     6.099  71.47  19
        13    658.3182    984.8635 300.0625309 +22.8642420     9397.744      72.3549      2.009     4.62      3.98329     20.38239     520.1794        53     1.603     1.490  -3.94   3
        14    128.8053    985.2507 299.8976007 +22.7055165     600.0165     72.22617      3.346     5.28     68.17658     20.38239     44.98507         5     1.147     0.686  64.18   1
        15    185.1374    972.5897 299.9192329 +22.7187920      953.619     72.17094      2.405     8.75      59.2859     20.38239     42.59098        12     2.226     0.960 -12.75   3
        16    182.0453    968.4148 299.9196292 +22.7166671      799.701     72.26298      3.787    10.47     55.59832     20.38239     37.44758        17     1.936     1.579  84.34   2
        17    186.6186    976.0439 299.9185701 +22.7202269     1165.248     72.26298      4.446     9.99     61.48198     20.38239     50.07712        24     2.581     1.079  24.17   3
        18      2.3430    974.1743 299.8619002 +22.6643827     1504.786     61.66137     10.238    15.49    -15.82222     20.38239     62.21331        59     4.641     1.437 -86.69  27
        19    945.8447    970.8195 300.1567493 +22.9463856     830.3735     72.28137      2.041     7.89     3.646565     20.38239     44.10829        22     1.615     1.388 -39.77   0
        20    227.2818    969.8296 299.9332367 +22.7306469     535.3986     72.26298      2.309     3.68     47.52253     20.38239     36.31285         5     1.042     0.373   2.91   0
        21    163.7520    956.2607 299.9178938 +22.7076926     1622.395     72.29977      6.328    12.77     49.28576     20.38239     48.96177        40     2.708     1.677   3.22   2
        22    671.1483    954.2232 300.0764949 +22.8592936      6896.95     72.26298      1.943     4.38     4.181618     20.38239     402.6336        47     1.503     1.459  -6.27   0
        23    262.1699    948.1724 299.9511313 +22.7349039     665.7197     72.24458      2.280     6.01     16.19032     20.38239     45.71233        16     1.404     1.190   9.99   0
        24    186.1895    979.1880 299.9174140 +22.7209996     1391.557     72.13409      2.925     8.39     64.24855     20.38239      49.2291        20     1.880     1.046  11.14   3
        25    579.6904    944.8707 300.0510422 +22.8291897     1638.997        72.41      1.929     4.25     4.251463     20.38239     107.9036        28     1.382     1.260  43.50   0
        26    473.3119    941.3138 300.0190702 +22.7962701     1105.109     72.39164      1.905     4.43     4.404502     20.38239     87.39056        21     1.255     1.130  39.75   0
        27    404.0895    939.2795 299.9981827 +22.7749258     6616.886     72.37328      1.923     4.19      4.47345     20.38239     508.3973        43     1.474     1.407   9.27   0
        28    106.7984   1010.6990 299.8824824 +22.7062067     3773.854     72.13409     14.306    77.02     87.77339     20.38239     137.8731      1600    15.736    10.461  43.40  27
        29      6.7561   1008.3332 299.8521615 +22.6754976     2940.838     72.22617     14.790    51.24      -23.364     20.38239     72.80725       658    13.683     5.324 -89.37  26
        30    436.7402    926.0288 300.0126552 +22.7809167     524.4581     72.24458      1.723     5.82     4.497989     20.38239     49.34738        10     1.320     0.723  18.64   0
        31    950.4692    918.2483 300.1752905 +22.9326713     2203.663     72.24458      2.087     5.40     4.021848     20.38239     105.5291        32     1.466     1.446  82.87   0
        32    600.3150    914.9952 300.0671825 +22.8267986     482.3903     72.17094      1.705     4.30      4.09462     20.38239      37.9538         7     1.175     0.449  32.58   0
        33    448.3893    914.3160 300.0200904 +22.7810495     305.1903     72.20776      1.316     4.12     4.509921     20.38239     36.91042         6     1.068     0.454  -5.94   0
        34    632.6616    912.6382 300.0780265 +22.8358192     194.8739     72.26298      1.403     5.05     4.201787     20.38239     37.78909         7     1.020     0.871 -30.43   0
        35    739.7983    907.5375 300.1130736 +22.8664684     773.2964     72.22617      2.256     7.34      4.02362     20.38239     41.91705        18     1.767     0.854  65.57   0
        36     96.7200    943.1656 299.9013135 +22.6838216     5914.289     72.18935     27.790   115.40     24.05422     20.38239     1320.528      4613    21.314    17.337 -75.77  18
        37    774.0234    901.3117 300.1257674 +22.8749379     999.3943     72.17094      1.864     4.79     4.176486     20.38239     71.86125        23     1.297     1.201  11.12   0
        38    551.0646    901.6622 300.0561769 +22.8082060     279.0838     72.28137      1.483     4.94     4.301228     20.38239     41.50836         6     1.142     0.629  17.77   0
        39    192.4574    999.2880 299.9128255 +22.7286437     2462.774     72.31815      5.470    23.02     80.50618     20.38239     60.87852       118     4.534     3.246  50.93  19
        40    796.3754    895.0244 300.1347808 +22.8798308     11434.96     72.20776      1.849     4.22     4.279948     20.38239     709.2889        58     1.538     1.462  25.71   0
        41    231.3143    897.3621 299.9580558 +22.7110742      907.211     72.22617      5.586     6.56     8.673369     20.38239     35.28519         9     1.810     0.668 -41.55   1
        42    190.5129    993.1262 299.9142250 +22.7262935     1738.534     72.39164      5.383    16.21     75.46081     20.38239     54.93764        62     4.392     1.663 -41.67   3
        43    841.9623    895.6274 300.1487999 +22.8936642     499.8917     72.26298      1.891     6.17     4.257977     20.38239     41.76985        11     1.548     0.934  -3.73   0
        44    987.2336    895.0921 300.1942923 +22.9370327     469.9974     72.18935      2.039     7.61     4.072478     20.38239     41.29045        14     1.527     1.062 -54.57   0
        45    107.7772    886.7864 299.9230820 +22.6709749     1118.521     72.22617      6.826     8.21     8.669643     20.38239     48.38401        24     1.590     1.389 -39.82   0
        46    848.4620    882.4706 300.1551050 +22.8918331     409.5253     72.28137      1.676     3.78     4.336726     20.38239     32.26168         6     0.955     0.430  72.81   0
        47    500.7545    883.4572 300.0464283 +22.7878967     341.1073     72.28137      1.642     4.40     4.421402     20.38239     39.15387         6     1.121     0.492   4.32   0
        48    804.8310    876.9189 300.1433043 +22.8771651     1463.974     72.24458      1.897     5.16     4.441095     20.38239     83.04214        25     1.315     1.295  53.18   0
        49    374.5363    998.7809 299.9696325 +22.7831297     387.3304     72.22617      1.803     6.57     4.129746     20.38239      43.6311        11     1.504     0.916 -17.75   0
        50    987.4185    876.7368 300.2003186 +22.9318148     318.4702     72.20776      1.646     5.82     4.278185     20.38239     42.16455         7     1.123     0.851  28.34   0
        51    656.8409    874.5210 300.0979544 +22.8321247     490.7825     72.22617      1.701     3.77     4.390018     20.38239     63.58955        11     1.132     0.961  18.66   0
        52    842.8217    870.5746 300.1572139 +22.8867265     829.7794     72.20776      2.193     7.27     4.411875     20.38239      57.5385        17     1.295     1.141 -39.73   0
        53    567.4557    992.0057 300.0319005 +22.8390478     1585.567     72.22617      1.529     4.74     4.407443     20.38239     139.3594        18     1.364     0.922  79.38   3
        54    891.6042    863.0000 300.1748916 +22.8991663     451.7348     72.04188      1.450     5.34     4.407858     20.38239     42.67456         8     1.252     0.642  -1.46   2
        55    890.9958    860.6433 300.1754680 +22.8983071     337.6335     72.26298      1.287     3.49     4.412241     20.38239      33.6626         5     1.236     0.284  32.89   3
        56    742.7828    860.9851 300.1291403 +22.8539958     490.0735     72.20776      1.573     4.66     4.498156     20.38239     61.33181        14     1.158     0.938  41.99   0
        57    753.9202    857.8748 300.1336235 +22.8564402     596.5005      72.3549      1.657     6.22     4.512537     20.38239     43.16206        13     1.186     0.918 -81.18   0
        58    455.3623    856.9866 300.0409008 +22.7666895     4171.193     72.24458      1.722     3.68     4.589633     20.38239     351.6506        31     1.334     1.235  -9.11   0
        59    565.0000    992.0419 300.0311239 +22.8383217     1221.226     72.26298      1.534     4.20     4.407631     20.38239     104.4186        14     1.439     0.799  80.85   3
        60    498.8660    844.2983 300.0585710 +22.7760919     437.9428     72.33652      1.871     5.98      4.36129     20.38239     34.79406         8     1.660     0.606  61.25   0
        61    180.4804    842.7112 299.9600138 +22.6801491      884.318     72.37328      1.866     5.76     7.201602     20.38239      63.3807        19     1.447     1.014  -9.99   0
        62    157.7038    839.6240 299.9539351 +22.6724304      1588.21     72.15251      1.815     4.48     7.350588     20.38239     160.8396        25     1.430     1.212 -16.82   0
        63     88.9928    840.6800 299.9322312 +22.6521174     450.8606     72.17094      1.737     5.30     4.931382     20.38239     36.23847         9     1.097     0.722 -65.19   0
        64     33.7107    829.6398 299.9186384 +22.6323631     431.9401     72.24458      1.670     4.57      4.46683     20.38239     35.41866         7     0.876     0.677 -67.46   0
        65    983.8397    827.4879 300.2152134 +22.9165931     2159.966     72.22617      1.957     4.57     4.426842     20.38239     117.4587        34     1.543     1.289 -10.83   0
        66    689.3782    827.9703 300.1232276 +22.8285111     509.2831     72.24458      2.006     2.29     4.554457     20.38239     51.71652         5     0.736     0.535  -4.14   0
        67    767.0158    821.6218 300.1494914 +22.8499533     621.0354     72.22617      1.519     4.58     4.560175     20.38239     54.92864        10     1.148     0.685  17.53   0
        68    189.9859    821.7427 299.9697852 +22.6769864     439.4032     72.22617      1.799     6.60      6.07992     20.38239     47.69196         9     1.620     0.753 -27.78   0
        69    514.0114    819.2459 300.0714309 +22.7734418     353.4011     72.24458      1.839     4.84     4.251548     20.38239     27.68094         5     0.910     0.728  -3.81   0
        70    635.3296    815.1962 300.1105375 +22.8086448     4746.242     72.18935      1.628     3.39     4.412793     20.38239     408.8802        36     1.290     1.244  30.45   0
        71    437.6433    812.3340 300.0498995 +22.7485619     686.6384     72.22617      1.630     5.59     4.536532     20.38239     53.15289        14     1.416     0.746 -28.55   0
        72    185.3529    808.8795 299.9725253 +22.6719069     1497.287     72.26298      1.949     4.95     5.553694     20.38239     113.1321        26     1.429     1.284  64.89   0
        73    655.7229    807.9504 300.1192471 +22.8126763     708.9974     72.24458      1.514     3.50     4.523375     20.38239     73.49454        14     1.044     0.929 -49.78   0
        74    455.0520    806.7683 300.0571282 +22.7521841      318.649     72.26298      1.686     3.75     4.410401     20.38239     31.79465         5     0.830     0.486 -51.69   0
        75    205.7220    806.3410 299.9796847 +22.6772890     385.9298     72.28137      1.412     3.26     5.346437     20.38239     50.49253         6     0.969     0.524 -35.12   0
        76    811.4459    794.9780 300.1720048 +22.8556127     4320.647     72.28137      1.721     3.71      4.59024     20.38239     321.8556        36     1.338     1.284   6.31   0
        77    542.2419    792.0005 300.0890784 +22.7740836     349.0508     72.26298      1.670     4.94     4.212743     20.38239     32.60033         5     1.153     0.599 -12.27   0
        78    219.8310    788.7943 299.9897752 +22.6764875     598.9904     72.24458      1.665     5.88     5.131611     20.38239     53.77317        11     1.071     0.908 -16.22   0
        79    528.6683    787.4371 300.0863341 +22.7687047     660.8413     72.22617      1.739     3.50     4.215143     20.38239     55.47321        10     1.065     0.650  24.92   0
        80    174.7743    785.1782 299.9769386 +22.6619350     984.6317     72.22617      1.768     4.85     5.157261     20.38239     87.99322        18     1.272     1.091 -13.17   0
        81    589.9537    780.9983 300.1075157 +22.7852260     585.1028     72.24458      1.664     4.05     4.312168     20.38239     50.38361        10     0.953     0.872  -1.59   0
        82    324.4296    777.4338 300.0260062 +22.7045986     53543.43     72.26298      1.714     3.41     4.918639     20.38239     5171.247        89     1.482     1.416  15.06   0
        83    582.3231    776.5015 300.1066001 +22.7816479     1684.448     72.39164      1.582     3.42     4.297868     20.38239     171.1305        20     1.134     1.026  30.20   0
        84    995.2072    775.7545 300.2355768 +22.9051320     872.2362     72.26298      1.827     4.86     4.690804     20.38239     67.17152        16     1.232     1.082  -7.71   0
        85    252.9863    775.7912 300.0043134 +22.6827015      486.558     72.15251      1.479     3.39     5.061408     20.38239     56.12145        10     0.927     0.752  77.47   0
        86    611.3688    772.6931 300.1168864 +22.7892598     884.3264     72.17094      1.597     3.36     4.366088     20.38239     88.94541        15     1.050     0.929  29.23   0
        87     10.3212    772.2969 299.9300060 +22.6089019     927.5219      72.3549      2.295     4.75     4.148647     20.38239     68.96625        14     1.423     0.957 -23.64   0
        88    943.4015    768.0820 300.2219050 +22.8874124     295.3089     72.15251      1.328     3.91     4.766452     20.38239     34.48364         5     0.906     0.483  83.67   0
        89    727.7870    767.6987 300.1547889 +22.8227122     422.3134     72.15251      1.503     3.49     4.621449     20.38239     48.62639         8     0.899     0.639  -5.20   0
        90    765.2402    757.8956 300.1696502 +22.8311180     744.7657     72.24458      1.541     5.14      4.64791     20.38239     66.34585        14     1.181     0.916   5.47   0
        91    374.2126    754.7009 300.0488857 +22.7130027     31703.37     72.15251      1.626     3.10     4.788636     20.38239     3498.029        70     1.405     1.343   6.56   0
        92    388.3791    755.2959 300.0531014 +22.7174211     1946.726     72.15251      1.638     3.32     4.749343     20.38239     194.2354        28     1.379     1.116  -1.85   0
        93    897.3299    750.8040 300.2131471 +22.8686492     2801.968     72.18935      1.692     3.65     4.797344     20.38239      208.657        30     1.302     1.203  -6.50   0
        94    622.5204    771.0233 300.1209035 +22.7921225     617.8113     72.20776      1.561     4.41     4.418748     20.38239     53.26467        14     1.089     0.957  11.29   0
        95    385.1124    749.0745 300.0541063 +22.7146560     699.8953     72.39164      1.971     4.77     4.761512     20.38239      54.2427        15     1.279     1.050  23.11   0
        96    256.6096    746.3604 300.0150041 +22.6753440     765.5626     72.24458      1.579     3.81     4.952821     20.38239     81.93366        17     1.304     0.902  56.15   0
        97    655.2411    746.8329 300.1389600 +22.7949817     866.1628     72.29977      1.446     3.24     4.571911     20.38239     101.0345        16     1.041     0.993   4.89   0
        98    491.8067    746.8776 300.0880357 +22.7460116     439.0753     72.17094      1.499     3.41     4.234342     20.38239     56.54969         7     0.931     0.580 -14.60   0
        99    502.3830    741.6757 300.0930195 +22.7476885     890.0007     72.24458      1.449     3.04     4.236742     20.38239     122.3219        16     1.217     0.830 -51.44   0
       100     61.4682    741.9705 299.9557545 +22.6155508     564.0646     72.22617      2.007     7.32     4.623256     20.38239     44.33973        11     1.492     1.004  53.20   0
       101    903.3245    738.4961 300.2190168 +22.8669082     491.6366     72.39164      1.528     4.61     4.878107     20.38239     48.17556        12     1.016     0.964 -25.00   0
       102    405.1775    737.7902 300.0640184 +22.7174331     322.2129     72.24458      0.905     2.53     4.709147     20.38239     68.07761         5     0.884     0.379  86.64   0
       103    447.8022    736.5665 300.0776850 +22.7298604     364.8655     72.20776      1.620     6.17     4.463333     20.38239     48.47014         9     1.204     0.889 -69.14   0
       104    359.9370    737.3032 300.0500960 +22.7037293      495.588     72.33652      1.575     4.29     4.843287     20.38239     42.49298         7     0.877     0.598  22.47   0
       105    656.9021    735.7377 300.1430830 +22.7922931     366.2029     72.33652      1.569     4.26     4.592517     20.38239     32.90536         7     0.748     0.692  13.75   0
       106     90.3092    736.0596 299.9666394 +22.6225078     522.2087     72.31815      1.977     5.37     4.963408     20.38239     55.17398         8     1.174     0.694  14.67   0
       107    880.6975    733.8741 300.2134606 +22.8588032      334.951     72.37328      1.459     4.43     4.827297     20.38239     42.47404         6     0.956     0.585  23.35   0
       108    254.4980    731.0125 300.0193341 +22.6703069     547.8687     72.13409      1.493     3.50     4.925719     20.38239     62.22145         9     0.954     0.835 -70.40   0
       109    577.7701    721.1082 300.1231821 +22.7643784     433.6592     72.20776      1.568     4.09     4.491635     20.38239     38.24168         8     0.840     0.663  52.10   0
       110    547.0902    719.7366 300.1140714 +22.7547898     613.7545     72.33652      1.474     4.44     4.451661     20.38239     58.12843        12     1.041     0.835   3.20   0
       111    456.2000    718.9567 300.0860213 +22.7273227     316.9062     72.22617      1.413     5.11     4.542126     20.38239     34.22596         8     1.084     0.682  -0.57   0
       112    963.6638    716.0798 300.2451262 +22.8785368     4583.131      72.3549      1.742     3.55      5.13993     20.38239      349.166        41     1.395     1.352  14.36   0
       113    569.2159    716.9937 300.1218543 +22.7606333     1440.244     72.17094      1.517     3.25     4.522337     20.38239     140.7487        20     1.122     1.031  23.99   0
       114    488.6594    716.7137 300.0968567 +22.7364086     387.4488      72.3549      1.630     3.91     4.448719     20.38239     44.26891         8     1.117     0.773 -14.24   0
       115    650.6121    712.0344 300.1488248 +22.7836009     334.1705     72.22617      1.360     4.33     4.707365     20.38239     35.66092         6     0.965     0.553  17.31   0
       116    952.1198    707.5692 300.2442895 +22.8726341     1581.422     72.24458      1.690     3.64     5.126235     20.38239     141.5407        25     1.251     1.164  86.69   0
       117    315.2286    701.3725 300.0478575 +22.6800123     817.9032     72.20776      1.528     3.46      4.87333     20.38239      88.9549        15     1.183     0.852  35.75   0
       118    983.3714    697.8294 300.2572058 +22.8791928     1702.896     72.20776      1.755     4.62     5.305046     20.38239     136.3732        24     1.409     1.160  76.34   0
       119    778.6946    698.7039 300.1930785 +22.8181452     2652.889     72.42836      1.747     3.42     4.797416     20.38239       242.92        32     1.507     1.168   7.42   0
       120      1.6762    688.4822 299.9545504 +22.5822717     665.5394      58.2694      1.418     4.54      4.80276     20.38239     74.41789        11     1.151     0.744 -88.33  24
       121    860.7736    684.6901 300.2232269 +22.8387035     567.8021     72.20776      1.732     5.41     4.918988     20.38239     56.40306        13     1.343     0.806  48.30   0
       122    163.9050    684.7637 300.0061843 +22.6298680     629.8635     72.24458      1.611     4.49     5.035838     20.38239     71.87296        12     1.027     0.944  18.65   0
       123    897.0057    675.6999 300.2374491 +22.8469709     148629.3     72.15251      1.623     3.31     5.032612     20.38239     12950.56       157     1.501     1.465 -13.67   0
       124    659.1967    679.4935 300.1620719 +22.7768271     300.4855     72.15251      1.243     3.82     4.886853     20.38239     52.38035         6     0.844     0.497  -4.88   0
       125    749.4011    676.0642 300.1913011 +22.8028661     794.4672     72.24458      1.619     4.19     4.859209     20.38239     68.43559        13     1.082     0.836 -16.22   0
       126    502.0205    676.3947 300.1141161 +22.7288373     300.0354     72.22617      1.463     3.12     4.904241     20.38239      37.8575         5     0.753     0.601  86.52   0
       127    929.9527    668.8246 300.2499611 +22.8548612     455.5304     72.26298      1.599     5.66     5.110511     20.38239     42.89592        10     1.418     0.770  19.08   0
       128    583.2299    664.3695 300.1433161 +22.7497212      1582.49     72.22617      1.418     2.85     5.039719     20.38239     185.1607        21     1.082     1.055  55.04   0
       129    764.4871    661.8087 300.2006352 +22.8032896     9439.975     72.17094      1.522     3.04     4.870439     20.38239      979.658        42     1.252     1.220  48.08   0
       130    266.0046    656.7178 300.0470488 +22.6524375     4859.056     72.17094      1.557     3.02     4.918395     20.38239     568.5796        31     1.220     1.188 -83.92   0
       131    348.0421    654.8240 300.0731891 +22.6764898      1266.56     72.29977      1.497     3.20     4.875727     20.38239     142.6823        19     1.110     1.044  38.89   0
       132    224.1707    652.3381 300.0354586 +22.6386367     572.6902     72.26298      1.372     2.23     4.952605     20.38239     65.65025         6     0.694     0.602 -59.91   0
       133    556.4598    650.3749 300.1395230 +22.7376803     773.8186     72.24458      1.376     2.78     5.058877     20.38239     90.03406        12     0.963     0.782  27.40   0
       134    547.9287    642.5447 300.1394091 +22.7328752     3236.373     72.26298      1.396     2.62     5.068277     20.38239     392.4546        24     1.091     1.025  36.95   0
       135    538.2809    636.3036 300.1384313 +22.7281919     1519.434     72.37328      1.465     2.84      5.07201     20.38239     159.2263        21     1.129     0.989  -7.32   0
       136    932.1801    634.0756 300.2619439 +22.8455409     426.3292     72.24458      1.808     5.90     4.974176     20.38239     38.25215         9     1.322     0.742  26.82   0
       137    448.8210    633.6423 300.1114381 +22.7006176     301.3312     72.28137      1.275     4.04     5.000032     20.38239      34.8936         6     0.750     0.639 -71.25   0
       138    201.5330    632.3779 300.0349008 +22.6261207     622.8139     72.24458      1.494     3.36     4.990973     20.38239     75.82042        11     1.007     0.867 -33.92   0
       139    215.7362    630.7326 300.0398524 +22.6299074     720.5123     72.29977      1.686     4.36      4.97466     20.38239     66.04327        15     1.175     0.931 -56.65   0
       140    984.2663    627.6194 300.2802934 +22.8592798     452.5827     72.20776      1.542     3.96     5.416228     20.38239     48.92702         6     0.896     0.596  69.57   0
       141    272.6648    627.9039 300.0584792 +22.6461647     389.2412      72.3549      1.821     3.99     4.934381     20.38239      48.3711         5     1.011     0.451 -30.27   0
       142    241.5177    627.7454 300.0488416 +22.6367806     588.3917     72.29977      1.496     3.86     4.954634     20.38239     50.99748        12     1.057     0.784 -42.54   0
       143    562.2307    626.6821 300.1490160 +22.7326053     504.6087     72.24458      1.610     3.71     5.091377     20.38239     55.04804        10     0.985     0.863  27.35   0
       144    463.0447    626.0638 300.1183280 +22.7027045     1772.939     72.26298      1.389     2.68     5.040455     20.38239     193.0976        21     1.032     0.986 -11.95   0
       145    116.8951    620.7570 300.0123574 +22.5974047     19738.67     72.26298      1.688     3.36     5.050695     20.38239     2124.503        64     1.454     1.385  29.04   0
       146    547.8072    621.2078 300.1463014 +22.7267112     1157.413     72.09721      1.608     3.49     5.098696     20.38239     107.4244        16     1.068     0.949 -17.41   0
       147    583.2075    620.3011 300.1576229 +22.7370580     298.8157     72.13409      1.325     3.17     5.102891     20.38239     50.59998         7     0.853     0.575 -53.72   0
       148    465.4927    618.3443 300.1215973 +22.7012216     351.8577     72.29977      1.445     3.42     5.069327     20.38239     32.95866         5     1.086     0.311  20.19   0
       149    919.3626    616.9652 300.2635025 +22.8367851     309.1154     72.31815      1.518     5.57     4.873868     20.38239     31.40586         6     1.183     0.740 -21.21   0
       150    301.5656    612.9888 300.0723145 +22.6505482     249.4566     72.22617      1.275     3.78     4.926483     20.38239     45.72446         6     0.974     0.421 -72.64   0
       151    630.6232    608.7698 300.1761405 +22.7479519     362.3069     72.24458      1.757     3.83     5.041597     20.38239     40.33544         6     0.917     0.878 -17.31   0
       152    965.9815    607.5946 300.2810916 +22.8480493     1019.193     72.18935      1.585     3.88     5.213527     20.38239     98.04258        19     1.166     1.118  50.08   0
       153     62.9380    605.0873 300.0006735 +22.5767265     1613.892     72.33652      2.122     4.89     5.049231     20.38239     105.3413        26     1.372     1.290  69.78   0
       154    832.7115    605.8535 300.2400833 +22.8076448      435.122     72.26298      1.289     3.11      4.86459     20.38239      63.5316        11     0.967     0.783  59.69   0
       155     37.8283    622.6790 299.9871569 +22.5742419     696.2418     72.26298      1.611     4.07     5.055435     20.38239     72.61481        12     1.050     0.829 -35.53   0
       156    511.5151    601.8490 300.1412853 +22.7102766     402.3266     72.22617      1.425     4.01      5.16137     20.38239     47.96814         9     1.017     0.707 -69.64   0
       157    906.4120    600.5709 300.2647869 +22.8281954     874.9161     72.24458      2.162     6.54     4.847027     20.38239     63.13145        14     1.568     0.766  29.40   2
       158    776.1360    600.5806 300.2241542 +22.7891863     235.3401     72.22617      1.354     5.06     4.863736     20.38239     34.86708         5     0.992     0.731 -75.98   0
       159    304.1885    601.1866 300.0769633 +22.6479467     325.2316     72.15251      1.292     2.59     4.928611     20.38239     51.58516         7     0.837     0.563 -64.70   0
       160    650.6026    599.4410 300.1853957 +22.7512575     347.5784     72.26298      1.772     4.35     5.035311     20.38239     39.17138         6     1.107     0.487   5.61   0
       161    467.9922    594.0720 300.1302581 +22.6950009     846.1367     72.22617      1.443     2.82     5.154539     20.38239     98.63867        13     0.955     0.864  46.37   0
       162    616.0532    592.6769 300.1768270 +22.7389642     375.7545     72.28137      1.150     2.88     5.223812     20.38239     58.46008         7     0.815     0.669  64.06   0
       163    663.4579    591.4600 300.1919935 +22.7528157     551.9934     72.31815      1.610     5.61     5.036194     20.38239     53.21142        10     1.273     0.697  25.78   0
       164    633.6172    590.9196 300.1828703 +22.7437212     603.4114     72.24458      1.445     3.09     5.161826     20.38239     76.52894        12     0.964     0.833   9.74   0
       165    512.4789    590.0413 300.1454199 +22.7071744     1059.387     72.22617      1.503     4.06     5.235377     20.38239     105.1163        17     1.269     0.914  21.77   0
       166    946.0435    585.7675 300.2819591 +22.8358057     3441.609     72.28137      1.566     3.09     4.957922     20.38239     345.7916        31     1.253     1.197  72.53   0
       167    477.7335    585.3959 300.1361086 +22.6954286     1743.838     72.22617      1.443     2.99     5.211627     20.38239     195.5335        19     1.117     0.935  65.15   0
       168    842.9263    583.2216 300.2506188 +22.8041994     351.5899     72.24458      1.425     3.07       4.8402     20.38239     49.59014         6     0.790     0.652 -10.37   0
       169     39.6928    579.0545 300.0019020 +22.5622859     5081.806     72.29977      1.760     3.61     5.008902     20.38239     487.8872        44     1.503     1.344  17.48   0
       170    985.3691    575.8863 300.2974392 +22.8447378     329.2502     72.22617      1.436     5.53     5.157085     20.38239     37.54589         7     0.987     0.874  73.70   0
       171    698.8052    589.6488 300.2035979 +22.7628836     255.2781     72.22617      1.313     2.39     4.950834     20.38239     36.94321         5     0.721     0.440  18.92   0
       172    341.1952    572.1773 300.0978984 +22.6507121     9219.043     72.20776      1.467     2.81     4.913703     20.38239     983.8638        40     1.247     1.155  26.65   0
       173    463.6227    569.2938 300.1369435 +22.6865760     8989.881     72.15251      1.386     2.57     5.225823     20.38239      1090.08        35     1.155     1.102  31.82   0
       174    710.1843    565.9130 300.2148523 +22.7594722     215.8397     72.18935      1.113     2.59      4.98491     20.38239     41.90017         6     0.720     0.570 -39.52   0
       175    229.2644    566.5662 300.0648967 +22.6155476     251.1575     72.24458      1.307     3.37     5.045673     20.38239     32.08178         5     0.764     0.431 -22.77   0
       176    107.3234    564.7263 300.0275756 +22.5784570      398.448     72.33653      1.516     5.99     5.001081     20.38239     39.12031         8     1.399     0.722  45.55   0
       177    875.2896    563.3928 300.2671519 +22.8081907     1895.503     72.15251      1.555     3.06     4.844588     20.38239      198.221        21     1.169     1.026  67.07   0
       178    960.0103    560.8159 300.2944197 +22.8328139     12506.45     72.17094      1.569     3.22     4.949422     20.38239     1104.634        52     1.349     1.286 -26.59   0
       179    524.2147    558.8847 300.1591918 +22.7017425     11641.92     72.20776      1.394     2.58     5.465456     20.38239     1394.895        37     1.157     1.130  74.41   0
       180    693.6368    554.9269 300.2132619 +22.7513593     478.6252     72.18935      1.334     3.07      5.09178     20.38239     72.74751        11     0.933     0.847  49.56   0
       181    251.7539    554.2375 300.0758951 +22.6187510      1362.86     72.28137      1.464     3.12     5.018116     20.38239     137.9828        20     1.080     1.043  75.33   0
       182    498.4301    551.9982 300.1533978 +22.6920388     449.8218     72.20776      1.238     3.33     5.417812     20.38239     67.99368         8     0.972     0.656  31.86   0
       183    798.7722    547.1389 300.2485662 +22.7806075     859.6606     72.24458      1.454     3.95     4.733833     20.38239     86.32095        15     1.066     1.034  24.54   0
       184    455.8954    547.0496 300.1417600 +22.6778724     4485.712     72.29976      1.413     2.96     5.258956     20.38239     514.3754        31     1.185     1.076  16.77   0
       185    534.1770    546.5860 300.1662878 +22.7011949     1369.499     72.22617      0.703     1.02       5.5895     20.38239     590.3009         6     0.534     0.438 -68.38   0
       186    434.2310    545.5118 300.1355144 +22.6709387      1278.81     72.22617      1.372     2.77     5.158223     20.38239     177.7646        18     1.080     0.986  56.66   0
       187    188.4498    544.9073 300.0592348 +22.5970945     627.7222     72.28137      1.501     4.17     5.092407     20.38239     92.51791        12     1.083     0.951  71.24   0
       188    875.6450    542.6432 300.2740002 +22.8023328     1608.726     72.28137      1.610     3.54     4.837086     20.38239     158.0585        21     1.230     1.039 -30.39   0
       189    396.2698    540.0947 300.1254560 +22.6580071     371.4708      72.3549      1.487     4.70     5.054313     20.38239     50.26126         8     1.284     0.623  83.69   0
       190    756.1917    539.7371 300.2376933 +22.7657292     811.6255     72.18935      1.347     2.87     4.847888     20.38239     113.2525        14     1.013     0.858  41.20   0
       191    572.5125    534.6401 300.1821071 +22.7092485     207028.1     72.22617      1.424     2.46     5.661656     20.38239     28918.26       184     1.445     1.358 -12.31   0
       192    258.6019    534.4946 300.0844350 +22.6151365     3530.396     72.15251      1.507     2.78     5.029415     20.38239      446.221        27     1.173     1.084  25.89   0
       193    341.3688    534.3933 300.1102199 +22.6399161     206.3629     72.24458      1.228     4.41       4.9939     20.38239     29.58455         5     1.028     0.539 -44.61   0
       194    824.4382    530.9612 300.2618223 +22.7836432     585.1786     72.31815      1.892     3.28     4.768534     20.38239     55.83469         9     0.993     0.767   2.94   0
       195    843.3876    529.3330 300.2682607 +22.7888489     395.6341     72.22617      1.819     5.00     4.800552     20.38239     40.96994         8     1.086     0.653 -33.89   0
       196    603.9517    521.4796 300.1961741 +22.7148859     160.5477     72.26298      1.229     3.68     5.673945     20.38239     36.90012         6     0.797     0.490  -8.84   0
       197    463.0686    515.2590 300.1543143 +22.6708917     2846.548     72.26298      1.501     2.95     5.353439     20.38239     320.4953        32     1.500     1.100 -89.49   0
       198    307.4870    517.5671 300.1051392 +22.6249299      377.818     72.20776      1.532     3.02     5.049071     20.38239     62.24148         6     0.807     0.596  52.56   0
       199    912.8089    515.8147 300.2943039 +22.8057465     244.2106     72.15251      1.375     3.36     4.837086     20.38239     34.02277         5     0.820     0.645  38.48   0
       200    874.9470    511.4047 300.2839246 +22.7931440     379.5742     72.22617      1.471     4.36     4.837086     20.38239     41.98546         8     1.113     0.487  -3.51   0
       201    780.5774    504.0036 300.2568973 +22.7627619     455.2779     72.20776      1.374     2.76      4.85785     20.38239      60.2282         9     0.908     0.627  18.47   0
       202    860.0747    501.2964 300.2825673 +22.7857858     1695.792     72.39164      1.369     2.86      4.82958     20.38239     188.1996        20     1.100     0.959  42.00   0
       203    746.5802    501.6924 300.2470482 +22.7519175     316.5294     72.17094      1.325     3.32     5.068679     20.38239     41.43735         5     1.072     0.298  20.04   0
       204    731.3759    498.7850 300.2432522 +22.7465289      2657.33     72.26298      1.413     2.61     5.164878     20.38239     309.9295        23     1.052     1.047 -26.91   0
       205    636.1344    495.2356 300.2147211 +22.7169854     455.3938     72.24458      1.367     4.57     5.546299     20.38239     58.11473         8     0.839     0.766  64.64   0
       206    518.6434    494.8440 300.1782474 +22.6816785     819.6669     72.31815      1.323     2.48     5.592619     20.38239     108.2599        13     0.910     0.842 -39.34   0
       207    988.6602    492.9064 300.3254085 +22.8218642     1221.413     72.33652      1.491     3.23     4.920717     20.38239     129.4411        20     1.159     1.017  61.49   0
       208    974.2011    492.1189 300.3211519 +22.8173101     914.3484     72.13409      2.341     3.65     4.899809     20.38239     65.46288        14     1.088     0.916  37.51   0
       209    860.3978    491.2369 300.2859336 +22.7829907     2273.287     72.26298      1.708     3.53     4.829865     20.38239     236.4126        29     1.615     1.029  73.82   0
       210    399.7803    489.5912 300.1429434 +22.6445561     189.2649     72.20776      1.178     3.66     5.334649     20.38239     35.62926         5     0.959     0.401 -83.16   0
       211    613.8943    489.2165 300.2097452 +22.7085946     618.6533     72.17094      1.360     3.13     5.675995     20.38239     75.54902         9     0.885     0.767  -1.81   0
       212    452.2263    488.2617 300.1597021 +22.6598890     487.1248     72.24458      1.672     4.37     5.390745     20.38239     51.20504         8     0.924     0.814  19.35   0
       213    898.6064    486.4547 300.2994045 +22.7930540     4292.521     72.22617      1.472     2.57     4.837086     20.38239     507.5037        32     1.226     1.106  30.43   0
       214    636.5609    483.3079 300.2187257 +22.7136859     266.7492     72.24458      1.510     3.88     5.555634     20.38239     38.44639         5     0.976     0.442 -74.98   0
       215    559.2786    482.2428 300.1949943 +22.6902315     374.8906     72.22617      1.346     3.39     5.723284     20.38239     52.58061         9     0.883     0.731  -8.49   0
       216    990.4167    477.0522 300.3311032 +22.8178309      749.785     72.24458      1.552     3.36     4.921955     20.38239        94.26        16     1.104     0.962 -67.91   0
       217    130.6700    476.3482 300.0635228 +22.5600937     1028.582     72.22617      1.832     3.36      5.05842     20.38239     104.4897        16     1.138     0.946 -66.73   0
       218    930.2142    474.4222 300.3131712 +22.7990558     359.3352     72.22617      1.908     4.55     4.832764     20.38239     28.64352         5     0.817     0.720 -68.25   0
       219    123.1719    466.5499 300.0643716 +22.5550334     436.2874     72.26298      1.413     3.92     5.095323     20.38239     55.31204        10     0.940     0.893  34.87   0
       220    730.8366    460.6881 300.2554502 +22.7354184     432.3389     72.22617      1.346     3.82      5.29546     20.38239      63.1188        10     1.001     0.924 -37.86   0
       221    619.8893    458.5741 300.2215591 +22.7015857     364.7769     72.18935      1.326     3.01     5.633898     20.38239     43.64223         5     0.740     0.438  22.64   0
       222    671.9794    456.7006 300.2383992 +22.7166475     792.5546     72.17094      1.324     2.85     5.366218     20.38239     104.1235        15     1.013     0.895  20.11   0
       223    986.5123    449.5669 300.3388060 +22.8087584     604.4341     72.22617      1.422     3.13     4.915518     20.38239     72.64392        10     0.988     0.662  16.09   0
       224    732.7775    449.0579 300.2598300 +22.7326568      875.259     72.24458      1.391     2.42     5.311148     20.38239      125.126        13     0.992     0.806 -14.22   0
       225    890.1027    445.2340 300.3101313 +22.7786571     1174.539     72.22617      1.550     3.19     4.807222     20.38239     112.2431        16     1.084     0.924 -38.79   0
       226    874.2723    441.4780 300.3064123 +22.7728387     804.5895      72.3549      1.433     3.10     4.803904     20.38239     104.4247        16     1.086     0.954  79.05   0
       227    855.1578    441.9470 300.3002980 +22.7672518      242.495     72.24458      1.218     3.81     4.811511     20.38239     34.04841         5     0.841     0.496 -33.08   0
       228    618.5928    439.5539 300.2273281 +22.6957319     3388.341     72.26298      1.403     2.45      5.62385     20.38239     456.8852        29     1.118     1.098  25.68   0
       229     94.2166    431.0586 300.0668874 +22.5361656     302.8932     72.20776      1.282     4.38     5.313814     20.38239     45.38352         6     0.965     0.565 -27.98   0
       230    979.0746    438.5302 300.3400670 +22.8033585     581.7631     72.31815      1.574     3.76     4.899157     20.38239     68.00016        12     1.016     0.947 -33.68   0
       231    390.2387    427.3355 300.1601783 +22.6238170     323.2579     72.22617      1.489     3.42     5.278693     20.38239     34.32327         5     0.759     0.446  14.57   0
       232    458.6925    426.5927 300.1817301 +22.6441124     338.0835     72.15251      1.268     2.99     5.376203     20.38239     41.69509         5     0.733     0.437  22.43   0
       233    901.8723    418.8386 300.3223693 +22.7745904     561.2217     72.20776      1.406     2.90     4.785653     20.38239     70.81004        10     0.991     0.634  -3.31   0
       234    988.2083    417.6245 300.3497020 +22.8000796      925.174     72.24458      1.364     2.75      4.91524     20.38239     111.8859        14     0.927     0.907  55.30   0
       235    638.5438    415.2395 300.2414352 +22.6947195     311.7209     72.24458      1.447     3.43     5.511375     20.38239     46.53123        10     1.045     0.687  -8.47   0
       236    729.2914    413.5907 300.2702534 +22.7214186     1173.678     72.17094      1.374     2.51     5.361435     20.38239     166.9688        15     0.978     0.909 -15.99   0
       237    525.0220    414.2378 300.2063948 +22.6604323     462.9938     72.26298      1.192     2.46      5.63084     20.38239     63.21661         7     0.715     0.651  -2.94   0
       238    233.3713    411.5934 300.1164752 +22.5722892      696.635     72.24458      1.418     3.21     5.325859     20.38239     81.77728        14     1.093     0.877 -18.48   0
       239    295.5502    407.2878 300.1372161 +22.5896868     3750.441     72.24458      1.398     2.59      5.32099     20.38239     478.7141        28     1.150     1.093   9.02   0
       240    242.7514    402.0139 300.1225013 +22.5723497     7731.087     72.28137      1.499     3.06     5.329649     20.38239     855.9074        39     1.269     1.184  48.25   0
       241    747.0255    402.9778 300.2792257 +22.7236775     183.3305     72.20776      1.001     2.58     5.304288     20.38239     39.92105         5     0.637     0.566   0.38   0
       242    621.1087    401.9687 300.2403088 +22.6856846     282.9238     72.18935      1.200     3.25     5.555354     20.38239     39.91628         5     0.632     0.596   4.32   0
       243   1008.7858    397.1153 300.3627796 +22.8003384     1839.041     72.18935      1.570     3.04     5.006455     20.38239     182.5379        25     1.203     1.142 -74.51   0
       244    383.5332    396.3840 300.1681344 +22.6129179     4719.234     72.22617      1.341     2.48     5.262185     20.38239     621.8236        32     1.137     1.078  42.17   0
       245    627.7958    393.1362 300.2452584 +22.6851487      18614.2     72.22617      1.330     2.54     5.507889     20.38239     2278.367        49     1.192     1.115  75.31   0
       246    475.1231    394.6755 300.1972029 +22.6398653     326.9992     72.33652      1.980     5.36     5.403341     20.38239     32.56281         6     1.200     0.676  35.20   0
       247    645.4594    393.1318 300.2507638 +22.6904369     810.2025     72.26298      1.800     6.35     5.452435     20.38239     72.92751        18     1.611     0.818 -30.25   0
       248    871.3145    389.8182 300.3222541 +22.7570996     281.3398     72.18935      1.379     4.16     4.793253     20.38239     27.95587         6     0.760     0.649   9.63   0
       249      3.2126    390.5696 300.0517401 +22.4972607     190.6932     65.75146      1.040     2.25     5.413113     20.38239     42.35776         5     0.703     0.440 -24.37  16
       250    824.7790    383.6495 300.3097416 +22.7413970    -104.1067     72.24458     -6.115     3.50     4.915597     20.38239     49.25138         8     0.926     0.601  12.12   0
       251    247.7273    380.1964 300.1311278 +22.5675759     366.1312     72.18935      1.406     4.90     5.337988     20.38239     44.98341         9     0.932     0.731 -10.19   0
       252    961.2698    375.9037 300.3548337 +22.7800192     840.1397     72.37328      1.730     4.03     4.891706     20.38239      73.1905        18     1.248     1.034 -77.11   0
       253    498.7233    375.1661 300.2108820 +22.6413291     406.4742     72.24458      1.224     4.44     5.478485     20.38239     62.87724         8     1.354     0.549 -31.70   0
       254    182.3768    373.0894 300.1131073 +22.5459502     2005.447     72.17094      1.516     2.85     5.378143     20.38239     230.1218        23     1.221     1.074  84.13   0
       255    982.1194    363.1907 300.3654648 +22.7826015     1221.334     72.18935      1.392     2.91     4.981593     20.38239     140.0871        18     1.084     0.957   6.37   0
       256    568.4447    362.5690 300.2366848 +22.6585908     6625.632     72.29977      1.323     2.27     5.577132     20.38239      918.613        33     1.148     1.049  62.74   0
       257    283.2535    361.8255 300.1481400 +22.5729460     681.4484     72.26298      1.298     2.75     5.344811     20.38239     100.3318        11     0.901     0.802 -59.36   0
       258    828.4782    354.8098 300.3202522 +22.7342119     411.9428     72.20776      1.218     1.59     4.949387     20.38239     72.86375         5     0.633     0.480  70.37   0
       259    141.1143    354.9684 300.1061549 +22.5283804     379.6573     72.24458      1.249     1.93     5.416832     20.38239     82.46356         8     0.748     0.612  55.11   0
       260    682.3696    352.7221 300.2753775 +22.6898737     460.7314     72.22617      1.312     2.67     5.368598     20.38239     77.86221        10     0.886     0.769 -51.81   0
       261    772.7968    351.7432 300.3038840 +22.7166634     1161.161     72.20776      1.354     2.64     5.215446     20.38239     162.1781        15     0.962     0.894  31.64   0
       262    475.1052    348.8013 300.2120805 +22.6266798     6252.959     72.15251      1.347     2.51     5.377246     20.38239     840.3625        34     1.155     1.078  61.78   0
       263    964.5414    343.6810 300.3663090 +22.7717301     669.1094     72.29977      1.353     3.21     4.929735     20.38239     88.33247        10     0.957     0.742 -53.17   0
       264    867.1475    343.3486 300.3360312 +22.7424896      1350.79     72.28137      1.372     2.67     4.858855     20.38239     173.3703        17     1.024     0.928  74.78   0
       265    459.5358    337.7789 300.2108082 +22.6188494     513.1703     72.20776      1.465     3.12     5.330856     20.38239     74.78824        12     0.979     0.904  80.46   0
       266    542.2867    335.5059 300.2373162 +22.6429799      479.699     72.42836      1.507     4.04     5.552345     20.38239      54.6928         7     0.976     0.481  -9.35   0
       267    820.2491    334.2319 300.3243617 +22.7258318     279.7846     72.28137      1.470     3.71     5.052659     20.38239      36.0764         5     0.982     0.404  44.68   0
       268    522.8618    333.1341 300.2320353 +22.6364810     203.8885     72.28137      1.100     4.36     5.484149     20.38239     47.93809         6     1.227     0.441  37.21   0
       269    840.2278    331.0086 300.3316381 +22.7308845     542.1926     72.24458      1.410     5.54     5.001842     20.38239      55.6217        11     1.110     0.780 -32.80   0
       270    362.6016    327.8841 300.1838420 +22.5869703     2515.364     72.15251      1.407     2.75     5.252796     20.38239     351.9776        25     1.156     1.039  89.86   0
       271     81.1172    325.2792 300.0971324 +22.5018737     1034.917     72.37328      1.696     3.72     5.423839     20.38239     105.9587        20     1.267     1.025  43.70   0
       272    710.6420    322.6657 300.2939400 +22.6896975     254.8603     72.22617      1.525     6.73     5.412618     20.38239     26.83184         8     1.296     0.981   4.66   0
       273    309.8733    321.9670 300.1693522 +22.5694739     225.9017     72.24458      1.391     4.82     5.312335     20.38239     33.70014         6     0.884     0.786 -18.79   0
       274    331.9474    317.3899 300.1777058 +22.5747723     30311.24     72.24458      1.426     2.60     5.278222     20.38239     3779.175        67     1.303     1.222  60.08   0
       275    866.5316    315.1770 300.3449779 +22.7342037     1365.244     72.26298      1.389     2.77     5.002772     20.38239     157.2611        20     1.102     1.000  83.48   0
       276     28.2580    305.0568 300.0872616 +22.4802238     4991.701     72.31815      1.721     3.29     5.412438     20.38239     490.1101        43     1.462     1.308  37.30   0
       277    782.1639    304.2079 300.3222247 +22.7057994     522.2714     72.24458      1.298     2.58     5.269536     20.38239     89.88029         9     0.868     0.691   0.97   0
       278    206.3440    303.6021 300.1431012 +22.5331791     427.8864     72.18935      1.335     2.88     5.413714     20.38239     69.99363         7     0.829     0.645  62.40   0
       279    430.3410    302.7913 300.2130671 +22.6000522     538.3383     72.20776      1.490     2.41     5.250843     20.38239     70.21061         8     0.799     0.652 -86.76   0
       280    742.4487    297.3119 300.3120790 +22.6919292      1778.71     72.24458      1.287     2.39     5.416112     20.38239     246.2416        19     1.066     0.912 -88.92   0
       281    551.0430    292.2826 300.2540635 +22.6331800     396.3812     72.20776      1.089     1.84     5.406868     20.38239     77.22359         5     0.716     0.396  21.12   0
       282    957.4288    290.1666 300.3814487 +22.7542086      580.229     72.26298      1.221     3.18     4.909599     20.38239     80.76913        11     0.917     0.831  33.57   0
       283    404.2559    281.7599 300.2117674 +22.5861964     2163.703     72.22617      1.537     3.35     5.248535     20.38239      235.629        26     1.317     0.978  64.41   0
       284    835.7430    275.5633 300.3482236 +22.7135972     287.6411     72.24458      1.401     4.27     5.236992     20.38239     36.27757         7     0.846     0.692 -77.06   0
       285    843.4444    274.7805 300.3508794 +22.7156768      515.333     72.26298      1.420     4.43     5.232028     20.38239     67.18322        12     1.266     0.767   7.14   0
       286    725.5417    272.6897 300.3147941 +22.6797890     392.4981     72.33652      1.105     2.81     5.438219     20.38239     63.58096         7     0.882     0.514 -28.53   0
       287    693.6741    271.8104 300.3051458 +22.6699972     305.7704     72.24458      1.113     2.51     5.447666     20.38239     53.21661         6     0.707     0.611 -32.76   0
       288    480.0038    261.0786 300.2420582 +22.6029394     1111.792     72.15251      1.337     2.84     5.320516     20.38239      144.578        15     1.010     0.883  78.54   0
       289    287.3307    261.2205 300.1820391 +22.5452709     242.7656     72.22617      1.184     3.42     5.373867     20.38239     32.72847         5     0.767     0.441  74.80   0
       290     51.8293    261.4567 300.1087266 +22.4747718     273.3899     72.24458      1.722     4.51     5.570638     20.38239     33.19384         5     1.184     0.488   5.40   0
       291    863.6442    254.8532 300.3636424 +22.7159899     251.2294     72.26298      1.331     2.95     5.289784     20.38239     50.25087         5     1.111     0.299 -10.17   0
       292    725.0199    253.0992 300.3209846 +22.6739998     2204.741     72.17094      1.335     2.82     5.442692     20.38239     286.7807        24     1.072     1.037 -74.76   0
       293    986.2940    247.5325 300.4042836 +22.7505788     3097.714     72.39164      1.528     2.74        5.326     20.38239     405.8037        30     1.209     1.175 -65.48   0
       294    433.4642    236.8276 300.2354311 +22.5820331     665.2704     72.24458      1.296     2.78     5.363149     20.38239     94.43283        11     0.873     0.812  69.36   0
       295    138.7635    231.3486 300.1455149 +22.4921786     619.8309     72.26298      1.616     3.01     5.448379     20.38239     70.13641        10     0.881     0.787  13.79   0
       296    108.2268    231.0614 300.1361137 +22.4829457      1303.52     72.24458      1.631     3.74      5.44791     20.38239     125.1102        21     1.278     1.043 -31.46   0
       297   1001.6936    228.3758 300.4153018 +22.7496736     261.7806     72.17094      0.924     3.94     5.483221     20.38239     50.59338         8     1.108     0.551  66.95   0
       298    846.1744    225.0476 300.3678586 +22.7021895     257.1356     72.24458      1.266     4.48     5.414411     20.38239     36.61715         7     1.096     0.522  29.01   0
       299    192.0379    222.9161 300.1648159 +22.5057192     475.3138     72.22617      1.391     3.35      5.44433     20.38239     67.18668        10     1.042     0.740 -25.18   0
       300     47.5595    220.3319 300.1207335 +22.4616841     310.4439     72.22617      1.225     3.75     5.813805     20.38239     52.78746         8     1.149     0.650 -31.77   0
       301    796.4589    214.7036 300.3557081 +22.6843380     620.7462     72.31815      1.238     2.68     5.426937     20.38239     89.90385        12     1.009     0.723  60.67   0
       302    387.3027    214.1250 300.2284216 +22.5616847     510.1768     72.39164      1.337     3.26      5.37559     20.38239     62.06757         7     0.836     0.662 -23.94   0
       303    894.7599    203.5522 300.3899836 +22.7105426     2210.037     72.28137      1.497     2.78     5.474466     20.38239     265.1461        25     1.297     1.041  69.34   0
       304    313.2209    200.7742 300.2096937 +22.5356607     2150.819     72.22617      1.427     2.64     5.405316     20.38239     274.0062        22     1.087     1.077  79.84   0
       305    143.1910    196.4357 300.1582105 +22.4834783     450.8573     72.24458      1.495     4.33     5.541741     20.38239      51.5265         9     1.099     0.606 -31.17   0
       306    391.4825    195.9471 300.2356160 +22.5577129     1174.187     72.28137      1.565     3.04      5.39276     20.38239     121.7846        18     1.176     0.925  -2.29   0
       307    792.8835    195.3487 300.3608685 +22.6777013     525.3098     72.26298      1.184     2.74     5.448023     20.38239     88.68799        10     0.987     0.626 -16.66   0
       308    900.0126    192.7908 300.3951113 +22.7090182     184.6644     72.13409      1.203     4.11      5.49033     20.38239      35.4922         6     1.187     0.407   0.12   0
       309    207.8830    188.1929 300.1810012 +22.5004922     740.2898     72.17094      1.386     3.44     5.447813     20.38239      79.4753        13     1.073     0.819  -7.40   0
       310    326.3346    187.7896 300.2179840 +22.5358576     259.3814     72.20776      1.198     4.66     5.406697     20.38239     38.07925         7     1.043     0.590  37.65   0
       311    745.7960    185.0107 300.3495385 +22.6606374     1859.596     72.07877      1.449     2.84     5.439181     20.38239     213.1477        21     1.151     0.919  66.80   0
       312    810.7840    185.0214 300.3697987 +22.6800870     500.8569     72.20776      1.373     2.41     5.465031     20.38239     72.31264         7     0.712     0.632  18.90   0
       313    229.5428    181.6077 300.1898731 +22.5050891     495.3088     72.22617      1.292     3.74     5.439666     20.38239     67.33824         7     0.967     0.478   6.69   0
       314   1017.2592    177.7056 300.4365888 +22.7397487     850.6704     72.31815      1.538     3.08     5.496513     20.38239     93.92979        16     1.074     0.943  32.10  16
       315    750.0460    176.7764 300.3535329 +22.6595409     857.3182     72.26298      1.387     2.45      5.44273     20.38239     115.5371        11     0.910     0.730  28.21   0
       316    670.4877    175.7441 300.3290680 +22.6354347     1138.389     72.29977      1.280     2.57     5.463096     20.38239     172.6661        18     1.076     0.950  73.73   0
       317    519.3534    177.4228 300.2814365 +22.5906770     331.6434     72.26298      1.359     3.97     5.385088     20.38239     53.29173         6     0.893     0.505 -36.65   0
       318    491.5757    171.9254 300.2745675 +22.5807803     313.9749     72.28137      1.408     3.85     5.383653     20.38239     52.16383         7     1.036     0.573 -14.53   0
       319    865.9459    167.2292 300.3927711 +22.6914728     1494.759     72.24458      1.443     2.83     5.514697     20.38239     178.5992        23     1.187     1.034  89.00   0
       320    596.6909    167.4939 300.3087465 +22.6109742      901.933        72.41      1.304     2.23     5.383277     20.38239     145.8089        15     0.967     0.887  65.33   0
       321    877.9211    166.2981 300.3968084 +22.6947874     735.9426     72.37328      1.479     3.13     5.517512     20.38239     104.8926        13     1.128     0.736 -79.98   0
       322    994.7479    156.7026 300.4363715 +22.7269718     1173.673     72.31815      1.537     3.08     5.503538     20.38239     137.7427        17     1.132     0.927 -50.26   0
       323    228.6101    149.9085 300.1998580 +22.4957030     802.7346     72.18935      1.626     3.86     5.554818     20.38239     87.14194        10     1.167     0.603 -18.75   0
       324     90.5195    144.3244 300.1587257 +22.4527298     2149.136      72.3549      1.569     2.96     6.119906     20.38239     245.6136        25     1.232     1.058 -15.19   0
       325    913.5510    141.7497 300.4158813 +22.6983829     803.2044     72.28137      1.468     3.13     5.535027     20.38239     95.56855        15     1.117     0.912   3.72   0
       326     40.3857    141.2889 300.1441257 +22.4368363     465.3689     72.18935      1.292     3.15     6.091416     20.38239     57.91095        10     0.905     0.753 -47.67   0
       327    247.9454    137.6292 300.2098527 +22.4979666     5645.073     72.24458      1.484     2.69     5.608058     20.38239     690.2424        34     1.222     1.167  50.06   0
       328    230.1593    138.8551 300.2039225 +22.4929913     308.5279     72.22617      1.324     2.31     5.664959     20.38239     56.42674         6     0.740     0.521 -29.77   0
       329     32.1312    132.0586 300.1445516 +22.4317121     1172.658     72.26298      1.626     3.66     6.085725     20.38239     122.0436        22     1.288     1.101  58.84   0
       330    231.2701    128.6099 300.2075885 +22.4903805     499.3354     72.22617      1.401     4.11     5.761524     20.38239     71.46512        12     1.217     0.875  66.27   0
       331    892.1058    119.3840 300.4164402 +22.6855328     3680.048     72.17094      1.492     2.73     5.563952     20.38239     485.5476        29     1.190     1.140 -78.34   0
       332    995.7779    118.1671 300.4491838 +22.7161898      2719.32     72.24458      1.515     3.09     5.528106     20.38239     330.7878        29     1.309     1.120 -78.27   0
       333    441.5411    114.5071 300.2775979 +22.5492952     608.6724     72.29977      1.385     3.11     5.410209     20.38239     78.25813        12     1.009     0.788 -87.69   0
       334    194.7447    114.9423 300.2006568 +22.4755132     337.1019     72.29977      1.426     3.85     5.979287     20.38239     47.36336         8     0.942     0.755 -31.59   0
       335    365.7032    106.1512 300.2566972 +22.5241867     708.7508     72.28137      1.435     3.01     5.436307     20.38239     73.08995         9     0.970     0.610  81.32   2
       336    369.7751    104.9806 300.2583440 +22.5250695     327.7269     72.26298      1.401     2.65     5.435655     20.38239     54.67946         7     0.921     0.580   0.63   3
       337    131.9328    103.5753 300.1848073 +22.4534322      593.438     72.22617      1.366     3.67     6.173543     20.38239     75.15034         9     1.057     0.629 -22.60   0
       338    420.9668    102.3821 300.2751217 +22.5396500     503.8344     72.22617      1.476     4.05     5.423783     20.38239     49.61513         9     0.905     0.699  59.79   0
       339    492.8911    101.5964 300.2977719 +22.5609565     1608.201     72.15251      1.366     2.45        5.389     20.38239     266.8933        21     1.121     1.019 -52.64   0
       340    236.7937     97.5972 300.2193570 +22.4831243     405.3293     72.06033      1.145     2.00     6.010681     20.38239     55.59196         5     0.663     0.473  16.44   0
       341    781.5829     91.2976 300.3910717 +22.6443895     480.8249     72.17094      1.619     2.86     5.578951     20.38239     49.53662         7     0.861     0.560 -31.85   0
       342    927.1970     85.8348 300.4382611 +22.6863746     342.1835     72.24458      1.691     2.72     5.652868     20.38239     42.09493         6     0.766     0.525 -47.71   0
       343    266.9182     81.4441 300.2339630 +22.4875046     6205.132     72.20776      1.542     2.99     5.833325     20.38239     730.6987        42     1.392     1.193  70.66   0
       344    773.3640     82.0343 300.3915108 +22.6392657     382.6093     72.31815      1.617     4.28     5.626192     20.38239     39.89183         8     0.972     0.650  14.43   0
       345    117.9617     81.1168 300.1877407 +22.4427954      720.131     72.20776      1.423     3.33     6.219415     20.38239     87.73358        10     0.943     0.696  -8.77   0
       346    896.3300     79.2857 300.4307531 +22.6752580     442.3864      72.3549      1.715     4.26     5.721449     20.38239     42.37944         6     0.748     0.693 -32.94   0
       347    239.2293     75.7472 300.2271948 +22.4775753     379.5595     72.26298      1.351     3.63     6.093765     20.38239     49.71148         8     1.007     0.628 -53.24   0
       348    742.4446     73.0889 300.3847693 +22.6274420     228.6635     72.26298      1.157     4.22       5.7058     20.38239     31.86774         5     0.788     0.644  14.36   0
       349    282.6176     73.0582 300.2415648 +22.4897963     358.7229     72.20776      1.166     2.18     5.774731     20.38239     57.50282         5     0.753     0.454 -32.83   0
       350     28.0103     72.5411 300.1625572 +22.4133839     396.0862     72.20776      1.371     3.92     6.134772     20.38239     49.78342         5     0.936     0.471 -11.62   0
       351    513.0898     66.8917 300.3153084 +22.5570247     6366.218        72.41      1.438     2.91      5.47466     20.38239     768.5497        36     1.242     1.114  88.36   0
       352    398.2296     66.7424 300.2795920 +22.5225980     762.0108     72.26298      1.627     3.44     5.454222     20.38239     77.20363        12     1.094     0.753  15.55   0
       353    570.1223     61.3639 300.3348647 +22.5725050     311.0162     72.20776      1.384     4.10     5.546252     20.38239     39.83351         6     0.751     0.641 -57.70   0
       354    765.5494     56.7168 300.3972780 +22.6296443     823.5634     72.26298      1.590     3.34     5.726216     20.38239     92.77408        15     1.177     0.868 -89.68   0
       355    858.0438     55.9793 300.4263621 +22.6571001      640.573     72.29976      0.553     2.75     5.835736     20.38239     269.1646         7     0.584     0.383  39.63   0
       356    926.3984     53.5396 300.4484769 +22.6768416     287.5508     72.20776      1.319     3.75     5.968385     20.38239      35.1146         6     1.060     0.381 -18.96   0
       357    205.6571     51.1326 300.2247270 +22.4604478     323.6563     72.28137      1.176     3.12     6.243822     20.38239     63.66611         5     0.965     0.335   3.19   0
       358    641.4302     47.0684 300.3617147 +22.5897330     6367.555     72.22617      1.412     2.56     5.705145     20.38239     687.0555        38     1.260     1.123 -87.33   0
       359    564.3600     49.2862 300.3369829 +22.5673073     449.1992     72.22617      1.446     2.84     5.577801     20.38239     66.03563        10     0.973     0.716  53.72   0
       360    416.3481     45.8829 300.2919910 +22.5220257     1502.834     72.28137      1.462     2.91     5.469642     20.38239     160.8914        18     1.076     0.972  50.76   0
       361    682.5270     44.5026 300.3753541 +22.6012918     813.1137     72.37328      1.456     3.14     5.724601     20.38239     106.7405        13     1.047     0.863 -87.51   0
       362    752.7553     42.2102 300.3979892 +22.6216433     340.8737     72.26298      1.341     3.92     5.796622     20.38239     41.96618         5     0.896     0.492 -44.04   0
       363    698.2347     40.4490 300.3815635 +22.6048255       602.48     72.28137      1.324     3.00     5.769081     20.38239     83.26176         9     0.896     0.814 -24.39   0
       364    968.5315     38.7345 300.4664212 +22.6851800      329.027     72.29977      1.163     2.16     6.124054     20.38239     66.53262         6     0.664     0.593  11.96   0
       365    165.2826     38.3130 300.2163233 +22.4446721     600.8787      72.3549      1.494     3.65     6.160645     20.38239     75.37444        11     0.991     0.916 -39.55   0
       366     12.1698     38.8726 300.1685421 +22.3989676     275.3657     72.24458      1.351     2.98     6.214907     20.38239     36.91163         6     0.894     0.562  19.21   0
       367   1007.2421     37.6613 300.4788503 +22.6964460     225.6015     72.22617      1.670     3.73     6.134098     20.38239     30.17356         5     0.956     0.417  83.59   0
       368    736.8221     36.1286 300.3949921 +22.6151271     423.4132     72.26298      1.147     2.42     5.837757     20.38239     64.06115         8     0.768     0.659  52.95   0
       369    700.9995     31.1811 300.3854279 +22.6029866     827.4042     72.17094      1.745     4.95     5.811296     20.38239     75.01244        15     1.531     0.769  46.76   0
       370    685.6288     31.9396 300.3803912 +22.5986061      2751.65     72.26298      1.419     2.59     5.788693     20.38239     341.4404        24     1.182     0.967  77.37   0
       371    326.2404     32.8240 300.2681745 +22.4912949     438.9706     72.28137      1.443     2.41     5.760488     20.38239     51.74028         8     0.777     0.654  38.56   0
       372    772.0467     23.4561 300.4100802 +22.6220186     1474.397     72.28137      1.429     2.85     5.840095     20.38239      207.486        21     1.150     1.033  56.55   0
       373    849.9190     18.3276 300.4360268 +22.6438353      339.028     72.37328      1.346     4.25     6.017452     20.38239     39.19676         7     0.883     0.582  32.08   0
       374    710.2311     16.8102 300.3929613 +22.6016143      663.512     72.24458      1.349     3.21     5.878169     20.38239     112.1531        13     1.058     0.878  -8.41   0
       375    753.2314    988.1924 300.0910292 +22.8936505     633.5705     72.24458      1.895     5.91     3.418975     20.38239     37.40334        11     1.281     0.768  23.68   0
       376     88.3853     15.8736 300.1996825 +22.4151926     584.6629     72.24458      1.800     4.73     6.240186     20.38239     69.14215        11     1.276     0.750  19.76   0
       377    314.5931   1012.6255 299.9464766 +22.7691169     1830.847     72.24458      5.730     6.48     6.810398     20.38239     89.36883        36     1.704     1.588 -30.20   0
       378    801.8405     13.2532 300.4226760 +22.6279949     487.0403     72.20776      1.437     2.52     5.847879     20.38239     56.88868         8     0.781     0.651  33.12   0
       379    752.5312   1014.0991 300.0823833 +22.9008776     349.6616     72.33652      1.450     4.96     3.234372     20.38239      39.7393         6     0.993     0.723  33.99   0
       380    147.0175   1011.7925 299.8946295 +22.7185916     391.2257     72.18935      1.517     4.06     94.09587     20.38239     36.63602         5     1.769     0.267  52.58   2
       381    148.5338   1009.0068 299.8960071 +22.7182481     1080.314     72.24458      2.599    10.19     91.84661     20.38239     43.47858        18     2.237     1.295  40.72   3
       382    153.5029   1007.4850 299.8980470 +22.7193032     1313.976        72.41      2.982     9.81      90.8809     20.38239     48.32774        16     2.183     1.229  63.53   3
