#   1 NUMBER                 Running object number                                     
#   2 X_IMAGE                Object position along x                                    [pixel]
#   3 Y_IMAGE                Object position along y                                    [pixel]
#   4 ALPHA_J2000            Right ascension of barycenter (J2000)                      [deg]
#   5 DELTA_J2000            Declination of barycenter (J2000)                          [deg]
#   6 FLUX_APER              Flux vector within fixed circular aperture(s)              [count]
#   7 FLUXERR_APER           RMS error vector for aperture flux(es)                     [count]
#   8 FLUX_RADIUS            Fraction-of-light radii                                    [pixel]
#   9 FWHM_IMAGE             FWHM assuming a gaussian core                              [pixel]
#  10 BACKGROUND             Background at centroid position                            [count]
#  11 THRESHOLD              Detection threshold above background                       [count]
#  12 FLUX_MAX               Peak flux above background                                 [count]
#  13 ISOAREA_IMAGE          Isophotal area above Analysis threshold                    [pixel**2]
#  14 A_IMAGE                Profile RMS along major axis                               [pixel]
#  15 B_IMAGE                Profile RMS along minor axis                               [pixel]
#  16 THETA_IMAGE            Position angle (CCW/x)                                     [deg]
#  17 FLAGS                  Extraction flags                                          
         1    485.7924     15.9934 300.3326426 +22.5432000     1036.471     72.01891      1.515     3.61     6.127731     20.36025     97.59048        16     1.138     0.937 -57.01   0
         2    389.7212     13.8056 300.3034313 +22.5138288     865.6719     72.09254      1.779     3.64     6.105495     20.36025      85.4231        14     1.072     0.955 -42.88   0
         3    160.7768      3.8132 300.2354171 +22.4424404     3991.377     68.06052      1.847     3.64     5.816475     20.36025     310.6038        43     1.591     1.346  18.54  24
         4    728.7416      4.5891 300.4120564 +22.6125761     626.6578     70.49236      1.667     4.35     6.035417     20.36025     59.94779        13     1.148     0.913  59.12  16
         5    583.1743      1.5070 300.3676770 +22.5681596     278.3992     57.12493      1.392     4.45     6.171885     20.36025     40.62161         5     1.142     0.492  -4.81  24
         6    122.8918   1009.0000 299.8973132 +22.7197473     1132.637     72.03732      3.094     6.04     92.86123     20.36025     47.45064         9     1.924     0.532  -2.77   2
         7    309.4286   1022.4999 299.9509480 +22.7795688     567.3426     62.32233      4.378     5.24     5.049635     20.36025     32.27566         5     1.033     0.752  85.58  24
         8     74.6174   1009.5872 299.8821130 +22.7054335     5287.462     72.12933     16.210    77.09     72.55362     20.36025     174.9114      1959    16.227    10.699  36.49  27
         9    626.6149    985.2108 300.0618580 +22.8639497     4023.933     72.07414      1.512     4.58     3.975959     20.36025     359.8706        22     1.751     0.711  87.07   3
        10    723.0721    988.2843 300.0909244 +22.8937346     570.3032     72.27631      1.987     6.76     4.256874     20.36025     40.31897        12     1.423     0.901  49.21   0
        11     32.0501   1022.9980 299.8645181 +22.6965080     505.2398     59.89099      0.500     2.92     33.73622     20.36025     218.2808         5     0.600     0.416 -60.37  24
        12    151.1066    997.4172 299.9098550 +22.7248886      889.625     72.09254      1.064    13.45     81.91758     20.36025      43.8627        22     3.781     1.331  30.36   3
        13    153.3820    968.5922 299.9199389 +22.7173023     1468.296     72.12933      5.224    10.60     56.38238     20.36025     47.46981        24     2.445     1.280  81.03   3
        14    153.5911    977.8839 299.9169816 +22.7200305     610.4369     72.11094      2.343     3.39     64.59013     20.36025     45.42476         5     1.129     0.294  66.59   3
        15    157.2095    976.1830 299.9186601 +22.7206279     1885.107     72.11094      5.957    15.48     62.76618     20.36025     55.06854        55     3.217     2.072  79.94   3
        16    487.8446    975.6970 300.0217197 +22.8196277     493.0329     72.18449      2.315     5.92     3.576528     20.36025     50.40253         8     1.390     0.709  63.47   0
        17    915.3994    971.7243 300.1562994 +22.9465881     745.4134     72.05573      2.309     7.38     4.214909     20.36025     42.33444        14     1.681     0.907  -2.38   0
        18    156.2834    996.3051 299.9118267 +22.7261224     1112.839     72.34969      3.557     4.58     81.00561     20.36025      69.8669        14     1.156     0.969 -51.51   3
        19    164.5136   1000.0033 299.9131832 +22.7296520     2508.334     72.09254      5.653    24.16     84.25456     20.36025     57.06366       115     5.330     3.040 -82.83  19
        20    136.6717    955.9651 299.9188493 +22.7086678      1696.88     72.16611      6.908    11.69     44.52676     20.36025     56.34863        38     2.555     1.489 -68.48   3
        21    132.0141    954.8365 299.9177680 +22.7069470     1734.347     72.16611      6.887    12.45     43.61478     20.36025      46.6706        34     3.047     1.415 -71.36   3
        22    641.0410    954.1147 300.0764693 +22.8593425     6832.333     72.12933      2.142     5.10     4.227119     20.36025     337.1551        55     1.687     1.586   8.85   0
        23    142.2741    951.5336 299.9220328 +22.7090769     514.8618     72.22123      1.515     3.38     40.87887     20.36025     34.22774         5     1.091     0.302  22.25   1
        24    232.6048    995.7386 299.9357504 +22.7488512     740.4178     72.16611      3.339     3.42     65.89203     20.36025     34.68298         5     0.788     0.430  69.37   0
        25    151.6877    946.6359 299.9265532 +22.7104953      1075.02     72.14772      5.769     7.31     36.31901     20.36025     43.76741        11     1.485     1.008  37.20   3
        26    521.7908    947.9224 300.0413275 +22.8218282     398.7027     72.12933      1.894     5.69     4.057389     20.36025     32.71488         7     1.298     0.703  80.83   0
        27    549.4589    944.8878 300.0509337 +22.8292490     1635.368     72.23959      2.097     5.12      4.13606     20.36025     84.02231        34     1.594     1.407  -9.23   0
        28    160.7627    994.4816 299.9138129 +22.7269429     2079.777     72.12933      5.405    14.47     79.18166     20.36025     70.91403        55     4.465     1.304 -77.77   3
        29    443.3438    941.2841 300.0190547 +22.7964095     975.7097     72.25796      2.113     7.80     4.261137     20.36025     59.43884        22     1.383     1.302  24.95   0
        30    373.9451    939.1500 299.9981419 +22.7749932     6700.847     72.20286      2.144     4.90     4.453089     20.36025     441.2897        53     1.650     1.589   7.25   0
        31    187.0267   1002.1550 299.9194853 +22.7370220     1239.982     72.18449      2.359     6.96     83.91284     20.36025     61.57095        15     1.950     0.700 -29.69   2
        32    219.7299   1000.6035 299.9301626 +22.7463856     543.7178     72.11094      1.412     4.48     79.71352     20.36025     48.82077        10     1.163     0.672  76.46   0
        33    406.7802    926.0711 300.0126178 +22.7810822     621.3508     72.20286      1.956     7.03     4.536623     20.36025     52.88382        13     1.348     1.096 -50.00   0
        34    920.4006    918.3041 300.1752366 +22.9327345     2256.376     72.03732      2.253     5.91     4.515612     20.36025     107.9626        36     1.559     1.541 -15.26   0
        35    710.3329    907.0652 300.1133711 +22.8665888     821.8196     72.22123      2.761     7.00     4.592467     20.36025     44.06922        10     1.784     0.770  86.52   2
        36    345.1851    998.5542 299.9698667 +22.7834196     615.2188     72.18449      2.129     4.91      4.01175     20.36025      37.3885         9     1.169     0.584  61.85   0
        37    743.9910    901.3323 300.1257296 +22.8750243      1045.95     72.16611      2.149     5.42     4.643559     20.36025     63.31977        20     1.358     1.221 -18.36   0
        38    189.0285    986.2517 299.9252813 +22.7330601     3892.986     72.18449      7.328    21.71     68.87881     20.36025     81.28537       242     4.904     4.423 -81.51   3
        39    198.4789    896.4228 299.9574358 +22.7101208     868.0037     72.11094      5.492     6.27     10.90641     20.36025     34.84723         8     1.280     0.864 -86.03   1
        40    812.8726    894.2977 300.1494983 +22.8936346     519.8407     72.29466      2.146     6.40     4.643231     20.36025     40.18364         8     1.260     0.914  49.00   0
        41    766.1820    894.8968 300.1347421 +22.8798224     11371.94     72.07414      2.038     4.87     4.656496     20.36025     619.0076        58     1.605     1.551 -14.67   0
        42    208.4870    984.8126 299.9318020 +22.7384833     4459.479     72.11094      8.537    26.45      65.9006     20.36025     86.47878       373     6.471     4.836 -52.76  19
        43     77.9242    887.0248 299.9230020 +22.6712699     973.9537     72.18449      4.048     8.10     11.64495     20.36025     46.70021        17     1.836     0.998 -43.51   0
        44    469.8163    881.6951 300.0466773 +22.7872359     335.8071     72.09254      1.603     3.76     4.373255     20.36025     29.96944         5     1.233     0.329 -80.07   0
        45    956.8712    876.5890 300.2001846 +22.9316651     388.2576     72.18449      1.860     6.00     4.617589     20.36025     30.86757         7     1.623     0.624  86.58   0
        46    774.6398    876.9753 300.1432075 +22.8772065     1347.782     72.20286      2.076     5.21     4.701614     20.36025     73.92242        25     1.381     1.270  40.15   0
        47    812.8870    869.8419 300.1574555 +22.8866117     898.1492     72.14772      2.248     7.90     4.706876     20.36025     48.17324        19     1.746     0.999  71.04   0
        48    860.6411    862.7371 300.1746620 +22.8988706     451.7596     72.14772      1.831     4.70      4.70332     20.36025     34.64537         6     0.953     0.656 -54.50   0
        49    712.5580    860.7359 300.1291305 +22.8539459      701.679     72.14772      1.838     5.73     4.736917     20.36025     45.55576        15     1.284     0.979 -26.61   0
        50    425.2391    856.8402 300.0408775 +22.7667395     4130.881     72.23959      1.953     4.24     4.489583     20.36025     303.7976        40     1.474     1.410 -40.79   0
        51    723.8514    857.7587 300.1336195 +22.8564732     575.7881     72.16611      1.739     4.69     4.737273     20.36025     48.06394        12     1.065     0.984   4.01   0
        52    469.1669    845.1446 300.0583592 +22.7765461     360.5122     72.18449      1.929     5.10     4.390319     20.36025     30.67846         7     1.241     0.591 -74.30   0
        53    226.8066    973.3953 299.9412147 +22.7407018     6811.996     72.01891      7.716    30.79     51.23458     20.36025     156.5809       605     9.231     4.669  60.36  18
        54    536.1624    991.7423 300.0315501 +22.8387167     2320.112     72.16611      2.185     5.43     3.739564     20.36025     115.9858        34     1.557     1.475 -29.83   0
        55    151.1631    842.4556 299.9602657 +22.6804464     840.8305     72.16611      2.164     5.17     7.637792     20.36025     58.59383        15     1.361     1.050  59.35   0
        56    127.5631    839.5807 299.9538611 +22.6725445     1623.587     72.18449      2.036     5.20     7.498193     20.36025     107.0355        30     1.570     1.334  25.84   0
        57    999.3339    829.0005 300.2289123 +22.9306970     2174.272     72.14772      2.105     5.08     4.553138     20.36025     136.4907        33     1.504     1.431 -52.14   0
        58      2.1254    830.3306 299.9178721 +22.6322707     396.4217     60.59561      1.859     3.94     4.005845     20.36025     28.53355         6     1.084     0.409 -13.39  24
        59    953.6780    827.5746 300.2151254 +22.9166199     2092.138     72.16611      2.106     5.02     4.652256     20.36025     96.61128        35     1.510     1.455  -5.60   0
        60    659.5471    827.3610 300.1234566 +22.8284786     359.6181     72.16611      1.629     4.39     4.545191     20.36025     39.43684         7     0.948     0.577 -30.89   0
        61    737.0806    821.5583 300.1495140 +22.8500344     611.6008     72.14772      1.994     6.15     4.743743     20.36025      42.7423        13     1.387     1.008  35.34   0
        62    605.1986    815.0140 300.1105324 +22.8086509     4789.089     72.00048      1.832     3.99     4.441817     20.36025     351.6239        42     1.434     1.394 -57.70   0
        63     95.2482    815.0568 299.9517850 +22.6558171      405.858     72.20286      1.974     6.51     5.718805     20.36025     41.32548         9     1.486     0.800  67.76   0
        64    407.7583    812.1101 300.0499764 +22.7486573     544.5377     72.18449      1.611     6.35     4.408301     20.36025     44.27861        12     1.386     0.817 -44.42   0
        65    625.7801    807.7012 300.1193236 +22.8127157     758.8268     72.09254      1.890     4.66     4.452281     20.36025     52.20233        16     1.214     0.973  -2.52   0
        66    155.6216    808.8182 299.9725868 +22.6721304     1429.781     72.16611      2.058     4.73     5.334417     20.36025      106.046        25     1.435     1.210 -85.04   0
        67    174.7903    806.6880 299.9792411 +22.6772665     436.3796     72.09254      1.768     4.94     5.137719     20.36025     38.09407         5     1.076     0.642 -29.41   0
        68    543.8571    799.3776 300.0965026 +22.7857823     331.7278     72.18449      1.997     5.98     4.433466     20.36025      31.8969         6     1.120     0.898 -30.78   0
        69    998.6518    795.2238 300.2396803 +22.9207818     1096.343     72.18449      1.931     5.41     4.543959     20.36025     74.95439        25     1.478     1.237 -16.29   0
        70    781.2963    794.8867 300.1719725 +22.8556116     4299.418     72.34969      1.913     4.36     4.781332     20.36025     268.0522        43     1.479     1.465   7.93   0
        71    131.7192    792.2620 299.9705348 +22.6602122     4284.407     72.27631      1.115     4.15     4.776024     20.36025     1025.423        11     1.155     0.426  52.75   0
        72    512.9953    792.0092 300.0892837 +22.7744194      226.718     72.01891      1.642     3.76     4.393255     20.36025     23.23025         5     1.037     0.392  57.77   0
        73    190.0384    788.5904 299.9898663 +22.6766440       553.86     72.16611      2.031     6.51     4.805356     20.36025      38.8235         8     1.490     0.799 -61.44   0
        74    498.5011    787.2231 300.0863247 +22.7687021     590.3067     72.11094      1.800     4.56     4.376692     20.36025     54.50909        12     1.120     0.827  42.92   0
        75    144.8954    785.3879 299.9768666 +22.6621901     1040.849     72.09254      2.053     4.55     4.776024     20.36025     81.68234        19     1.346     1.074 -16.79   0
        76    559.9637    780.8676 300.1075373 +22.7852908     580.9861     72.16611      2.022     5.15     4.422625     20.36025     43.33591        12     1.333     0.892 -32.95   0
        77    294.3120    777.2445 300.0259962 +22.7046454     53970.63     72.16611      1.950     4.14     4.602499     20.36025     4149.392       106     1.668     1.596  14.13   0
        78    965.3375    775.7739 300.2356042 +22.9052180     675.5432     72.16611      2.266     4.81      4.61326     20.36025     62.58659        16     1.207     1.111  -9.52   0
        79    552.2064    776.3387 300.1065925 +22.7816659     1593.509     72.12933      1.753     4.00     4.415859     20.36025     122.1065        27     1.337     1.216 -18.45   0
        80    621.0000    987.0458 300.0595112 +22.8627940     3595.883     72.14772      1.754     4.66     3.925796     20.36025     301.9195        22     1.747     0.765 -84.40   3
        81    581.1498    772.7663 300.1167715 +22.7893103     842.2938     72.18449      1.716     4.51      4.42591     20.36025     62.06633        19     1.222     1.108 -33.10   0
        82    592.6501    771.0780 300.1209038 +22.7922703     593.0359     72.16611      1.858     4.56      4.43058     20.36025     49.71376        11     1.054     0.740 -22.42   0
        83    697.4411    767.8633 300.1546097 +22.8227338     334.3365     72.14772      1.609     4.30     4.576609     20.36025      36.8914         7     0.977     0.614  39.09   0
        84    735.1798    757.7213 300.1696722 +22.8311211     758.0104     72.16611      1.683     4.60     4.784743     20.36025     60.79868        17     1.192     1.058  15.45   0
        85    344.0730    754.5156 300.0488704 +22.7130338      31730.5     72.27631      1.851     3.80     4.547568     20.36025     2800.187        80     1.558     1.507 -21.05   0
        86    867.3409    750.7863 300.2131462 +22.8686990     2697.242     72.14772      1.880     4.18     4.940245     20.36025     183.3559        31     1.421     1.296  -6.38   0
        87    355.1435    749.2302 300.0540341 +22.7148338     598.4997     72.18449      2.216     5.17     4.520009     20.36025     58.55936        13     1.355     0.814 -29.65   0
        88    461.5326    746.6035 300.0880126 +22.7459591      629.764     72.14772      2.160     5.68     4.358407     20.36025     41.90842        11     1.074     0.847 -43.55   0
        89    226.5594    746.0522 300.0150520 +22.6753821     732.4008     72.18449      1.896     6.21     4.836821     20.36025     47.74839        16     1.268     1.145  70.10   0
        90    472.2602    741.6713 300.0929565 +22.7477566     780.4307     72.20286      1.590     4.51     4.358407     20.36025     84.61687        13     1.277     0.900  61.77   0
        91    873.6547    738.2374 300.2191945 +22.8669817     501.3344     72.16611      1.874     6.93     4.950916     20.36025     38.05862        15     1.271     1.061  80.79   0
        92    625.1695    746.4476 300.1390429 +22.7949348     841.8911     72.18449      1.637     4.37      4.44081     20.36025     77.14056        18     1.152     1.077 -11.38   0
        93    418.2530    736.1663 300.0779272 +22.7299937     515.7301     72.18449      1.965     4.51     4.367705     20.36025     48.31407        10     1.158     0.669 -59.91   0
        94    358.2906    755.1455 300.0530913 +22.7174756     2051.104     72.22123      1.917     3.80     4.512189     20.36025     173.9184        31     1.381     1.290   6.62   0
        95    627.1720    735.4904 300.1432279 +22.7923863     287.3405     72.14772      1.650     4.29      4.45197     20.36025     29.03012         5     0.903     0.581 -44.97   0
        96    850.3698    733.0023 300.2136315 +22.8585060     448.5262     72.12933      1.302     3.47     4.981398     20.36025     33.65317         5     1.625     0.214 -54.51   0
        97    224.0741    730.6016 300.0192996 +22.6702017     491.6072     72.07414      1.848     7.28      4.84966     20.36025     36.77903        13     1.294     1.223  79.64   0
        98    517.3292    719.7072 300.1141319 +22.7549497     689.7003     72.29466      1.887     3.93     4.534557     20.36025     49.39468        13     1.017     0.931 -16.38   0
        99    426.4765    718.3865 300.0862654 +22.7273513     390.8785     72.18449      1.599     3.14     4.536576     20.36025     43.42378         8     0.808     0.784  31.52   0
       100    933.6899    715.9617 300.2451667 +22.8785480     4560.069     72.14772      1.958     4.65     4.801709     20.36025     267.2826        45     1.620     1.446 -60.28   0
       101    539.1867    716.9318 300.1218429 +22.7607000     1350.747     72.18449      1.780     3.56     4.568136     20.36025     128.0824        21     1.272     1.094 -10.10   0
       102    459.0729    716.1536 300.0971417 +22.7364762     422.9593     72.16611      1.761     6.27     4.562165     20.36025     30.80295         8     1.173     0.942 -83.32   0
       103    922.0165    707.5663 300.2442520 +22.8726401     1671.355     72.14772      1.866     4.33     4.893184     20.36025     115.0301        29     1.460     1.226 -35.11   0
       104    285.2558    701.0167 300.0479492 +22.6800452     792.1038     72.12933      1.473     3.27     4.864565     20.36025      81.0472        12     1.047     0.761  82.98   0
       105    953.3989    697.7554 300.2572340 +22.8792118     1866.922     72.16611      1.969     4.14     4.804329     20.36025     125.4181        29     1.363     1.313  16.16   0
       106    748.3815    698.6909 300.1929721 +22.8181087     2454.927     72.09254      1.815     3.84      4.86621     20.36025     173.0627        32     1.352     1.292  -5.01   0
       107    831.0082    684.7488 300.2232719 +22.8388381     695.2735     72.16611      2.061     6.82      5.11632     20.36025     43.99463        17     1.355     0.990  15.44   0
       108    134.0977    684.6361 300.0062476 +22.6300352     673.6849     72.16611      1.884     5.20      4.84682     20.36025     53.77784        11     1.036     0.927 -83.17   0
       109    866.9094    675.6027 300.2374434 +22.8469552     148655.7     72.07414      1.839     3.88     5.314581     20.36025     9908.485       156     1.652     1.577 -44.39   0
       110    629.2054    679.3371 300.1621081 +22.7768599      380.791     72.12933      1.379     5.43      4.75846     20.36025     43.33706        10     1.010     0.824 -46.43   0
       111   1013.9872    677.7269 300.2826542 +22.8915837     1249.938     72.18449      1.920     4.27     4.598547     20.36025     83.31254        23     1.373     1.129  14.40   0
       112    719.6472    675.7672 300.1914609 +22.8029164     715.7226     72.20286      1.655     4.96     4.842599     20.36025     66.25766        15     1.203     0.937 -67.71   0
       113    899.6431    668.4116 300.2499930 +22.8546852     365.8073     72.16611      1.579     4.47     5.162224     20.36025     38.56402         7     1.016     0.710  13.69   0
       114    553.1099    664.2507 300.1432974 +22.7497349     1694.372     72.18449      1.660     3.31     5.006515     20.36025     156.3496        23     1.207     1.081 -31.74   0
       115    734.4408    661.6710 300.2006533 +22.8032940     9297.648     72.12933      1.724     3.54     4.871356     20.36025     801.6077        52     1.431     1.358 -63.39   0
       116    235.8542    656.4800 300.0470465 +22.6524518     4938.698     72.20286      1.775     3.79     4.947864     20.36025     473.7319        40     1.393     1.366  52.31   0
       117    317.8999    654.5888 300.0731920 +22.6764955     1185.363     72.07414      1.728     4.49     4.950903     20.36025     96.00296        23     1.471     1.014  29.59   0
       118    194.3972    651.7939 300.0356715 +22.6386814     370.8613     71.98206      1.539     4.12     4.928833     20.36025     32.36209         7     1.011     0.479  83.45   0
       119    526.3748    650.3307 300.1394905 +22.7377278     718.5683     72.16611      1.634     3.47      5.07333     20.36025     77.19302        11     0.973     0.806  46.39   0
       120    517.8753    642.4460 300.1394041 +22.7329166     3250.642     72.16611      1.644     3.31     5.094616     20.36025     287.3044        29     1.243     1.181 -32.24   0
       121    508.1371    636.1201 300.1384255 +22.7281823     1446.936     72.27631      1.653     3.47     5.104444     20.36025     122.1475        23     1.221     1.122 -53.70   0
       122    436.7619    635.8892 300.1162706 +22.7067361     332.6617     72.14772      1.554     4.91     5.051405     20.36025     43.18295         8     0.988     0.699  13.11   0
       123    901.8106    634.4020 300.2617184 +22.8455544     280.9799     71.98206      1.400     5.18     5.084818     20.36025     35.99557         8     1.193     0.635 -14.48   0
       124    170.9575    632.3704 300.0346897 +22.6260794     755.0226     72.20286      1.858     5.76      4.95287     20.36025     62.41299        16     1.420     0.968   5.25   0
       125    185.9490    630.9794 300.0398046 +22.6301732     478.1438     72.16611      1.436     4.53     4.952541     20.36025     59.83382         9     1.078     0.678 -21.89   0
       126    955.2031    627.7580 300.2805391 +22.8596220     574.2036     72.18449      1.964     4.11     4.979453     20.36025     50.90555         7     1.223     0.817  -6.35   0
       127    211.5213    627.5114 300.0488861 +22.6368415     615.4436     72.29466      1.676     3.94     4.950079     20.36025     53.25877        10     1.102     0.805 -30.98   0
       128    531.6738    626.7869 300.1487893 +22.7325501     342.8773     72.18449      1.339     4.89      5.16069     20.36025     58.52505         8     1.137     0.596   8.16   0
       129    432.8936    625.9333 300.1183000 +22.7027172     1706.954     72.31301      1.597     3.55     5.072233     20.36025     148.7732        22     1.194     1.086   2.54   0
       130   1008.7744    623.9134 300.2985100 +22.8745460     743.4901     72.11094      1.822     7.50     4.885434     20.36025     55.61094        18     1.389     1.134  20.07   0
       131     86.7736    620.5073 300.0123631 +22.5974404     20174.08     72.11094      1.957     4.03      5.07731     20.36025     1743.375        67     1.626     1.550  21.62   0
       132    517.7749    621.2664 300.1462526 +22.7268011      1118.97     72.14772      1.800     5.34     5.163269     20.36025     78.47875        20     1.495     0.938 -50.89   0
       133      8.1271    622.5870 299.9872388 +22.5744603     656.7004     72.18449      2.032     5.22     5.521159     20.36025     53.83578        12     1.261     0.792 -19.21  16
       134    553.0721    620.6172 300.1574598 +22.7371859     382.6493     72.16611      1.687     3.97     5.190441     20.36025     45.18766         5     0.929     0.485   2.01   0
       135    435.6169    618.3519 300.1216105 +22.7013550      236.169     72.20286      1.647     3.90     5.092607     20.36025     30.21909         5     1.098     0.397 -74.09   0
       136    888.5463    617.9872 300.2629118 +22.8368644     276.9756     72.18449      1.473     4.11     5.061283     20.36025     29.45374         5     1.092     0.442  25.27   0
       137    935.8674    607.7874 300.2809916 +22.8480923     1078.177     72.16611      1.782     4.04     5.029436     20.36025     103.5203        18     1.234     0.977   4.78   0
       138     32.8755    604.7186 300.0007346 +22.5767511     1514.515     72.27631      2.081     4.80     5.423193     20.36025     100.7542        28     1.464     1.358 -83.40   0
       139    802.8881    605.6943 300.2401828 +22.8076921      531.978     72.34969      1.805     5.67     4.997806     20.36025     51.23272        12     1.362     0.666 -38.63   0
       140     99.5965    605.7296 300.0211497 +22.5970419     340.7568     72.11094      1.570     3.39      5.05564     20.36025     31.52613         5     0.748     0.443  69.61   0
       141    481.6694    602.1214 300.1412245 +22.7104862     463.5129     72.27631      1.260     2.69     5.132242     20.36025     58.56805         5     0.761     0.411 -69.12   0
       142    875.7855    600.5286 300.2646012 +22.8280248      954.205     72.16611      2.449     6.19     5.032899     20.36025     51.48808        15     1.531     0.751  24.63   2
       143    620.0283    598.9839 300.1853506 +22.7510193     385.2808     72.18449      1.596     4.46     5.190633     20.36025     41.83716         6     1.124     0.503  -0.88   0
       144    438.1647    594.4100 300.1301800 +22.6952399     723.5605     72.16611      1.471     3.14     5.083969     20.36025     77.14551        12     1.067     0.708 -41.15   0
       145    586.0525    592.8859 300.1767432 +22.7390931     370.4697     72.18449      1.450     4.05      5.29332     20.36025     51.18249        12     1.065     0.797 -14.69   0
       146    632.6566    591.3124 300.1917779 +22.7525956     468.5541     72.22123      1.531     4.27     5.179428     20.36025     44.73524         5     0.893     0.581  34.92   0
       147    603.9196    590.6275 300.1830445 +22.7437941     596.3539     72.18449      1.655     4.55     5.274575     20.36025     51.79246        13     1.183     0.824 -60.52   0
       148    482.4972    589.9539 300.1454341 +22.7072381     873.0585     72.20286      1.652     3.64     5.116288     20.36025     79.18774        13     1.062     0.891 -54.53   0
       149    915.9867    585.7261 300.2819530 +22.8357983     3261.822     72.18449      1.740     3.65     5.057599     20.36025     253.5092        34     1.335     1.310 -39.93   0
       150    447.6102    585.4951 300.1360168 +22.6955078     1760.862     72.09254      1.698     3.52     5.074696     20.36025     161.7079        24     1.255     1.117 -26.52   0
       151   1014.0512    584.3356 300.3130130 +22.8647400     753.0685     72.22123      1.923     4.77      5.02162     20.36025     52.70972        16     1.277     1.018 -22.47   0
       152      9.5512    578.5996 300.0019666 +22.5622617     5028.783     72.16611      2.023     4.41     5.549345     20.36025     415.3059        49     1.667     1.511  43.84  16
       153    311.0504    571.9506 300.0979006 +22.6507087      9206.88     72.20286      1.691     3.36     4.918632     20.36025     829.7035        51     1.429     1.368  65.16   0
       154    568.4185    572.6102 300.1778334 +22.7279855     247.1462     72.12933      1.398     3.49     5.433501     20.36025      26.6791         5     1.115     0.316  69.24   0
       155    433.5495    569.1121 300.1369586 +22.6865892      9201.01     72.18449      1.656     3.16     5.028242     20.36025     838.1771        51     1.389     1.313  12.94   0
       156    512.6674    566.1735 300.1625546 +22.7094405     191.4833     72.14772      1.118     4.34     5.305834     20.36025     29.99429         7     1.354     0.396 -63.80   0
       157    198.2341    566.9626 300.0644167 +22.6154729      418.232     72.22123      1.917     4.32     4.957419     20.36025      36.9528         5     1.023     0.520  49.76   0
       158    838.2120    566.6877 300.2638701 +22.8070484     363.1173     72.11094      1.678     3.48     4.979747     20.36025      36.0687         5     0.792     0.442 -12.30   0
       159    680.0728    565.7109 300.2148723 +22.7594327     295.3942     72.33135      1.257     5.07     5.193381     20.36025     29.01319         8     0.937     0.775  87.74   0
       160    929.9461    560.7222 300.2944300 +22.8327837     12390.71     72.20286      1.763     3.67     5.101244     20.36025     920.0539        54     1.473     1.382 -62.55   0
       161    845.2421    563.3301 300.2671536 +22.8081867     1809.682     72.12933      1.705     3.70     4.984903     20.36025     142.0366        23     1.226     1.146 -83.21   0
       162    494.1429    558.7021 300.1592105 +22.7017459     11726.88     72.25796      1.639     3.16     5.171444     20.36025     1135.712        51     1.360     1.319 -75.63   0
       163    664.0334    554.9014 300.2133828 +22.7515235     481.6503     72.14772      1.693     5.09     5.317871     20.36025     46.76639        12     1.261     0.902  45.33   0
       164    221.5213    554.0295 300.0758608 +22.6187369     1298.353     72.16611      1.709     3.80     4.919486     20.36025     128.9156        23     1.214     1.185 -77.07   0
       165    468.3226    551.8784 300.1533841 +22.6920522     403.7219     72.27631      1.666     5.60     5.039049     20.36025     36.25315        10     0.989     0.893   1.67   0
       166    768.7502    547.1799 300.2485396 +22.7806495     788.8835     72.14772      1.653     4.13      4.95043     20.36025     68.33718        14     1.239     0.869 -50.06   0
       167    425.8802    546.8464 300.1418006 +22.6778948     4398.468     72.14772      1.595     3.15     4.970486     20.36025     402.7026        32     1.258     1.216 -88.55   0
       168    404.2303    545.3038 300.1355602 +22.6709670      1232.04     72.11094      1.585     3.10     4.934453     20.36025     125.5185        21     1.117     1.094 -26.04   0
       169    158.7297    544.6003 300.0593899 +22.5972132      685.467     72.07414      1.639     3.19     5.007597     20.36025     62.29598        12     0.913     0.881  69.57   0
       170    845.8036    542.7228 300.2740209 +22.8024285     1554.638     72.07414      1.708     3.93     4.967796     20.36025     112.2981        25     1.302     1.142 -39.78   0
       171    542.4540    534.4670 300.1821298 +22.7092483       206640     72.20286      1.630     3.04     5.665215     20.36025     21856.99       196     1.597     1.498 -19.29   0
       172    726.2479    539.6335 300.2377366 +22.7657581     774.7891     72.20286      1.556     3.25     5.074825     20.36025     85.59201        17     1.214     0.869 -19.53   0
       173    366.5309    540.6787 300.1253247 +22.6583458     368.6145     72.27631      1.552     3.85     4.883852     20.36025     38.13472         6     0.910     0.467  -0.97   0
       174    228.3945    534.3162 300.0844000 +22.6151346     3474.662     72.09254      1.759     3.50     4.934008     20.36025     326.8685        36     1.389     1.307 -43.96   0
       175    794.6580    530.7026 300.2619702 +22.7836655     500.6707     72.25796      1.984     3.13     4.904293     20.36025     50.82416         5     0.939     0.408  73.42   0
       176    574.2668    521.3151 300.1963122 +22.7149937     141.3335     72.25796      0.965     3.49     5.602876     20.36025     42.81054         5     0.786     0.448  10.91   0
       177    277.4554    517.2339 300.1052119 +22.6249269      309.019     72.18449      1.521     4.29     4.905237     20.36025     47.33265         8     0.998     0.753  18.51   0
       178    433.1146    514.7637 300.1544703 +22.6708429     2761.299     72.14772      1.630     3.06     5.034244     20.36025      280.369        28     1.233     1.185   1.96   0
       179    750.0964    503.5011 300.2569049 +22.7625067     423.8673     72.34969      1.623     4.90     5.036942     20.36025     39.73802         7     1.099     0.618  41.57   0
       180    830.1608    501.2495 300.2826073 +22.7858197     1774.172     72.16611      1.673     3.35     4.889154     20.36025     161.6746        27     1.268     1.206 -14.56   0
       181    701.3635    498.7840 300.2432413 +22.7465644     2550.208     72.16611      1.572     2.89     5.278083     20.36025     264.5693        28     1.194     1.143  66.71   0
       182    945.0182    493.5061 300.3209596 +22.8179579     1019.305     72.09254      2.470     7.32     5.101954     20.36025     68.00581        22     2.089     0.977  67.90   0
       183    606.0091    495.3630 300.2146295 +22.7170370     399.2931     72.16611      1.360     4.19     5.494268     20.36025     42.02573         7     0.795     0.631 -13.41   0
       184    488.7074    494.3943 300.1783973 +22.6816375     758.1541     72.07414      1.624     3.88     5.202043     20.36025     79.00323        14     1.185     0.909 -36.98   0
       185    958.7510    493.0119 300.3254062 +22.8219240     1235.616     72.18449      1.716     3.42     5.108033     20.36025     108.5093        23     1.292     1.098  26.77   0
       186    830.4058    491.1236 300.2859713 +22.7829807     2351.339     72.07414      1.958     4.59     4.876315     20.36025     179.4381        33     1.719     1.173  82.19   0
       187    583.7398    489.4280 300.2096165 +22.7086640     544.7937     72.18449      1.343     3.10     5.599969     20.36025     60.74259        11     0.951     0.766  13.13   2
       188    583.6242    485.8543 300.2107407 +22.7076021     486.3578     72.18449      1.930     4.63     5.603458     20.36025     42.27711         6     0.986     0.617 -75.29   3
       189    369.5335    488.6236 300.1431599 +22.6442893     327.8927     72.14772      1.426     4.87      4.91735     20.36025     38.68602         8     0.991     0.678  58.03   0
       190    868.5229    486.3542 300.2994112 +22.7930143     4350.537     72.14772      1.678     3.18     4.887745     20.36025     415.7079        37     1.315     1.278  57.54   0
       191    422.4863    487.4032 300.1600432 +22.6597977     429.3236     72.09254      1.570     4.09     5.078496     20.36025     41.80612         7     1.229     0.390  74.43   0
       192    509.1916    485.6586 300.1876140 +22.6852604      318.332     72.12933      1.328     3.48     5.417958     20.36025     37.95803         5     0.768     0.455 -12.60   0
       193    606.5811    483.0534 300.2188039 +22.7136696     178.1473     72.14772      1.165     2.07     5.498693     20.36025     53.29841         6     0.758     0.493  89.86   0
       194    960.0346    477.0189 300.3309990 +22.8177068     802.9765     72.16611      1.705     4.55     5.104958     20.36025      64.9771        16     1.324     0.871  26.99   0
       195    100.7381    476.1533 300.0635758 +22.5601797     867.2991     72.18449      1.724     4.90     5.141928     20.36025     75.28999        15     1.256     0.948  72.53   0
       196     94.1473    466.3418 300.0647111 +22.5553872     420.1274     72.22123      1.503     3.44     5.176421     20.36025     47.27592         5     0.970     0.352 -47.01   0
       197    700.9214    461.2246 300.2552966 +22.7356323     469.8261     72.14772      1.538     2.52     5.268192     20.36025     57.73732         7     0.751     0.616  -6.12   0
       198    590.1439    458.4012 300.2216841 +22.7016618     416.3663     72.09254      1.398     3.49     5.469565     20.36025     37.17261         5     0.809     0.434  19.48   0
       199    641.9520    456.7104 300.2383793 +22.7166841     827.7801     72.14772      1.702     3.94     5.412069     20.36025     72.75453        15     1.186     0.869  11.00   0
       200    956.7549    449.4398 300.3389282 +22.8087909      714.304     72.23959      2.108     4.69     5.103242     20.36025     54.65377        13     1.122     0.990 -36.85   0
       201    702.6236    448.9034 300.2598267 +22.7325987     817.1342     72.07414      1.504     3.73     5.236901     20.36025     77.54834        14     1.025     0.975  37.74   0
       202    860.1823    445.3975 300.3101044 +22.7787375     1049.592     72.07414      1.595     3.38     4.839747     20.36025     96.44956        19     1.129     1.035  69.95   0
       203    844.1912    441.5468 300.3063655 +22.7728455     605.3124     72.16611      1.663     4.99      4.83777     20.36025     59.35797        13     1.063     0.958 -49.34   0
       204    588.5225    439.3912 300.2273492 +22.6957112     3184.823     72.12933      1.575     2.95       5.3781     20.36025     349.7133        32     1.275     1.170  89.17   0
       205    948.9148    438.9346 300.3398911 +22.8034231     624.9714     72.25796      1.700     3.78     5.098665     20.36025     47.94041         9     0.909     0.724  65.63   0
       206     64.6008    430.5287 300.0671477 +22.5362489     295.5165     72.05573      1.440     5.00     5.203223     20.36025     41.84705         6     1.093     0.647  42.29   0
       207    428.1873    426.7010 300.1815217 +22.6440602     352.4112     72.07414      1.406     3.30     5.144284     20.36025      52.8751         7     0.789     0.648  -2.85   0
       208   1000.1657    418.8129 300.3624199 +22.8129626     1208.459     72.14772      1.635     3.71     5.127843     20.36025      106.045        20     1.254     1.043 -11.93   0
       209    872.0138    418.7136 300.3224568 +22.7746009      463.558     72.11094      1.441     3.88     4.851552     20.36025     56.28362         9     1.045     0.743 -32.26   0
       210    958.3882    417.6743 300.3497485 +22.8001395     916.8991     72.18449      1.541     3.73     5.103814     20.36025     80.21619        13     1.005     0.915 -68.42   0
       211    494.7006    414.1414 300.2063133 +22.6603652     398.0282     72.25796      1.519     6.20      5.15818     20.36025     39.08827        11     1.213     0.892   2.52   0
       212    699.1507    413.4340 300.2702562 +22.7213593     1122.492     72.20286      1.496     3.02     5.199862     20.36025     108.1391        18     1.078     0.983   2.68   0
       213    203.1402    411.4566 300.1164230 +22.5722784      599.739     72.23959      1.781     4.18     5.418067     20.36025     66.03724        14     1.213     1.132 -59.76   0
       214    265.4410    407.0751 300.1372292 +22.5896813     3775.793     72.14772      1.665     3.26     5.364047     20.36025     355.8919        37     1.373     1.350 -47.49   0
       215    998.7207    405.9582 300.3661408 +22.8088312      4398.28     72.14772      1.752     3.71     5.087633     20.36025     344.0257        40     1.409     1.337 -52.71   0
       216    212.6862    401.8491 300.1225106 +22.5723780     7699.037     72.14772      1.705     3.37     5.460893     20.36025     710.4481        48     1.433     1.325  52.76   0
       217    978.7432    397.2364 300.3627351 +22.8003465     1834.763     72.16611      1.694     3.28     5.047335     20.36025     153.4084        26     1.243     1.184  66.53   0
       218    353.4599    396.1201 300.1681794 +22.6128944     4626.085     72.22123      1.584     2.96     5.204946     20.36025     465.5027        34     1.275     1.216 -73.55   0
       219    597.7352    392.9615 300.2452886 +22.6851197     18574.99     72.14772      1.536     2.94     5.285812     20.36025     1882.685        60     1.356     1.300  65.72   0
       220    615.2385    393.0291 300.2507214 +22.6903780     817.1628     72.18449      1.936     4.64     5.307426     20.36025     66.19704        15     1.236     0.853 -60.22   0
       221    591.1907    392.1895 300.2434996 +22.6829388     428.6219     72.05573      1.673     3.47     5.273072     20.36025     29.99997         5     1.013     0.343 -45.07   1
       222    225.6038    390.8222 300.1301076 +22.5730794     182.6996     72.12933      1.282     4.22     5.510211     20.36025     27.81416         5     0.935     0.544 -40.32   0
       223    841.4191    389.4288 300.3224157 +22.7570232     225.5026     72.16611      1.053     3.95     4.847887     20.36025     38.78699         6     0.906     0.493 -89.46   0
       224    795.1249    383.8232 300.3097941 +22.7415606      321.854     72.20286      1.550     3.48     4.900961     20.36025     49.62877         9     0.970     0.874 -56.30   0
       225    217.9210    380.0774 300.1312038 +22.5676912     396.8633     72.27631      1.444     2.39     5.565528     20.36025     50.16341         6     0.731     0.554 -46.49   0
       226    931.1678    375.9434 300.3547959 +22.7799898     738.7595     72.18449      1.622     4.68     4.965549     20.36025     72.26174        14     1.251     0.979 -17.75   0
       227    468.1330    375.0453 300.2107250 +22.6411727     269.5507     72.16611      1.364     3.38     5.186275     20.36025       42.152         7     0.846     0.669  40.85   0
       228    152.3853    372.9265 300.1131375 +22.5460056     2020.325     72.16611      1.762     3.25     5.581503     20.36025     191.4979        32     1.422     1.350  45.53   0
       229    640.9697    374.1763 300.2648590 +22.6926578     191.3262     72.16611      1.519     2.97     5.310298     20.36025     27.52786         5     0.898     0.728   2.89   0
       230    538.4406    362.4403 300.2367164 +22.6585959     6777.959     72.23959      1.599     2.80     5.188712     20.36025     712.6208        43     1.373     1.212  72.75   0
       231    951.8691    363.0574 300.3654383 +22.7824732     1231.802     72.18449      1.567     3.76     4.928483     20.36025     113.1487        21     1.265     1.048  64.15   0
       232    253.1735    361.9268 300.1480616 +22.5730349     560.4467     72.16611      1.409     3.41     5.529896     20.36025     81.98031        12     1.077     0.805  87.91   0
       233    111.0570    354.4180 300.1062893 +22.5283080      476.136     72.14772      1.513     6.13      5.53579     20.36025     65.85902        11     1.494     0.732  79.78   0
       234    798.3290    354.6356 300.3202644 +22.7341227     310.9965     72.18449      1.308     2.64     4.952925     20.36025      42.8134         5     0.719     0.445 -18.82   0
       235    742.5236    351.5069 300.3038755 +22.7165266     1189.542     72.31301      1.564     3.01      5.00766     20.36025     135.1792        19     1.227     0.991  82.87   0
       236    652.0557    353.0909 300.2751561 +22.6899117     552.9914     72.22123      1.450     3.07     5.305831     20.36025     60.23939         9     0.816     0.734  29.90   0
       237    445.0086    348.6012 300.2121031 +22.6266480      6226.92     71.98206      1.519     2.88     5.240902     20.36025     671.6055        39     1.288     1.207  84.11   0
       238    836.9697    343.2426 300.3360144 +22.7424044     1531.234     72.20286      1.675     3.75     4.892954     20.36025     117.4601        24     1.283     1.140 -51.95   0
       239    934.3884    343.7638 300.3662427 +22.7716929     632.3124     72.14772      1.740     2.95     4.894903     20.36025     64.26023        10     0.937     0.718  36.73   0
       240    430.0388    337.5327 300.2110322 +22.6189846     450.4236     72.12933      1.362     3.80     5.269025     20.36025     50.35041         9     0.923     0.778  -7.93   0
       241    512.0984    335.2962 300.2373166 +22.6429066     546.3099     72.34969      1.847     4.34     5.229358     20.36025     45.92928        10     1.041     0.746 -83.37   0
       242    809.7215    330.9950 300.3314882 +22.7307295     582.3355     72.07414      1.408     2.82     4.953864     20.36025     76.13319        12     0.948     0.815 -27.58   0
       243    332.4975    327.7746 300.1838290 +22.5869753     2501.188     72.11094      1.618     3.11     5.330822     20.36025     274.1767        27     1.248     1.125  62.04   0
       244     50.9745    325.0016 300.0971504 +22.5018585     1079.703     72.11094      1.804     3.86     5.456079     20.36025     90.53591        22     1.261     1.171 -77.79   0
       245    301.9276    317.1734 300.1777529 +22.5747747     30320.74     72.16611      1.630     3.12     5.360055     20.36025     2829.105        68     1.455     1.352  63.67   0
       246    836.6041    314.8992 300.3450959 +22.7341399     1459.215     72.05573      1.684     3.59     4.903153     20.36025     125.2385        20     1.159     1.070 -68.79   0
       247      1.1232    304.8148 300.0882016 +22.4811248     317.0504     54.87456      1.468     3.34     5.410397     20.36025     55.63347         5     1.296     0.249  80.27  24
       248    751.8756    304.1315 300.3221618 +22.7056961      482.066     72.23959      1.360     3.11       5.2075     20.36025      53.0095         9     0.915     0.671 -16.72   0
       249    400.8890    302.7732 300.2132312 +22.6002656      423.131     72.12933      1.256     3.05     5.302094     20.36025     64.42032         7     0.911     0.575   1.54   0
       250    176.6224    303.3629 300.1432437 +22.5332803     298.5057     72.18449      1.321     2.85     5.577204     20.36025     45.67234         5     0.713     0.468 -76.44   0
       251    769.1177    301.4055 300.3284232 +22.7100700     274.9358     72.09254      1.425     4.44     5.143198     20.36025     38.11935         5     1.011     0.554 -45.37   0
       252    712.5441    297.1435 300.3121642 +22.6919189     2001.502     72.23959      1.629     3.28     5.322829     20.36025     186.1767        22     1.282     1.004 -68.18   0
       253    927.4557    290.6523 300.3813096 +22.7543346      527.735     72.20286      1.666     3.45     4.882667     20.36025     57.44035         9     1.011     0.603  -7.07   0
       254    520.5562    291.5829 300.2541319 +22.6328691     277.5733     72.18449      1.313     3.28     5.318224     20.36025     49.79111         6     1.032     0.473   8.81   0
       255    374.1391    281.5657 300.2117814 +22.5861609     2091.827     72.18449      1.761     3.52     5.314543     20.36025     198.4727        26     1.353     1.087  65.31   0
       256    586.1925    280.8033 300.2780794 +22.6494123     414.6159     71.98206      1.423     4.60     5.339389     20.36025      52.7978         8     1.109     0.665 -73.80   0
       257    805.8726    275.8093 300.3481897 +22.7137000     166.2524     72.14772      1.360     4.32     5.075257     20.36025     33.18727         5     0.763     0.696   4.78   0
       258    813.2677    274.6189 300.3508826 +22.7155695      621.535     72.16611      1.516     4.27     5.063343     20.36025     74.33092        12     1.290     0.703  65.75   0
       259    449.8266    260.8803 300.2420587 +22.6028710     1297.926     72.16611      1.654     3.45     5.365445     20.36025     111.3988        23     1.369     1.045  19.85   0
       260     22.7369    260.5020 300.1092919 +22.4748719     338.4808     72.25796      1.654     5.64      5.53818     20.36025     29.83829         7     1.384     0.648  75.70   0
       261    961.5708    257.9007 300.4025807 +22.7551091     455.5505     72.09254      1.896     4.27     4.903871     20.36025     41.81719         6     0.948     0.549 -18.32   0
       262    694.9356    252.9236 300.3210170 +22.6739299      2345.48     72.23959      1.586     3.31     5.362064     20.36025     207.7406        27     1.304     1.126 -81.08   0
       263    833.1630    254.2037 300.3637105 +22.7156454      233.326     72.20286      1.357     4.93     5.144093     20.36025     31.43174         7     0.951     0.724 -47.50   0
       264    956.3836    247.4656 300.4043461 +22.7505544     3333.878     72.14772      1.819     3.52     4.913454     20.36025      276.254        38     1.468     1.317 -66.09   0
       265   1017.5275    242.9112 300.4249104 +22.7675242     449.3967     72.33135      1.720     5.77     4.873537     20.36025      42.1676        10     1.142     0.822  72.34  16
       266   1023.8635    235.4424 300.4293109 +22.7672681     418.1494     54.97117      1.303     4.09     4.865146     20.36025     74.68523         8     1.409     0.339  87.84  24
       267    403.3594    236.8875 300.2353693 +22.5820638     612.8475     72.14772      1.293     2.53     5.365684     20.36025     85.41903        10     0.895     0.719 -54.22   0
       268     78.1787    230.7442 300.1361786 +22.4829304     1266.899     72.20286      1.743     4.67     5.594983     20.36025     104.5286        24     1.584     1.101 -30.40   0
       269    109.0696    231.0548 300.1456837 +22.4922718     607.0417     72.20286      1.596     3.95     5.585265     20.36025     64.82771        10     1.123     0.717 -28.71   0
       270    971.7475    228.3103 300.4153541 +22.7496339     478.6643     72.18449      1.441     3.39     4.910486     20.36025     44.82072         7     0.852     0.594  34.06   0
       271    162.2187    222.8203 300.1648841 +22.5058229     520.6519     72.16611      1.672     5.09     5.562418     20.36025     61.20792         9     1.233     0.651  79.65   0
       272     18.3684    220.1520 300.1210183 +22.4619720      285.758     72.20286      1.353     3.13     5.645195     20.36025     39.87887         5     0.753     0.430  69.29   0
       273    837.7305    217.1790 300.3771427 +22.7063563     260.9502     72.16611      1.471     3.55     5.328579     20.36025     37.21604         5     0.959     0.379   3.57   0
       274    766.5187    214.5822 300.3557724 +22.6843111     606.2686     72.14772      1.368     3.12     5.407144     20.36025     73.94278        10     1.042     0.680  69.33   0
       275    357.0129    214.3496 300.2282478 +22.5617107     401.3949     72.22123      1.445     4.97     5.356931     20.36025     38.60376        10     1.166     0.689 -19.10   0
       276    857.5145    208.1601 300.3862396 +22.7096770     471.9272     72.14772      1.493     3.43     5.308383     20.36025     42.99303         5     0.761     0.448 -68.83   0
       277    864.7354    203.5268 300.3899949 +22.7105027      2261.09     72.20286      1.726     2.88     5.306812     20.36025      239.113        33     1.392     1.218 -78.90   0
       278    283.3137    200.5796 300.2097724 +22.5356893     2114.102     72.09254      1.654     3.07     5.667285     20.36025     219.9175        27     1.394     1.120 -69.78   0
       279    361.2172    195.7221 300.2355965 +22.5576138     1057.095     72.16611      1.701     3.94     5.355792     20.36025     94.51518        18     1.264     0.934 -41.40   0
       280    762.7947    195.3287 300.3608541 +22.6776570     646.0347     72.11094      1.686     4.74     5.413026     20.36025     51.52017        12     1.098     0.856  17.53   0
       281    870.0567    192.4128 300.3952590 +22.7088950      276.647     72.14772      1.224     3.09      5.32858     20.36025     45.01744         5     0.738     0.448  20.43   0
       282    296.8106    187.8347 300.2181052 +22.5360662     257.3459     72.14772      1.433     3.99     5.708665     20.36025     26.58629         6     0.777     0.587  50.16   0
       283    177.9639    188.0067 300.1810695 +22.5005329     711.3497     72.18449      1.608     3.29     5.704053     20.36025     82.62035        12     1.079     0.809 -13.50   0
       284    715.8230    184.8684 300.3495983 +22.6605977     1698.224     72.18449      1.588     3.35     5.395489     20.36025     162.3374        23     1.245     1.074 -70.72   0
       285     30.2721    185.6322 300.1359107 +22.4556203     319.0704     72.16611      1.525     4.21     5.833915     20.36025     35.09496         6     0.948     0.534  42.14   0
       286    780.4948    184.6010 300.3698528 +22.6798635      565.102     72.05573      1.453     4.09     5.415967     20.36025     54.69151        11     0.967     0.828  79.77   0
       287    198.9709    181.3935 300.1897486 +22.5049223      649.314     72.16611      1.951     4.33     5.729946     20.36025     57.62956        11     1.083     0.860 -60.58   0
       288    987.4884    177.7123 300.4366751 +22.7397729      796.389     72.33135      1.644     3.98     5.675461     20.36025       71.135        16     1.155     1.009  30.19   0
       289    719.8698    176.2846 300.3536432 +22.6593382     780.2729     72.27631      1.616     3.79     5.401333     20.36025     84.09899        14     1.113     0.971  47.37   0
       290    489.6783    177.0878 300.2816424 +22.5907021     305.6617     72.31301      1.468     3.95     5.334069     20.36025     36.34496         6     1.002     0.544 -39.41   0
       291    640.4147    175.6082 300.3290918 +22.6353764     1260.749     72.07414      1.547     3.17     5.351789     20.36025     135.7714        17     1.069     0.991 -88.12   0
       292    462.3030    172.2390 300.2746875 +22.5811156     390.0306     72.14772      1.494     2.82     5.326397     20.36025     39.90129         5     0.740     0.436  75.93   0
       293    835.7999    167.0906 300.3927814 +22.6913629     1560.743     72.03732      1.704     3.47     5.413357     20.36025     131.3153        24     1.236     1.135 -84.47   0
       294    566.8041    167.4669 300.3087902 +22.6110122     976.4031     72.14772      1.459     2.52      5.32651     20.36025     117.4744        15     1.019     0.877 -62.56   0
       295    848.2598    166.6236 300.3968200 +22.6949543      831.144     72.14772      1.588     4.15     5.410647     20.36025     101.4161        15     1.218     0.890 -16.80   0
       296   1008.9113    157.3103 300.4499777 +22.7403024     1597.308     72.33135      1.717     3.78     6.156623     20.36025     147.9324        25     1.267     1.222  54.95   0
       297    964.7982    156.7449 300.4363902 +22.7269530     1200.731     72.09254      1.776     4.04     5.773663     20.36025     101.2701        20     1.329     1.027   5.24   0
       298    198.6652    149.6065 300.1999582 +22.4956943     763.2642     72.14772      1.630     3.51     5.844112     20.36025     91.31905        15     1.126     0.897  -0.67   0
       299     60.4553    143.9888 300.1587942 +22.4526946     2194.816     72.16611      1.840     3.54     5.971644     20.36025     197.1738        31     1.366     1.301 -14.77   0
       300    883.8218    141.4396 300.4160802 +22.6983379     658.5813     72.20286      1.631     4.10     5.493474     20.36025      68.1143        16     1.177     0.969 -47.81   0
       301      9.6642    141.5925 300.1437807 +22.4367947     485.0987     72.14772      1.532     4.49     5.965781     20.36025     36.48161         7     1.189     0.482  -5.00   0
       302    217.9011    137.3562 300.2099138 +22.4979320     5646.942     72.16611      1.737     3.21     5.870574     20.36025     544.7989        40     1.397     1.311  64.03   0
       303    200.1985    138.8329 300.2039275 +22.4930566     257.4422     72.12933      1.088     3.67     5.866503     20.36025     35.41491         5     1.266     0.305 -59.02   0
       304      2.3900    131.7276 300.1447171 +22.4317816     1108.832     61.85228      1.604     4.67     5.959472     20.36025     113.5499        18     1.291     1.021 -79.92  24
       305    201.5641    128.2637 300.2077782 +22.4904273     570.6541     72.16611      1.785     5.34     5.888894     20.36025     52.95205        14     1.384     0.787 -21.84   0
       306   1016.9438    125.2570 300.4628767 +22.7334734        18391     72.23959      1.860     3.62     6.222659     20.36025     1570.951        64     1.599     1.450 -79.53  16
       307    862.2371    119.2391 300.4165419 +22.6854936     3543.248     72.23959      1.690     3.34     5.510154     20.36025     342.6524        34     1.397     1.234 -61.84   0
       308    965.7584    118.1113 300.4492140 +22.7161163     2765.713     72.16611      1.796     3.54     5.917695     20.36025     240.7638        33     1.426     1.259 -63.96   0
       309    411.5676    114.5287 300.2775945 +22.5493358      539.093     72.16611      1.422     3.18     5.778162     20.36025     79.99326        12     0.998     0.840 -48.44   0
       310    164.7720    114.6448 300.2007468 +22.4754975     391.1835     72.20286      2.035     4.24     5.915355     20.36025     37.34476         5     1.112     0.461   7.20   0
       311    525.6319    112.1204 300.3139031 +22.5827729     382.8018     72.16611      1.567     4.66     5.302709     20.36025       50.061         8     1.066     0.577 -66.69   0
       312    869.9880    104.4049 300.4237686 +22.6835404     188.0835     72.03732      1.197     4.23     5.565209     20.36025     25.38225         5     0.791     0.645 -88.05   0
       313    102.3518    103.3656 300.1849884 +22.4535663     534.8362     72.20286      1.540     2.87     5.972476     20.36025     56.73285         8     0.874     0.646 -81.57   0
       314    462.9269    101.6425 300.2977660 +22.5609978     1677.135     72.14772      1.605     3.12     5.468591     20.36025      167.157        23     1.194     1.114  82.60   0
       315    335.9380    106.6094 300.2566143 +22.5244247     637.9938     72.09254      1.895     3.86      6.03859     20.36025     56.74446        10     1.218     0.654  14.86   0
       316    390.9972    102.4461 300.2751053 +22.5397052     409.8076     72.16611      1.570     3.29      5.96676     20.36025     58.67603         6     0.946     0.489   6.16   0
       317    206.9193     97.3151 300.2194749 +22.4831339     384.2141     72.31301      1.380     4.22     5.951995     20.36025     40.22437         7     0.778     0.653 -28.56   0
       318    751.1212     91.4568 300.3908864 +22.6442722     372.9802     72.20286      1.214     2.85     5.800124     20.36025     51.81258         5     0.741     0.474  15.72   0
       319    897.0372     86.3545 300.4380593 +22.6864300     455.3586     72.20286      1.789     3.94     5.745291     20.36025     42.77788         6     0.801     0.678  -9.08   0
       320   1022.9003     85.1158 300.4777475 +22.7236936     240.7135     60.50798      1.271     3.86     6.233909     20.36025     35.47594         6     0.923     0.464  35.46  24
       321    236.9184     81.2050 300.2340298 +22.4874825     5928.472     72.09254      1.719     3.40     5.967599     20.36025     571.4789        41     1.434     1.302  77.72   0
       322     88.1448     80.9279 300.1878420 +22.4428636     693.1365     72.18449      1.790     4.28     5.966909     20.36025     57.01633        14     1.277     0.814 -15.60   0
       323    866.1677     79.3550 300.4306955 +22.6751865      276.928     72.22123      1.567     5.21     5.687046     20.36025     38.43924         7     1.222     0.626 -88.73   0
       324    208.8013     75.8143 300.2270283 +22.4775162     261.6925     72.00048      1.292     4.64     5.921394     20.36025     34.55745         6     1.175     0.519 -23.87   0
       325    252.4931     72.6945 300.2416341 +22.4896976     374.2632     72.33135      1.366     3.59     6.009509     20.36025      43.7038         7     0.947     0.488 -82.33   0
       326    483.0510     66.6584 300.3153720 +22.5569555     6255.436     72.22123      1.638     3.17      5.60964     20.36025     594.6978        38     1.421     1.223 -76.07   0
       327    368.5754     66.6924 300.2797112 +22.5227129     572.7653     72.11094      1.542     3.94     6.100275     20.36025     73.76956        14     1.258     0.910 -31.56   0
       328    735.4438     57.4375 300.3970225 +22.6297925     900.9766     72.23959      1.817     5.20     5.952337     20.36025     90.89365        13     1.569     0.730 -78.08   0
       329    676.8088     58.6528 300.3783464 +22.6126082     233.9131     72.16611      1.335     4.27     5.893135     20.36025     30.87461         5     0.953     0.546 -49.62   0
       330    828.2379     55.9069 300.4264609 +22.6570964     373.3968     72.16611      1.367     3.55     5.812351     20.36025     53.76508         7     0.735     0.679  67.66   0
       331    534.6649     49.4533 300.3370266 +22.5674464     412.3677     72.20286      1.595     5.68     5.755887     20.36025     42.18647        10     1.236     0.746  56.43   0
       332    175.9330     50.5546 300.2249880 +22.4604153     447.4028     72.16611      1.685     3.11     5.884964     20.36025     59.10418         6     0.937     0.494   4.09   0
       333    611.3967     46.8291 300.3617879 +22.5896427     6327.802     72.12933      1.641     3.22       5.8684     20.36025      568.081        42     1.420     1.269  86.70   0
       334    386.3090     45.7577 300.2920163 +22.5219984      1527.41     72.16611      1.627     3.40     6.080583     20.36025     150.5697        23     1.235     1.126  54.89   0
       335    652.5251     44.5616 300.3753423 +22.6012906     914.2453     72.12933      1.519     3.05     5.889557     20.36025     93.50888        16     1.025     0.959 -23.55   0
       336    722.2596     42.5330 300.3977410 +22.6215602     362.4326     72.20286      1.406     3.45     5.960776     20.36025     34.01626         5     0.765     0.449 -20.58   0
       337    668.4455     40.1966 300.3817197 +22.6047955     603.7803     72.16611      1.738     3.92     5.896533     20.36025     63.29084         8     0.943     0.791 -88.86   0
       338    938.4897     38.4961 300.4665055 +22.6850399     485.2456     72.34969      1.604     4.14      6.00197     20.36025     44.01747        10     0.974     0.771  71.51   0
       339    135.1461     38.5978 300.2161753 +22.4447681     707.3674     72.12933      1.685     3.42     5.902624     20.36025     68.44422        13     1.140     0.824  -7.94   0
       340    707.1501     36.0034 300.3951455 +22.6151626     397.1826     72.16611      1.328     5.12     5.948511     20.36025     47.55207        10     1.005     0.738 -30.25   0
       341    670.9116     31.1481 300.3854205 +22.6029287     980.4645     72.18449      2.183     5.47     5.900168     20.36025     70.70187        17     1.516     0.914  35.87   0
       342    655.7323     31.8157 300.3804721 +22.5985815     2671.044     72.16611      1.609     3.00     5.915716     20.36025     272.3142        30     1.280     1.168 -67.75   0
       343    296.8776     32.6724 300.2684156 +22.4914732     330.3832     72.25796      1.167     3.13      6.13625     20.36025     52.27609         6     0.949     0.424 -13.69   0
       344    917.8604     26.2319 300.4640411 +22.6753423     260.5176     72.20286      1.444     4.33     6.019712     20.36025     27.95775         5     0.846     0.631 -39.52   0
       345    742.0960     23.4005 300.4101260 +22.6219840     1559.999     72.03732      1.708     3.61      6.02456     20.36025     151.8862        22     1.252     1.126 -46.32   0
       346    902.6433     21.9280 300.4606868 +22.6695547     408.4572     72.14772      1.679     4.42     6.043824     20.36025     38.03709         6     1.144     0.646 -51.31   0
       347    679.9985     16.9911 300.3928404 +22.6015714     746.7739     71.98206      1.711     3.83      5.91619     20.36025     80.23312        11     1.116     0.751  -0.54   0
       348    623.5659    987.0569 300.0603072 +22.8635660     5886.948     72.18449      1.766     4.54     3.944632     20.36025     439.9955        26     1.552     0.992  85.81   3
       349     59.0056     16.2094 300.1997510 +22.4155376     547.2183     72.01891      1.817     3.60     5.949263     20.36025     51.24655         9     0.986     0.632 -26.87   0
       350    629.4167    984.8226 300.0628574 +22.8646778     6198.963     72.14772      1.758     4.53     3.988253     20.36025     458.4217        35     1.660     1.039  87.51   3
       351    771.9174     13.0185 300.4227901 +22.6279114     417.3041     72.12933      1.620     2.82     6.112276     20.36025     52.84599         7     0.846     0.639 -30.06   0
       352    284.9890   1012.3980 299.9466293 +22.7693412     896.2158     71.98206      1.926     5.61     11.00038     20.36025     72.27885        19     1.365     1.253  11.45   0
       353     66.3312    947.5161 299.8997269 +22.6851448     5313.745     72.27631     29.332   122.41     28.25287     20.36025     1260.492      4832    22.313    18.633 -58.20  27
