#   1 NUMBER                 Running object number                                     
#   2 X_IMAGE                Object position along x                                    [pixel]
#   3 Y_IMAGE                Object position along y                                    [pixel]
#   4 ALPHA_J2000            Right ascension of barycenter (J2000)                      [deg]
#   5 DELTA_J2000            Declination of barycenter (J2000)                          [deg]
#   6 FLUX_APER              Flux vector within fixed circular aperture(s)              [count]
#   7 FLUXERR_APER           RMS error vector for aperture flux(es)                     [count]
#   8 FLUX_RADIUS            Fraction-of-light radii                                    [pixel]
#   9 FWHM_IMAGE             FWHM assuming a gaussian core                              [pixel]
#  10 BACKGROUND             Background at centroid position                            [count]
#  11 THRESHOLD              Detection threshold above background                       [count]
#  12 FLUX_MAX               Peak flux above background                                 [count]
#  13 ISOAREA_IMAGE          Isophotal area above Analysis threshold                    [pixel**2]
#  14 A_IMAGE                Profile RMS along major axis                               [pixel]
#  15 B_IMAGE                Profile RMS along minor axis                               [pixel]
#  16 THETA_IMAGE            Position angle (CCW/x)                                     [deg]
#  17 FLAGS                  Extraction flags                                          
         1    241.2908     17.0878 300.2867864 +22.4628537     773.1277     72.68111      1.372     2.94     5.031227      20.4587     88.04404        11     1.027     0.675  56.14   0
         2    475.6582     13.3866 300.3608929 +22.5319893     1391.181     72.47811      1.324     2.41     4.839837      20.4587     178.3921        15     0.969     0.828 -81.67   0
         3    581.2257     10.0352 300.3948433 +22.5626351     1367.417     72.53352      1.432     2.62     4.817367      20.4587     164.7975        18     1.110     0.931  59.02   0
         4    176.4095      9.0280 300.2692287 +22.4410989      586.115     72.51506      1.505     3.47      4.95216      20.4587     68.81648        13     1.080     0.877 -76.42   0
         5    225.2392      6.8772 300.2851053 +22.4551111     298.5214     72.49659      1.221     3.06     4.981925      20.4587     70.99834         9     0.912     0.690 -86.14   0
         6    401.4861      3.9043 300.3408849 +22.5070510     2274.766     68.81913      1.362     2.43     4.958782      20.4587     288.4867        25     1.180     0.987  69.66  24
         7     48.8276      2.2855 300.2317683 +22.4009304      1250.29     61.63199      1.384     2.80     5.799851      20.4587     165.3308        17     1.114     0.912  24.97  24
         8    410.0962   1002.6675 300.0191626 +22.7963791     978.2534      72.6258      1.680     4.19     3.640577      20.4587     86.62831        18     1.222     1.025 -29.96   0
         9    186.4624   1019.1806 299.9442523 +22.7339811     3524.588     72.49659      9.258    31.53     14.63953      20.4587     99.20287       330     7.005     4.899  13.42  26
        10    156.4521   1022.8260 299.9337398 +22.7260147     804.5489      61.0424      5.266     6.74     22.16218      20.4587     40.76823         9     1.933     0.660 -21.11  27
        11    146.1932   1024.0000 299.9301699 +22.7232706     569.5303     54.28307      2.576     3.92     25.12921      20.4587     39.28858         5     1.526     0.289   0.00  25
        12    100.2606   1018.1647 299.9177982 +22.7078048     2325.324     72.53352      9.400    15.13     36.11228      20.4587     59.41039        92     3.095     2.661  56.01  27
        13     75.2364   1011.2754 299.9122668 +22.6983154     878.8688     72.47811      5.666     6.80     44.79905      20.4587     33.61433         8     1.463     0.888 -54.80   3
        14     78.5408   1014.4556 299.9122583 +22.7002191     966.5616     72.58891      6.539    12.90     44.23193      20.4587     35.13474        18     3.964     1.168 -86.15  19
        15     82.6197   1014.5981 299.9134789 +22.7014849     1292.255     72.44114      4.821    10.58      42.7219      20.4587     47.17313        26     2.806     1.112 -75.30  19
        16     85.7805   1018.3137 299.9132514 +22.7034989     1893.694     72.44114      5.613    13.45     42.42017      20.4587     51.79337        40     2.882     1.746 -71.50  19
        17     60.2175   1019.8150 299.9048223 +22.6962519     1182.568     72.14471     11.558    12.70     56.52582      20.4587     51.34544        26     2.719     1.652  55.51  27
        18     25.4379    998.8430 299.9008459 +22.6797969     923.5889     72.60735      2.536    11.99     58.88584      20.4587     42.13625        22     2.155     1.857 -58.53   3
        19     33.9830    998.7960 299.9035151 +22.6823499      2095.24     72.44114      5.610    12.36     55.38282      20.4587     57.44203        50     2.139     1.987  59.80   3
        20     38.3136    994.5732 299.9062343 +22.6824405     1576.649     72.51506     10.780    13.25     51.16168      20.4587     45.98782        34     2.866     1.705 -46.02   3
        21     39.4893   1017.2859 299.8992074 +22.6893017     3119.723     72.68111      6.375    27.96     65.31966      20.4587     64.18973       227     5.600     3.877  32.03  27
        22     34.5991   1005.6099 299.9014888 +22.6844874     2095.701     72.33012      4.115    15.65     59.77987      20.4587     61.20279        67     3.617     1.882 -11.64  19
        23    340.6260   1000.8751 299.9981379 +22.7750146     6582.372     72.51506      1.692     3.43     3.795895      20.4587     533.3268        44     1.409     1.293 -43.09   0
        24    168.6762   1014.3588 299.9402943 +22.7272585     1053.246     72.47811      5.429     6.68     17.65363      20.4587     48.53815        13     1.567     1.059   9.46  19
        25     66.9754   1000.0031 299.9133695 +22.6926043     1584.349     72.45963      9.796    12.29     43.03347      20.4587      50.3905        33     2.443     1.722  52.90   2
        26    693.6901   1002.6718 300.1074394 +22.8814673     410.7585     72.68111      1.940     4.90     2.849168      20.4587     29.20017         6     0.917     0.740 -16.68   0
        27     91.0203    995.0031 299.9224659 +22.6983924     2458.406     72.45963      0.456     2.44     31.78298      20.4587     1560.201         8     0.447     0.400 -40.10   0
        28     47.9141    989.8300 299.9107597 +22.6839646     922.3608     72.51506      6.199     6.81     44.46987      20.4587     44.17722        16     1.606     1.065 -14.63   3
        29    373.3592    987.9979 300.0125096 +22.7811467     386.9095     72.51506      1.476     3.56     3.741096      20.4587     47.12626         7     0.879     0.666  86.34   0
        30     34.3196    983.5715 299.9085742 +22.6780885     2027.335     72.53353      7.310    23.04     45.03807      20.4587      52.4644       105     5.077     2.905  -0.78   3
        31     28.4475    975.2145 299.9094700 +22.6739302      1376.41     72.53352      3.908     7.97     40.31739      20.4587     52.32085        19     2.368     0.750 -35.82   3
        32     35.8237    970.1030 299.9134242 +22.6746807     2217.097     72.44114      6.301    19.78     34.94656      20.4587     52.59441       100     4.260     2.551 -27.36   3
        33    675.9187    968.3649 300.1130703 +22.8662923     962.8581     72.45963      2.065     6.69     3.137235      20.4587     61.20784        16     1.600     0.785  55.32   0
        34    887.0057    979.4464 300.1752384 +22.9327723     2144.885     72.51506      1.752     3.65      3.21486      20.4587     151.9454        27     1.276     1.220  17.86   0
        35   1002.7553    967.0118 300.2153790 +22.9639003     465.9878     72.51506      1.777     4.69     3.294443      20.4587     47.05897         5     0.904     0.690 -85.97   0
        36    537.0418    976.3907 300.0672175 +22.8269349      521.742     72.51506      2.041     6.33     2.931506      20.4587     30.18159        10     1.260     0.892 -13.22   0
        37    488.2813    963.4999 300.0562368 +22.8086072     576.4576     72.64423      1.843     4.63     2.937293      20.4587     59.36195         9     1.085     0.767   9.21   0
        38    710.4692    962.3484 300.1257901 +22.8749282     1053.812     72.49659      1.688     3.29     3.190758      20.4587     108.8448        17     1.100     0.970  58.55   0
        39    732.8022    956.1768 300.1347558 +22.8798546      11381.5     72.45963      1.601     3.07     3.242119      20.4587     972.5558        53     1.381     1.323 -58.67   0
        40    923.7311    955.7874 300.1943885 +22.9369896     416.7053     72.53352      1.603     4.82     3.302547      20.4587     44.10418         8     0.984     0.764  27.42   0
        41    778.3536    955.6495 300.1491197 +22.8933631     478.4804     72.53353      1.365     3.10     3.255373      20.4587     55.04495        10     0.860     0.811 -50.00   0
        42     44.4924    947.8564 299.9233555 +22.6709087     176.2386     72.57045      1.240     3.16     19.32596      20.4587     55.91928         8     0.874     0.740  -3.20   0
        43    785.0070    943.8732 300.1550253 +22.8919779      333.698     72.45963      1.506     5.11     3.308967      20.4587     39.61674         7     0.880     0.839 -60.05   0
        44    438.1726    944.0848 300.0469627 +22.7880029      537.603     72.51506      1.639     4.77     3.388051      20.4587     41.99007         7     1.011     0.638 -89.35   0
        45    741.3445    938.3541 300.1432171 +22.8773009     1442.515     72.55199      1.571     3.23     3.384777      20.4587      134.047        19     1.093     1.019 -89.16   0
        46    924.5759    937.3192 300.2006621 +22.9319400     383.6066     72.47811      1.641     4.59     3.379213      20.4587      38.0558         8     0.996     0.600  17.68   0
        47    593.4319    935.6236 300.0980388 +22.8321554     537.4849     72.51506      1.624     3.84     3.363927      20.4587     47.12226         7     0.931     0.566 -33.69   0
        48    457.1595    936.5907 300.0553090 +22.7915504     254.0812     72.51506      1.234     3.41     3.188555      20.4587     28.67624         5     0.788     0.427 -21.64   0
        49    779.4645    931.8767 300.1572021 +22.8868724     826.1725     72.60735      1.685     3.87     3.370096      20.4587     72.62572        15     1.122     1.014  27.42   0
        50    827.9138    922.7761 300.1752619 +22.8987864     557.0727     72.47811      1.512     3.24     3.398004      20.4587     59.28104        12     1.062     0.720  78.65   0
        51    678.9745    922.1221 300.1290704 +22.8539381     630.8943     72.51506      1.493     4.77     3.480592      20.4587     63.00684        11     0.957     0.910 -20.83   0
        52    690.8849    919.2683 300.1337088 +22.8566909     585.9922     72.60735      1.511     4.58     3.483979      20.4587     69.06954        14     1.268     0.872  34.67   0
        53    391.7879    918.4459 300.0408750 +22.7667304      4166.02     72.51506      1.569     3.15     3.653198      20.4587     386.7563        33     1.281     1.157 -38.78   0
        54    170.6276    907.6395 299.9756279 +22.6972531     344.9981     72.55199      1.476     3.45     5.006759      20.4587     33.20058         5     1.016     0.339 -68.89   0
        55    435.3837    906.7249 300.0582511 +22.7764496     319.9042     72.51506      1.380     5.55     3.458301      20.4587     41.21201         8     1.088     0.801 -46.77   0
        56     54.0452    906.4861 299.9397825 +22.6619206     503.5577     72.49659      1.802     4.24     6.480577      20.4587       35.993         6     0.977     0.525 -76.15   0
        57    117.1978    904.3298 299.9601024 +22.6802639     940.9935     72.45963      2.176     4.51     6.342162      20.4587     66.02851        17     1.237     1.008 -49.73   0
        58     94.1205    901.4016 299.9538854 +22.6724959     1482.857     72.42265      1.702     3.74     6.693836      20.4587     150.2675        24     1.269     1.193 -19.89   0
        59     26.1713    902.7217 299.9323498 +22.6524718     489.2894     72.51506      1.839     3.96     5.996385      20.4587     50.49626         6     0.784     0.572 -53.77   0
        60    966.0691    890.0803 300.2289721 +22.9308114     2127.131     72.62579      1.573     3.09     3.420736      20.4587     175.3517        27     1.330     1.098 -52.41   0
        61    920.1579    888.4935 300.2151721 +22.9165952     2047.797     72.53352      1.537     3.21     3.443092      20.4587     176.3634        22     1.140     1.033 -13.97   0
        62    625.6573    888.7745 300.1233161 +22.8283772     504.7341     72.51506      1.758     5.01     3.588359      20.4587     41.24039         9     0.892     0.796   0.78   0
        63    126.3540    882.9919 299.9698887 +22.6768959     539.3029     72.53352      1.621     3.54     5.117727      20.4587     55.41037        11     1.027     0.797 -83.32   0
        64    703.8066    882.5850 300.1496691 +22.8500369     538.7335     72.42265      1.544     4.77     3.539139      20.4587      61.5272        14     1.324     0.819 -19.10   0
        65    571.7856    876.4835 300.1105415 +22.8086924     4641.765     72.47811      1.441     2.66     3.552699      20.4587     475.6373        33     1.186     1.130 -70.13   0
        66     61.6436    877.4487 299.9515886 +22.6558791     364.3615     72.55199      1.583     5.52     5.102119      20.4587     34.32453         8     0.993     0.865  28.75   0
        67    373.9780    873.6382 300.0499125 +22.7485341     617.4351     72.53352      1.515     3.43     3.596782      20.4587     62.90701        11     0.980     0.762  76.75   0
        68    121.9298    870.4850 299.9725824 +22.6719823     1264.289      72.6258      1.687     3.72     4.542182      20.4587     110.9699        24     1.259     1.176 -10.61   0
        69    592.6226    868.9515 300.1194790 +22.8127807     834.7968     72.51506      1.566     4.06     3.600478      20.4587     81.28293        16     1.276     0.933 -33.35   0
        70    141.0372    867.7560 299.9794071 +22.6769359     436.3631     72.58891      1.633     5.50     4.380186      20.4587     40.03742        10     1.195     0.937  63.71   0
        71    508.8253    859.8566 300.0963522 +22.7850362     263.1021     72.51506      1.435     2.00     3.619584      20.4587     57.17195         6     0.725     0.518  48.92   0
        72    964.9566    856.2350 300.2396364 +22.9207574     1060.365     72.57045      1.594     3.78     3.393087      20.4587     82.46133        20     1.174     1.089  29.75   0
        73    747.8705    856.1078 300.1720099 +22.8556486     4032.002     72.64423      1.413     2.69     3.499263      20.4587     455.2518        30     1.160     1.090 -64.74   0
        74    156.1233    850.7174 299.9896371 +22.6765794      547.561      72.6258      1.534     4.55     4.229334      20.4587     56.73975        14     1.201     1.011  53.28   0
        75    464.6990    848.6920 300.0862516 +22.7685960     690.8447     72.69953      1.588     3.15     3.578833      20.4587     69.45497        12     1.010     0.837  68.52   0
        76    111.3735    846.8228 299.9769991 +22.6620296     1020.704     72.49659      1.613     3.52     4.263121      20.4587     104.8783        16     1.173     0.951 -83.07   0
        77    260.8690    838.9247 300.0260301 +22.7046359     52550.45     72.58891      1.544     2.91     4.033038      20.4587     5270.876       106     1.460     1.424  54.15   0
        78    526.6620    842.0523 300.1076953 +22.7852777     436.1543     72.57045      1.317     3.27     3.690245      20.4587     69.84401         9     0.928     0.787  16.20   0
        79    518.6741    837.8960 300.1065609 +22.7816890     1548.822     72.66267      1.390     2.50     3.683075      20.4587     202.8743        19     1.046     0.959 -14.74   0
        80    931.7398    836.9660 300.2355465 +22.9052682     845.5447     72.53352      1.492     3.64     3.425133      20.4587     77.54917        17     1.144     0.996  21.81   0
        81    189.1181    837.2908 300.0042580 +22.6826332     556.5576      72.6258      1.855     5.52     4.198511      20.4587     40.46014        10     1.052     0.815  87.19   0
        82    547.6709    833.8611 300.1168991 +22.7892284     822.8782     72.55199      1.262     2.75     3.752301      20.4587     99.05428        11     0.912     0.746  74.94   0
        83    558.4288    832.1056 300.1208190 +22.7919512     534.1071     72.44114      1.422     3.29     3.737142      20.4587     60.41545        10     0.884     0.788  67.14   0
        84    878.7756    829.5660 300.2214405 +22.8872691     430.9451     72.53352      1.605     4.20     3.474769      20.4587     41.51437         9     0.897     0.782 -25.12   0
        85    664.1240    828.5941 300.1548722 +22.8226400     474.5124     72.42265      1.412     4.76      3.68226      20.4587     58.54198         9     1.246     0.631 -78.22   0
        86    310.5728    816.1591 300.0488888 +22.7130216     31090.91     72.55199      1.521     2.68     3.827598      20.4587     3427.708        80     1.369     1.341  59.13   0
        87    701.5401    818.9607 300.1696597 +22.8310934     657.9384     72.51506      1.311     2.64     3.637343      20.4587     92.62483        10     0.902     0.691  59.45   0
        88    324.7776    816.7355 300.0531187 +22.7174492     1964.017     72.49659      1.507     2.80      3.75245      20.4587     205.3319        22     1.105     1.028  36.82   0
        89    833.6524    811.8268 300.2131450 +22.8686501     2694.983     72.53352      1.428     2.54     3.490265      20.4587     331.5034        24     1.130     1.029 -45.28   0
        90    321.5356    810.6776 300.0540806 +22.7147387     652.3521     72.60735      1.835     3.81     3.773716      20.4587     63.08221        12     1.037     0.832  51.57   0
        91    862.7548    810.4880 300.2226517 +22.8769885     323.1736     72.49659      1.498     5.01     3.492022      20.4587     33.87148         8     1.044     0.679 -39.58   0
        92    591.5787    808.2427 300.1389008 +22.7950443     873.4871     72.55199      1.337     2.47     3.694783      20.4587     128.7132        14     0.902     0.888  23.53   0
        93    428.2655    807.9400 300.0881697 +22.7459741     487.9164     72.55199      1.471     3.86      3.59636      20.4587     53.13466         9     1.064     0.680 -45.32   0
        94    193.1395    807.9510 300.0150498 +22.6754268     669.3366     72.57045      1.431     3.54     4.144978      20.4587      86.9872        12     1.055     0.780 -32.68   0
        95    485.7640    806.1315 300.1066495 +22.7627028     277.7054     72.51506      1.432     3.92     3.623881      20.4587     44.30842         6     1.049     0.610   1.36   0
        96    438.5747    802.9800 300.0929904 +22.7476435      856.668     72.51506      1.421     2.80     3.602629      20.4587     106.7697        15     1.000     0.880 -46.27   0
        97    839.5875    798.9153 300.2191942 +22.8667212     593.0244     72.45963      1.593     5.75     3.506067      20.4587     55.22816        10     1.499     0.621  47.92   0
        98    340.8615    798.9567 300.0639026 +22.7171750     376.7958     72.51506      1.351     4.22     3.677549      20.4587     56.21817         7     1.197     0.442  41.94   0
        99    297.1037    798.7653 300.0503571 +22.7039909     279.6718     72.51506      1.347     2.51     3.923885      20.4587     47.62243         5     0.682     0.669  15.80   0
       100     26.6395    797.5087 299.9667153 +22.6224545     570.2833     72.51506      2.168     4.93     4.171022      20.4587     42.90559         8     0.962     0.790  27.08   0
       101    384.8785    797.4705 300.0780769 +22.7299545     366.9561      72.6258      1.427     4.20     3.619159      20.4587     45.47551         6     0.777     0.648  33.28   0
       102    593.7263    796.6854 300.1433281 +22.7923711     336.8554     72.64424      0.952     2.42     3.714986      20.4587     49.76985         5     0.725     0.435  16.17   0
       103    817.3422    794.4755 300.2137048 +22.8587785     373.3894     72.57045      1.108     3.59     3.535248      20.4587     47.36047         6     0.876     0.474  89.83   0
       104    190.8864    792.1688 300.0194818 +22.6702247     582.4333     72.49659      1.551     5.34      4.12097      20.4587     55.07988         9     1.066     0.755  78.92   0
       105    513.9928    782.7314 300.1230449 +22.7644544     408.9205     72.47811      1.267     2.37     3.831331      20.4587     58.15217         8     0.772     0.653  38.28   0
       106    483.5270    780.7988 300.1141916 +22.7547623     542.5068     72.40415      1.520     4.11     3.720266      20.4587     75.17588        11     0.996     0.940 -37.12   0
       107    521.7138    780.9986 300.1260116 +22.7662727     189.6825     72.44114      1.060     3.12     3.872441      20.4587     32.31317         7     0.729     0.672  83.40   0
       108    899.9972    777.0846 300.2451256 +22.8785562     4586.407     72.44114      1.432     2.78     3.608548      20.4587     499.3609        31     1.186     1.108 -49.56   0
       109    505.5905    778.3903 300.1218414 +22.7606885     1294.146     72.40415      1.286     2.16     3.822447      20.4587     183.1125        14     0.923     0.780  52.66   0
       110    425.0598    777.8149 300.0969689 +22.7363688     361.1596     72.47811      1.420     3.32     3.707973      20.4587     55.48977         7     0.950     0.714  71.42   0
       111    587.4875    772.7290 300.1491762 +22.7836240     291.2195     72.68111      1.198     4.11     3.847167      20.4587     39.71602         7     1.000     0.483  81.49   0
       112    888.4766    768.4927 300.2443279 +22.8726359     1682.657     72.66267      1.508     2.79     3.676708      20.4587     166.2044        23     1.196     1.061  -7.30   0
       113    117.5092    763.6323 300.0059583 +22.6400189     327.4605     72.45963      1.407     4.97     4.117024      20.4587     27.25758         7     1.567     0.446 -30.34   0
       114    251.4937    762.7399 300.0478905 +22.6799718      866.548     72.60735      1.482     2.81     4.018351      20.4587     106.4711        14     1.017     0.864  27.10   0
       115    714.6537    759.8498 300.1929682 +22.8180539     2545.165     72.55199      1.458     2.56     3.751468      20.4587     319.0403        25     1.290     1.039  -3.09   2
       116    919.6439    758.7134 300.2572254 +22.8791666     1663.865     72.49659      1.436     2.56     3.720161      20.4587     189.6266        21     1.124     1.004  74.15   0
       117    100.4248    746.6268 300.0061793 +22.6300148     637.0939     72.47811      1.480     3.15     4.133291      20.4587     65.34386        12     1.056     0.783  49.89   0
       118    797.1084    745.8070 300.2232256 +22.8387373     603.9873     72.42265      1.644     3.51     3.810824      20.4587     68.12479        12     1.070     0.823  19.81   0
       119    833.2829    736.8040 300.2374270 +22.8469933     145967.5     72.44114      1.399     2.39      3.87182      20.4587     18588.56       170     1.437     1.395 -75.82   0
       120    980.3080    738.5267 300.2827072 +22.8915440     1225.147     72.66267      1.421     2.62     3.166557      20.4587     126.7743        16     0.977     0.930  83.23   0
       121    595.7639    740.6091 300.1621972 +22.7768855      242.045     72.51506      0.971     1.94     3.959159      20.4587     53.22448         5     0.659     0.470  16.52   0
       122    685.9251    736.9688 300.1914590 +22.8028719     710.3373     72.51506      1.309     2.93     3.859531      20.4587     95.85838        12     0.974     0.777 -60.69   0
       123    865.9019    729.5289 300.2499601 +22.8546790     450.5031     72.66267      1.248     3.40     3.925755      20.4587     49.93583         8     0.869     0.662  47.38   0
       124    519.4704    725.6743 300.1433020 +22.7497213     1401.527     72.58891      1.199     2.20     4.178054      20.4587     224.7177        15     0.931     0.815  52.91   0
       125    700.7738    722.9470 300.2006432 +22.8032970     9170.836     72.53352      1.339     2.25     3.854086      20.4587     1330.587        45     1.206     1.106 -88.68   0
       126    202.2671    718.2506 300.0470521 +22.6524397     4823.458     72.49659      1.448     2.71     4.060347      20.4587     525.9896        31     1.178     1.122 -86.88   0
       127    284.2245    716.3033 300.0731641 +22.6764713     1200.225     72.42265      1.402     2.58     3.870565      20.4587     138.9244        17     1.018     0.964  21.38   0
       128    159.7533    714.3637 300.0351026 +22.6385676     430.5431     72.55199      1.525     4.73     4.035403      20.4587     47.96518        11     1.067     0.937  82.38   0
       129    492.3470    711.7889 300.1393742 +22.7376020     627.1665     72.51506      1.226     2.63     4.318841      20.4587     105.8291        11     0.938     0.754 -87.33   0
       130    484.2034    703.9367 300.1393925 +22.7329061     3419.942     72.49659      1.318     2.30     4.432417      20.4587     444.6387        24     1.033     0.984  81.75   0
       131     10.3083    700.6132 299.9931450 +22.5897723     267.5995     72.45963      1.722     5.54     4.442436      20.4587     30.77479         6     1.020     0.848  60.27   0
       132    474.3760    697.3734 300.1384678 +22.7280752     1471.934     72.47811      1.424     2.49     4.507255      20.4587     184.6569        21     1.258     0.988  54.86   0
       133    868.0473    695.3660 300.2617357 +22.8455084     536.1025     72.55199      1.516     2.93     4.164772      20.4587     58.14523         9     0.868     0.679 -60.02   0
       134    669.4457    696.2812 300.1995540 +22.7862490      359.322     72.49659      1.676     3.41     3.924881      20.4587     36.38725         5     0.766     0.438  68.09   0
       135    137.7283    693.9409 300.0348969 +22.6261007     661.7961     72.55199      1.448     3.44     4.071032      20.4587     83.35789        12     1.051     0.839 -89.63   0
       136    152.0194    692.1896 300.0399070 +22.6298869     617.1029     72.49659      1.392     3.78     4.048359      20.4587      63.3677         9     0.803     0.783  35.26   0
       137    177.9599    689.3660 300.0488865 +22.6368609     471.8755     72.55199      1.230     3.83     4.044797      20.4587     82.19553        10     1.198     0.647 -74.42   0
       138    208.6013    689.1968 300.0584653 +22.6460063     433.8876     72.29308      1.471     3.60     4.064881      20.4587     51.12281         9     0.904     0.860 -26.08   0
       139    921.4224    688.6937 300.2805457 +22.8595842     507.1929     72.42265      1.085     2.56     4.058806      20.4587     69.57587         7     0.878     0.480  80.79   0
       140    498.2805    687.9236 300.1489790 +22.7325313     435.8662      72.6258      1.344     3.46     4.641289      20.4587     56.79547         9     0.992     0.653  17.59   0
       141    399.2930    687.4094 300.1183448 +22.7026977     1859.546     72.44114      1.365     2.38     4.249977      20.4587     204.3916        20     1.065     0.936  28.96   0
       142    432.9565    686.5031 300.1291128 +22.7125338     262.5406     72.53352      1.196     4.66     4.429455      20.4587     40.59127         7     0.902     0.684 -65.27   0
       143    974.9423    684.5455 300.2985841 +22.8744264     741.4341     72.57045      1.377     3.65     3.723676      20.4587      85.6274        11     0.986     0.742  75.90   0
       144     53.2289    682.4454 300.0123810 +22.5974452      19504.1     72.55199      1.587     2.84     4.361954      20.4587     1943.819        66     1.411     1.349  34.20   0
       145    484.2148    682.6329 300.1463212 +22.7267948     1002.075     72.49659      1.310     2.42      4.74214      20.4587     138.1532        13     0.909     0.816  69.61   0
       146    519.3549    681.8742 300.1575047 +22.7371141     384.2177     72.49659      1.221     2.47     4.667351      20.4587     55.43895         7     0.717     0.638 -76.57   0
       147    902.1398    668.6017 300.2810648 +22.8480345     961.4174     72.47811      1.249     2.51     4.189717      20.4587     140.3816        14     0.995     0.786  66.77   0
       148    768.9741    666.9031 300.2401102 +22.8076436     551.0775     72.45963      1.341     2.35     4.078959      20.4587     75.06097         9     0.750     0.745  12.61   0
       149     65.8478    667.0789 300.0212951 +22.5968257     455.5076     72.51506      1.560     2.66     4.313118      20.4587     43.18543         8     0.801     0.650  41.51   0
       150      1.1176    666.4019 300.0014101 +22.5772042     256.2537     55.01831      0.861     2.90     4.706656      20.4587     50.52227         5     0.932     0.318 -86.46  24
       151    447.6565    663.1562 300.1412754 +22.7102414     381.9418     72.51506      1.256     2.73     4.707567      20.4587      73.5673         9     0.838     0.741  -5.04   0
       152    842.3447    661.5137 300.2647281 +22.8280821     856.3292     72.57045      1.522     2.80     4.301308      20.4587     84.21239        13     0.975     0.785 -61.75   0
       153    240.1186    662.3748 300.0769805 +22.6477676     292.2192     72.49659      1.200     2.20     3.991602      20.4587     55.12765         7     0.691     0.648   2.28   0
       154    404.4505    655.5939 300.1302903 +22.6951138     720.1431     72.49659      1.301     2.31      4.45083      20.4587     86.36382        11     0.843     0.765  28.70   0
       155    552.2100    654.0682 300.1767698 +22.7389827     374.7744     72.51506      1.221     2.64      4.69679      20.4587     76.06554         8     0.955     0.519  38.90   0
       156    599.4854    652.5804 300.1919721 +22.7527286     407.8549     72.44114      1.008     2.94     4.393157      20.4587     64.80492         7     0.897     0.565 -69.11   0
       157    570.0088    652.1241 300.1829428 +22.7437607     492.1154     72.49659      1.201     2.23     4.587841      20.4587     78.44966         9     0.749     0.715 -21.14   0
       158    448.4308    651.2119 300.1453983 +22.7070452     820.7454     72.51506      1.278     2.34     4.742167      20.4587     112.6198        11     0.890     0.708 -44.11   0
       159    882.3079    646.7858 300.2819729 +22.8358248     3268.774     72.44114      1.336     2.30     4.263719      20.4587      439.568        29     1.174     0.995  41.35   0
       160    413.9848    646.9017 300.1360816 +22.6954784     1620.683     72.42265      1.265     2.23     4.585394      20.4587     251.2972        16     0.950     0.860 -48.01   0
       161    980.3920    644.7575 300.3132171 +22.8646256     750.0568     72.53352      1.548     3.46     3.826814      20.4587     83.84768        13     1.036     0.882  31.06   0
       162    764.1600    642.7455 300.2464621 +22.7992621     252.4456     72.51506      1.440     4.42     4.136899      20.4587      27.7443         7     0.895     0.622  33.65   0
       163    443.1418    637.8803 300.1480853 +22.7016326     166.6143     72.55199      1.083     2.69     4.761399      20.4587     46.62321         5     0.760     0.501  41.83   0
       164    234.9226    637.3151 300.0835093 +22.6390191     243.8382      72.6258      1.222     4.01     3.929862      20.4587     32.68288         6     1.522     0.302 -60.20   0
       165    921.8963    636.7175 300.2975883 +22.8447923     363.8669     72.68111      1.360     3.02     4.115715      20.4587     46.64098         6     0.834     0.565 -85.53   0
       166    277.4448    633.6900 300.0979077 +22.6507348     9152.914     72.49659      1.378     2.39     3.837948      20.4587     1142.922        42     1.190     1.156  70.07   0
       167    399.8535    630.6392 300.1369703 +22.6865729     9003.308     72.51506      1.343     2.30     4.488558      20.4587     1270.191        41     1.179     1.113  65.09   0
       168    804.1657    628.1928 300.2636585 +22.8070699     276.0316     72.51506      1.184     3.11     4.302554      20.4587      42.3329         5     0.753     0.659 -35.12   0
       169    164.9117    628.0345 300.0647640 +22.6153527     492.2186     72.49659      2.015     3.53     3.920259      20.4587     50.60169         8     0.960     0.654  63.47   0
       170   1004.4486    625.9844 300.3268221 +22.8664362     925.0052     72.55199      1.367     2.62     3.721911      20.4587     126.4391        13     0.978     0.747  48.94   0
       171    646.0497    626.9865 300.2147905 +22.7593375     166.2043     72.55199      1.171     3.21      4.34945      20.4587     35.77119         5     0.640     0.587   0.59   0
       172    811.4918    624.6215 300.2671024 +22.8082391      1822.38     72.45963      1.270     2.22      4.30868      20.4587     220.0863        17     0.978     0.825  80.81   0
       173     43.6020    626.3523 300.0276201 +22.5784697     331.8163     72.49659      1.569     4.11     4.432436      20.4587     38.38626         6     1.061     0.454  34.96   0
       174    896.1836    621.8713 300.2943963 +22.8328235     12221.29     72.51506      1.333     2.26     4.211917      20.4587     1748.798        48     1.198     1.141 -58.87   0
       175    460.4556    620.2339 300.1592076 +22.7017589     11355.81     72.53353      1.267     2.24     4.856477      20.4587     1432.158        44     1.165     1.083  71.47   0
       176    187.9323    615.7797 300.0759008 +22.6187436     1378.555     72.49659      1.477     2.80      3.88498      20.4587     154.7401        18     1.088     0.921   2.84   0
       177    629.9836    616.1182 300.2133190 +22.7514007     585.2333     72.49659      1.277     2.64     4.497028      20.4587     78.64363         9     0.873     0.657  20.16   0
       178    345.8647    614.9955 300.1252600 +22.6658918     226.8124     72.51506      1.080     3.25     3.814782      20.4587     39.69543         5     0.796     0.483 -23.82   0
       179    434.6998    613.0909 300.1535144 +22.6919855     379.0746     72.68111      1.262     2.34     4.832678      20.4587     68.97678         9     0.856     0.635  26.37   0
       180    392.1649    608.4843 300.1417779 +22.6779083     4500.838     72.47811      1.288     2.26     4.425373      20.4587      563.701        30     1.108     1.026  75.22   0
       181    734.9951    608.3463 300.2485544 +22.7806413     809.8591     72.49659      1.153     1.99     4.212772      20.4587     124.5905         9     0.820     0.601  51.54   0
       182    370.3993    606.8146 300.1355497 +22.6709018     1203.996     72.36714      1.255     2.23      4.07463      20.4587     181.6561        16     0.943     0.872  20.55   0
       183    124.5418    606.2913 300.0592841 +22.5970030     817.7189     72.57045      1.615     3.82     3.966202      20.4587     110.0868        13     1.111     0.981 -34.93   0
       184    811.9176    603.7871 300.2740058 +22.8023813     1632.482     72.49659      1.393     2.67     4.334056      20.4587     201.0993        21     1.113     0.964 -16.75   0
       185    508.7419    595.9841 300.1821151 +22.7092746     198215.2     72.49659      1.308     2.09     4.898135      20.4587     31461.24       216     1.445     1.440  34.76   0
       186     58.7866    604.0396 300.0395869 +22.5766270     202.6058     72.53352      1.081     3.03     4.325884      20.4587     41.25518         7     0.701     0.694  22.33   0
       187    332.5147    602.1963 300.1252669 +22.6582147     403.5389     72.44114      1.399     1.98     3.820231      20.4587     58.70328         5     0.681     0.451  65.13   0
       188    692.4460    600.6786 300.2377907 +22.7656877     701.9827     72.49659      1.161     2.38     4.327245      20.4587     121.4425        12     0.914     0.739  42.49   0
       189    786.0015    599.2322 300.2674093 +22.7933075     150.5537     72.47811      1.073     2.33     4.316801      20.4587     41.88162         5     0.761     0.468  61.71   0
       190    896.4767    597.4686 300.3024180 +22.8258994      320.868     72.60735      1.580     3.67     4.217919      20.4587     41.83738         5     0.918     0.535 -43.06   0
       191    761.5623    596.7924 300.2605866 +22.7852836     194.5312     72.53352      0.924     2.46      4.28001      20.4587     37.27321         5     0.708     0.449  67.34   0
       192    194.8638    596.0510 300.0844657 +22.6151628     3126.636     72.57045      1.292     2.45     3.872788      20.4587     441.8801        25     1.101     1.031  70.86   0
       193    760.5999    592.0294 300.2618345 +22.7836270     508.3526     72.45963      1.372     2.44     4.289677      20.4587      78.5414         8     0.800     0.663 -26.83   0
       194    779.1509    589.8849 300.2683119 +22.7885696     222.1055     72.49659      1.337     4.38     4.322472      20.4587     30.99305         5     0.777     0.702  73.63   0
       195    539.9954    583.1594 300.1960106 +22.7149618     192.5309     72.53352      1.255     3.55     4.897654      20.4587     42.61436         5     1.172     0.309  64.57   0
       196    399.2904    576.7590 300.1543029 +22.6709386     2880.224     72.53353      1.534     2.94     4.588608      20.4587     324.0853        32     1.663     0.955 -86.72   0
       197    243.7211    578.9355 300.1052142 +22.6249075     424.9589     72.60735      1.152     3.80     3.865702      20.4587     61.18076         9     1.006     0.596 -35.14   0
       198    555.5944    573.7014 300.2039397 +22.7169221     277.4904     72.40415      1.377     3.48     4.853563      20.4587     35.04724         5     0.793     0.689 -28.74   0
       199    811.0613    572.5412 300.2838921 +22.7931477     321.8658     72.57045      1.101     3.26     4.380522      20.4587     56.29774         7     0.872     0.647 -70.30   0
       200    503.8536    571.9890 300.1883901 +22.7009197     221.3915     72.51506      1.374     3.77     4.894166      20.4587     32.00735         5     0.818     0.499  28.52   0
       201    716.6196    564.7799 300.2569858 +22.7626204     266.2954     72.51506      1.098     2.42     4.372757      20.4587     59.23008         9     0.835     0.693   7.49   0
       202    796.3303    562.3830 300.2826016 +22.7858157     1560.472     72.53353      1.145     2.04     4.396284      20.4587      234.119        17     0.916     0.840 -46.31   0
       203    667.4914    560.0859 300.2432073 +22.7465498     2459.531     72.68111      1.239     2.16     4.510654      20.4587     353.9014        18     0.962     0.868 -74.15   0
       204    911.8249    557.4645 300.3202020 +22.8190010     363.0489     72.49659      1.242     2.76     4.166735      20.4587      63.2927         8     0.869     0.608  58.80   1
       205    876.9828    556.6597 300.3096005 +22.8083331     392.1552     72.45963      1.614     3.37     4.322466      20.4587      38.2072         7     0.731     0.676  -0.44   0
       206    572.3027    556.7333 300.2146543 +22.7170578     569.3143     72.60735      1.259     2.01      4.78936      20.4587     88.32474         8     0.784     0.605  88.98   0
       207    454.7414    556.2485 300.1782197 +22.6816766     661.3457     72.57045      1.295     3.00     4.865439      20.4587     96.44034        13     0.958     0.880 -19.05   0
       208    924.7067    553.7498 300.3254256 +22.8217919     1390.649     72.58891      1.387     2.26     4.109138      20.4587     202.2218        19     1.205     0.884  67.11   0
       209    796.5451    552.3721 300.2859211 +22.7830038     2156.756     72.51506      1.498     2.90     4.414047      20.4587     313.6986        25     1.558     0.855  74.95   0
       210    910.3185    552.9325 300.3212048 +22.8172474     629.7089      72.6258      1.382     2.51     4.176827      20.4587     79.81613        10     0.873     0.711 -28.75   0
       211    834.7687    547.5242 300.2994093 +22.7930621     4153.959     72.51506      1.207     2.09     4.403033      20.4587     599.1552        27     1.082     0.954 -81.44   0
       212    549.8287    550.3798 300.2097217 +22.7084968     735.2281     72.51506      1.798     2.82     4.875448      20.4587      81.4273        10     0.958     0.693   5.62   2
       213    335.7652    550.4727 300.1430827 +22.6443443     351.6173     72.51506      1.189     2.23     4.056711      20.4587     44.61489         5     0.691     0.446 -25.05   0
       214    475.6977    547.3777 300.1876230 +22.6854124     156.7879     72.44114      1.091     3.30     4.883098      20.4587     43.36314         5     0.753     0.429 -21.40   0
       215    495.4173    543.4719 300.1950291 +22.6902026     394.5045     72.51506      1.235     3.16     4.888459      20.4587     51.73287         9     0.884     0.759  19.57   0
       216    926.7587    537.9062 300.3312129 +22.8178531     766.9849     72.53352      1.258     2.35     4.124113      20.4587     112.6748        10     0.912     0.646 -79.86   0
       217     66.7221    538.0634 300.0634858 +22.5600832     870.7759     72.60735      1.449     3.54      4.58373      20.4587     100.5381        14     1.062     0.880  60.52   0
       218    866.1566    535.4686 300.3131102 +22.7990004     194.6335     72.47811      1.279     2.66     4.383142      20.4587     43.99191         5     0.786     0.669  56.62   0
       219    727.5958    531.7356 300.2711409 +22.7564166     295.5464     72.51506      1.221     3.17     4.505858      20.4587     49.94005         5     0.713     0.486  82.39   0
       220     59.6937    528.1865 300.0645107 +22.5551411     418.1456     72.44114      1.368     3.86     4.686443      20.4587     52.01624        10     0.936     0.811 -70.87   0
       221    922.6988    527.1523 300.3334405 +22.8135463     420.7367     72.55199      1.366     2.54     4.175602      20.4587     53.72454         7     0.805     0.593  61.22   0
       222    667.1823    521.9758 300.2554918 +22.7355103     417.5592     72.51506      1.156     2.12     4.615243      20.4587     79.10143         7     0.680     0.647  74.13   0
       223    555.7401    519.7585 300.2215095 +22.7014750     353.8897     72.49659      1.632     3.50      4.85464      20.4587     53.56345         7     1.060     0.442  60.48   0
       224    608.1454    518.0272 300.2383886 +22.7166841     629.1364     72.51506      1.207     2.11     4.681889      20.4587     119.4789        12     0.871     0.787  88.52   0
       225   1015.5371    515.6961 300.3661167 +22.8380560     979.5687     72.60735      1.286     2.43     3.831452      20.4587     130.2204        14     0.914     0.863   0.16   0
       226    922.9565    510.3685 300.3389732 +22.8087995     542.8365     72.57045      1.383     2.56     4.228944      20.4587     77.38542         7     0.815     0.601   5.06   0
       227    668.9847    510.0367 300.2599315 +22.7326208     918.6978     72.51506      1.256     2.09     4.646358      20.4587     147.1967        10     0.841     0.681  63.85   0
       228    826.3481    506.3915 300.3101470 +22.7787200     997.2366     72.51506      1.225     2.18     4.436479      20.4587     144.0083        12     0.823     0.780  66.71   0
       229    784.8943    504.3929 300.2978767 +22.7657275     302.1288     72.40415      2.140     3.40     4.538815      20.4587     29.49554         5     0.759     0.441 -19.96   0
       230    810.4453    502.8681 300.3063349 +22.7729437     500.5323     72.49659      1.092     2.99      4.45927      20.4587     93.30826        10     1.018     0.613  21.89   0
       231    554.7849    500.9471 300.2273225 +22.6957862     3210.943     72.49659      1.243     2.01      4.85996      20.4587     537.0977        25     1.071     0.927  55.38   0
       232    601.0698    501.1222 300.2416765 +22.7097081     4357.978     72.62579      0.428     2.37     4.724159      20.4587     3630.964         5     0.468     0.361  55.50   0
       233    915.5339    499.5303 300.3401793 +22.8034613     511.3061     72.55199      1.484     2.95     4.275637      20.4587     64.78108        10     0.946     0.710   3.35   0
       234     30.4811    492.2832 300.0670976 +22.5360770      357.118     72.66267      1.388     3.44     5.066312      20.4587     41.78336         5     0.755     0.453 -69.51   0
       235    394.4589    487.9727 300.1816414 +22.6440013     409.7397     72.51506      1.201     2.36     4.721481      20.4587     72.67645         9     0.823     0.682 -24.45   0
       236    838.0233    479.7169 300.3224504 +22.7745515     590.8926     72.47811      1.287     2.71     4.433918      20.4587     78.25225        10     0.950     0.665  78.25   0
       237    966.1262    479.7181 300.3623915 +22.8129173     1295.171      72.6258      1.286     2.20     4.188019      20.4587     205.5512        15     0.916     0.865  56.94   0
       238    924.4405    478.4864 300.3497918 +22.8000800     951.6209     72.49659      1.197     2.45     4.318506      20.4587     134.9488        13     0.932     0.799 -72.30   0
       239    665.2396    474.7702 300.2702197 +22.7213674     994.4868     72.49659      1.190     2.16     4.735927      20.4587     164.1001        13     0.949     0.734  69.09   0
       240    461.0688    475.3452 300.2064680 +22.6603439     369.9134     72.55199      1.173     2.15     4.877527      20.4587      65.6711         7     0.695     0.628  61.88   0
       241    169.1416    472.9572 300.1164557 +22.5721264     595.2197     72.49659      1.328     2.83     5.089699      20.4587     85.95346        13     1.007     0.805  69.93   0
       242    964.7123    467.0659 300.3660599 +22.8088568     4395.459     72.60735      1.321     2.29      4.23121      20.4587     592.6189        30     1.170     1.020  85.12   0
       243    231.7043    468.7887 300.1372564 +22.5896931     3695.621     72.42265      1.355     2.45     4.677917      20.4587     502.7826        28     1.107     1.046  67.29   0
       244    178.8530    463.6539 300.1224952 +22.5723692     7498.043     72.55199      1.393     2.55      5.02285      20.4587     933.0429        36     1.194     1.083  73.42   0
       245    780.4708    464.7851 300.3093628 +22.7530210     314.9956     72.51506      2.030     5.01     4.712252      20.4587     30.19796         5     1.094     0.650 -22.66   0
       246    944.6707    458.1374 300.3627094 +22.8002886     1852.299     72.55199      1.313     2.34     4.288887      20.4587     248.2728        19     1.044     0.894  69.26   0
       247    319.6765    457.8291 300.1681695 +22.6129263     4793.977     72.49659      1.316     2.32     4.666539      20.4587     688.1895        28     1.080     1.003  72.03   0
       248    563.9127    454.4059 300.2452798 +22.6851543     18202.26     72.42265      1.261     2.13     4.852139      20.4587     2599.868        53     1.170     1.112 -89.96   0
       249    581.5800    454.5754 300.2507253 +22.6904975     900.6423     72.51506      1.985     5.25     4.818075      20.4587     74.91842        17     1.636     0.764 -30.67   0
       250    411.0760    455.9112 300.1972235 +22.6397774     200.9174     72.64423      1.205     3.09     4.853995      20.4587     48.01456         6     0.920     0.430  36.98   0
       251    191.0283    453.0252 300.1297310 +22.5729703     276.6466     72.49658      1.396     4.38     4.956631      20.4587     40.92334         8     1.210     0.631 -63.85   0
       252    760.6708    444.4266 300.3098044 +22.7412395     342.4164     72.51506      1.310     2.96     4.868347      20.4587      47.0239         6     0.804     0.535  45.37   0
       253    183.8870    441.7493 300.1311727 +22.5675924     325.8964     72.51506      1.210     2.19     5.016438      20.4587     60.22659         7     0.734     0.601   3.04   0
       254    897.3865    436.7932 300.3548969 +22.7799934     783.3226     72.40415      1.537     2.51     4.324578      20.4587     107.4893        16     1.018     0.894  79.29   0
       255    434.6038    436.1793 300.2109515 +22.6411640     422.8307     72.47811      1.275     3.87     4.879654      20.4587     57.08905         7     1.085     0.464  80.90   0
       256    607.2785    435.5895 300.2648926 +22.6927443     410.4828     72.49659      1.506     3.24     4.800648      20.4587     45.96121         7     0.850     0.628  69.45   0
       257    118.6116    434.6169 300.1132027 +22.5459684      1988.32     72.45963      1.401     2.52     5.164433      20.4587     250.1488        20     1.066     0.993   6.30   0
       258    918.0773    424.1644 300.3654493 +22.7825590     1215.329     72.47811      1.309     2.13     4.314373      20.4587     188.7727        14     1.036     0.833  77.90   0
       259    504.5147    423.8763 300.2367032 +22.6585845     6562.408      72.6258      1.281     2.17     4.886385      20.4587     897.9417        35     1.110     1.048 -80.99   0
       260    219.3501    423.3595 300.1481672 +22.5729489     772.0831     72.53353      1.459     2.88      4.87557      20.4587     77.34895        12     0.948     0.839  66.08   0
       261     76.7778    416.9387 300.1059447 +22.5283479     455.3824     72.49659      1.285     2.53     5.183409      20.4587      79.4353         8     0.863     0.696  -8.39   0
       262    764.4102    415.8162 300.3202601 +22.7341377     285.8137     72.44114      1.151     3.74     4.925714      20.4587     61.64524         6     0.974     0.477 -81.90   0
       263    618.3093    414.1727 300.2752819 +22.6898968     523.9866     72.47811      1.331     3.19     4.823843      20.4587      63.1899        11     0.956     0.771  40.25   0
       264    708.6910    412.6958 300.3039128 +22.7165503     1017.891     72.69953      1.195     2.29     4.890776      20.4587     163.1725        14     0.922     0.802  33.96   0
       265    411.1659    410.1739 300.2121027 +22.6266707     6036.665     72.53352      1.273     2.21     4.869816      20.4587     891.2403        31     1.130     0.983  65.25   0
       266    995.7912    411.1699 300.3939054 +22.8020918     288.7218     72.49659      1.528     3.88     4.445241      20.4587     30.09322         5     0.935     0.462 -43.95   0
       267    803.0042    404.4754 300.3359696 +22.7424380     1375.765     72.42265      1.261     2.15     4.767704      20.4587     204.6651        15     1.000     0.809  77.37   0
       268    900.2479    404.6362 300.3662310 +22.7716061     580.4041     72.53353      1.227     2.87     4.325666      20.4587     99.94144         9     0.830     0.802  17.78   0
       269    395.8719    398.7897 300.2110406 +22.6188173     572.5637     72.51506      1.205     2.26     4.841033      20.4587     83.63889         8     0.746     0.657 -16.22   0
       270    478.1988    396.9560 300.2372532 +22.6429658      485.006     72.51506      1.433     2.83     4.883217      20.4587     57.29026         9     0.883     0.692 -76.71   0
       271    458.9131    394.8326 300.2319407 +22.6365759      251.455     72.49659      1.156     2.21     4.879478      20.4587     53.79155         6     0.718     0.548  45.02   0
       272    776.1286    391.9199 300.3316706 +22.7307799     574.0575     72.62579      1.242     2.79     4.762332      20.4587     93.66484        10     1.015     0.610  66.98   0
       273    298.7320    389.4912 300.1838446 +22.5870274     2356.281     72.64423      1.272     2.24     4.846521      20.4587     344.3117        22     1.076     0.915  63.37   0
       274     17.2665    386.7463 300.0972602 +22.5018337     1025.017     72.55199      1.531     2.79     5.280635      20.4587     118.2555        15     0.965     0.936 -23.77   0
       275    268.0181    378.9034 300.1777311 +22.5747795     29351.02     72.42265      1.348     2.29      4.86085      20.4587     4112.989        74     1.347     1.200  56.28   0
       276    245.8326    382.9796 300.1695099 +22.5692981     294.5514     72.51506      1.291     3.75     4.858745      20.4587     35.33884         5     0.802     0.502 -28.14   0
       277    802.5570    376.1227 300.3450356 +22.7341547      1386.86     72.47811      1.250     2.04     4.518036      20.4587     204.7947        15     0.953     0.790  48.08   0
       278    757.8468    373.9347 300.3318128 +22.7201352     199.0484     72.53352      1.019     2.61     4.749702      20.4587     47.66063         6     0.727     0.564  36.65   0
       279    717.7776    365.1622 300.3221761 +22.7056123     481.7506     72.53352      1.120     2.41     4.822783      20.4587     89.87399         8     0.830     0.585 -88.28   0
       280    142.2335    365.3156 300.1430416 +22.5331634     557.2435     72.47811      1.747     3.91     4.663671      20.4587      55.8755        10     1.018     0.737  43.48   0
       281    366.4602    364.1194 300.2131461 +22.6000451     485.3423     72.57045      1.307     2.76     4.707436      20.4587     59.92551         8     0.772     0.697 -55.76   0
       282    678.4891    358.4346 300.3121209 +22.6919105     1954.018     72.49659      1.246     2.09     4.752876      20.4587     255.1998        23     1.184     0.927  64.78   0
       283    486.7077    353.1110 300.2541349 +22.6329218     386.6584     72.68111      1.290     3.32     4.876303      20.4587     49.55305         7     0.731     0.674 -84.54   0
       284    893.6849    351.1707 300.3815427 +22.7542700     521.5002     72.51506      1.172     2.59     4.373218      20.4587     77.74294         9     0.896     0.627 -66.36   0
       285    747.4775    345.0227 300.3379673 +22.7087198     263.1189     72.47811      1.272     3.78     4.693128      20.4587     32.66392         6     0.823     0.499 -87.80   0
       286    340.2115    343.1775 300.2117790 +22.5861633     2113.658     72.51506      1.426     2.81     4.653669      20.4587     232.9862        22     1.211     0.968  76.30   0
       287    552.6080    341.9650 300.2782663 +22.6494662     263.0624     72.51506      1.050     2.40     4.871775      20.4587     50.97918         7     0.709     0.655 -77.83   0
       288    779.3312    335.7983 300.3508875 +22.7156081     654.6791     72.45963      1.213     2.31     4.442777      20.4587     101.7669        10     0.837     0.731 -64.07   0
       289    661.5604    333.5163 300.3149364 +22.6796787     416.0822     72.47811      1.337     2.62     4.671601      20.4587     63.69606         8     0.782     0.754  18.14   0
       290    630.0105    332.6758 300.3053829 +22.6699862       253.85     72.49659      1.187     2.96     4.710721      20.4587     51.58956         6     0.773     0.662  14.05   0
       291    130.5585    323.5667 300.1529640 +22.5176790     247.7095     72.57045      1.366     4.25     4.490471      20.4587     30.39499         5     0.961     0.536 -42.18   0
       292    416.0394    322.5812 300.2420532 +22.6029750     1129.487     72.53352      1.197     2.10     4.831408      20.4587     181.6055        12     0.883     0.733 -89.09   0
       293    223.3614    322.6161 300.1821171 +22.5452310     330.7663     72.53353      1.460     3.50     4.699076      20.4587     32.30949         5     1.110     0.318  20.24   0
       294    660.9968    314.3531 300.3209807 +22.6740027     2138.768     72.49659      1.224     2.09     4.603559      20.4587     326.8889        22     1.059     0.908 -36.25   0
       295    922.2399    308.6301 300.4042548 +22.7505873     3052.376     72.51506      1.259     2.13     4.480865      20.4587     466.0707        21     0.995     0.922 -64.21   0
       296    983.7072    303.3788 300.4251289 +22.7674774      453.218     72.44114      1.476     3.66     4.445497      20.4587     65.72186         9     1.113     0.683 -22.56   0
       297    293.4733    300.0983 300.2112246 +22.5597830     247.4226     72.66267      1.273     3.11     4.822995      20.4587     38.69992         6     0.778     0.499 -88.74   0
       298    369.4485    298.2194 300.2354647 +22.5820148     600.3701     72.53352      1.238     2.48     4.546516      20.4587     89.03798        10     0.828     0.755  56.24   0
       299    991.5063    296.5540 300.4297766 +22.7678491     1443.638     72.53353      1.142     2.15     4.438661      20.4587     234.8366        17     0.997     0.848  73.45   0
       300     74.8377    292.3728 300.1457737 +22.4920166     643.5474     72.53352      1.325     3.79     4.692657      20.4587     76.58194        11     1.140     0.636  56.01   0
       301     44.1762    292.5800 300.1361812 +22.4828814     1383.027     72.51506      1.687     3.45     5.061951      20.4587      133.979        20     1.286     0.938 -19.72   0
       302    791.6255    289.6430 300.3696993 +22.7060216     224.5265     72.55199      1.066     3.46      4.31329      20.4587     34.59619         5     1.020     0.339 -68.95   0
       303    937.9633    288.9802 300.4155353 +22.7496436      428.305     72.53352      1.314     2.42      4.49708      20.4587     69.87582         9     0.790     0.699 -63.27   0
       304    781.8340    285.8088 300.3678921 +22.7019874     295.7957     72.51506      1.380     4.09     4.318444      20.4587     39.64688         6     0.797     0.599  37.98   0
       305    127.9409    284.6260 300.1647874 +22.5057158     502.2156     72.51506      1.573     3.37     4.438038      20.4587     60.82291         9     0.871     0.736  60.19   0
       306    923.1620    281.3040 300.4134109 +22.7430054     348.6393     72.49659      1.189     2.41       4.5074      20.4587     58.02629         6     0.714     0.562  40.92   0
       307    804.1589    277.7836 300.3774542 +22.7063650      394.623     72.53352      1.199     2.00     4.353549      20.4587     57.00732         6     0.689     0.550 -50.28   0
       308    732.4135    275.5756 300.3558133 +22.6842465     614.7068     72.51506      1.171     2.77     4.320757      20.4587     105.1235        10     0.961     0.710  61.28   0
       309    322.8994    275.2404 300.2284425 +22.5614641     274.4535     72.49659      1.167     2.45     4.613459      20.4587      54.2327         8     0.804     0.626  45.68   0
       310    830.6758    264.7370 300.3899529 +22.7105535     2073.911     72.57045      1.236     2.12     4.450542      20.4587     327.8011        20     1.025     0.891  80.24   0
       311    136.4090    263.2028 300.1743702 +22.5021046      265.975     72.33012      1.349     4.18     4.520813      20.4587     44.31281         5     1.039     0.480  83.45   0
       312    249.2497    262.2914 300.2097415 +22.5356704     2081.487     72.53353      1.263     2.41     4.698432      20.4587      253.049        20     0.999     0.960  16.14   0
       313    327.1050    257.4978 300.2355076 +22.5576287     1104.274     72.69953      1.446     2.78     4.578093      20.4587     126.4335        15     0.996     0.879 -44.19   0
       314    728.9584    256.2831 300.3609971 +22.6776660     587.0016     72.47811      1.254     2.38      4.32021      20.4587      96.4417        10     0.845     0.755  18.96   0
       315    374.1809    254.7033 300.2510575 +22.5709339     363.7206     72.42265      1.210     4.31     4.565071      20.4587     27.99521         7     0.874     0.605  31.65   0
       316    836.0430    253.3088 300.3953342 +22.7088744     273.0853     72.51506      1.064     2.14     4.482849      20.4587     53.24129         7     0.693     0.631   2.02   0
       317    143.8737    249.7402 300.1810580 +22.5004775      811.634     72.55199      1.410     3.00     4.547807      20.4587     95.27506        12     0.972     0.791 -74.54   0
       318    681.7075    246.1787 300.3495554 +22.6606113     1769.589     72.44114      1.305     2.13     4.377888      20.4587     252.7672        17     0.997     0.805  69.25   0
       319    746.7325    245.8907 300.3699073 +22.6800008     623.8748     72.64423      1.306     2.36     4.327775      20.4587     80.13255         7     0.698     0.652  54.89   0
       320    165.2068    242.8514 300.1899231 +22.5048952     545.5209     72.51506      1.380     3.75     4.522808      20.4587     69.02732        11     1.036     0.829 -32.25   0
       321    952.9792    238.5498 300.4365831 +22.7396346     800.7663     72.51506      1.311     2.63     4.480807      20.4587     118.0872        12     0.992     0.711  56.20   0
       322    685.9253    237.4982 300.3536858 +22.6593792      652.251     72.64423      1.294     2.73     4.359747      20.4587     112.1024        13     1.039     0.730  89.63   0
       323    606.3748    237.0249 300.3290627 +22.6354183     1263.753     72.47811      1.259     2.41     4.599954      20.4587     175.9881        15     0.959     0.838  52.56   0
       324    427.7044    233.4559 300.2746037 +22.5808683     379.1891     72.57045      1.134     3.04      4.89002      20.4587     49.22239         5     0.711     0.467 -18.89   0
       325    532.4500    228.6862 300.3087514 +22.6108786     1023.409     72.51506      1.316     2.33     5.005363      20.4587     143.4361        15     1.054     0.802 -74.55   0
       326    801.8240    228.3627 300.3927627 +22.6914567     1412.843     72.53352      1.243     2.29     4.498567      20.4587     185.3009        15     0.947     0.824  88.28   0
       327    813.8031    227.5267 300.3967675 +22.6948027     761.6744     72.42265      1.205     2.28     4.508761      20.4587     125.1382        10     0.870     0.683 -89.44   0
       328    860.3322    226.7258 300.4115312 +22.7085019     298.2858     72.58891      1.180     3.31     4.548763      20.4587     43.66978         5     0.898     0.431   8.53   0
       329    824.6553    223.8772 300.4013341 +22.6970023     242.7749     72.55199      1.376     3.26      4.53155      20.4587     34.43217         5     0.869     0.475 -88.30   0
       330    974.6360    218.2732 300.4499164 +22.7402842     1454.078     72.45963      1.291     2.55     4.484299      20.4587     178.6415        17     1.015     0.881  52.19   0
       331    930.5368    217.4834 300.4364193 +22.7268584     1167.275     72.60735      1.360     2.42     4.511709      20.4587     163.9239        16     1.073     0.860 -85.26   0
       332    164.5881    210.9413 300.2000829 +22.4955473     662.2842     72.47811      1.323     3.05     4.627755      20.4587     102.1008        14     1.008     0.862 -78.60   0
       333     26.4753    205.8996 300.1588051 +22.4526932     2035.888     72.64423      1.488     2.79     5.305813      20.4587     264.1777        26     1.299     1.027  63.60   0
       334    849.7058    202.6085 300.4160430 +22.6983854     562.8195     72.40415      1.128     2.87     4.684366      20.4587     110.3087        10     0.894     0.779 -83.86   0
       335    183.9605    199.1954 300.2099144 +22.4979814     5592.617     72.53352      1.378     2.44     4.727966      20.4587     694.4417        31     1.141     1.062  62.63   0
       336    165.5602    200.2253 300.2038612 +22.4927617     201.7453     72.55199      1.046     3.04     4.681823      20.4587     41.59397         5     0.722     0.460 -70.43   0
       337    167.3600    190.0719 300.2077140 +22.4903856     628.4946     72.49659      1.358     2.51     4.730533      20.4587     97.43271        12     0.991     0.749  53.98   0
       338    982.7060    186.3592 300.4627871 +22.7335189      18226.2     72.53353      1.354     2.33     4.622169      20.4587     2336.919        55     1.273     1.157  83.30   0
       339    827.9122    180.5282 300.4164123 +22.6855117     3521.261     72.68111      1.307     2.24      4.82812      20.4587     514.3903        28     1.095     1.012  83.11   0
       340    931.5527    179.1951 300.4491574 +22.7161495     2896.806     72.49659      1.310     2.29     4.547209      20.4587     335.7429        25     1.131     0.961  73.69   0
       341    377.4740    176.0318 300.2776038 +22.5493206     622.0128     72.53352      1.321     2.44     4.890849      20.4587     96.39703         8     0.803     0.662 -45.25   0
       342    130.2567    176.5940 300.2005544 +22.4753935     321.4051     72.47811      1.063     3.37     4.888387      20.4587     44.64758         5     0.741     0.443 -20.87   0
       343    491.6982    173.7354 300.3138922 +22.5828803     323.1477     72.60735      1.210     2.40     4.922067      20.4587     50.02882         6     0.674     0.640 -10.57   0
       344    301.3559    167.7660 300.2566086 +22.5241382     573.2982     72.57045      1.339     2.63     5.003186      20.4587     75.52105        11     0.871     0.804  29.33   2
       345    305.0162    165.9853 300.2583245 +22.5247236     427.0708     72.45963      1.488     5.14     5.012574      20.4587     51.77837         9     1.279     0.776  62.21   2
       346     67.4340    164.8067 300.1848573 +22.4531763     526.0392     72.51506      1.467     3.39     5.052948      20.4587     61.15172        11     0.996     0.735 -14.96   0
       347    428.7772    163.0849 300.2977652 +22.5609710     1618.706     72.45963      1.286     2.26     4.880084      20.4587     240.8331        18     1.043     0.861  50.76   0
       348    356.7248    163.5604 300.2751941 +22.5395208      461.297     72.47811      1.211     2.86     5.004463      20.4587     65.93377         9     0.986     0.592 -35.16   0
       349    490.2551    162.3276 300.3171432 +22.5791697     324.6311     72.51506      1.051     2.31     4.899674      20.4587     58.07807         5     0.731     0.424  19.72   0
       350    252.5822    159.0943 300.2442544 +22.5070314     93.90013     72.44114      1.058     4.09     4.978312      20.4587     45.11719         5     0.962     0.579  -9.22   0
       351    172.5859    158.5148 300.2195736 +22.4828898     293.5692     72.45963      1.082     2.72     4.877456      20.4587     53.12389         5     0.697     0.472  18.57   0
       352    717.2351    152.1211 300.3911360 +22.6442094     358.4507     72.45963      1.284     2.62     4.959658      20.4587     46.97634         7     0.707     0.663 -70.96   0
       353    863.5349    147.2412 300.4383140 +22.6866011     396.7531     72.47811      1.506     5.29     4.953777      20.4587     50.52604         9     0.985     0.854  42.56   0
       354    301.7153    148.2815 300.2630398 +22.5186488     218.5296     72.64424      1.425     4.36     5.049443      20.4587     33.38485         5     0.765     0.709  75.07   0
       355    993.1949    143.6828 300.4799017 +22.7243801     3684.368     72.44114      1.399     2.13     4.805061      20.4587     547.2045        29     1.189     0.999  78.96   2
       356    202.8766    143.0943 300.2339903 +22.4875397     5957.683     72.64423      1.395     2.37     4.935319      20.4587     747.3962        37     1.273     1.073  48.14   0
       357    709.5295    143.3167 300.3915909 +22.6393709      354.735     72.64423      1.118     2.82     4.964341      20.4587      53.8297         5     0.704     0.459 -68.49   0
       358     53.8587    142.5450 300.1878595 +22.4427149     779.0204     72.57045      1.488     2.98      5.15904      20.4587     89.81461         9     0.950     0.674  14.58   0
       359    832.1652    140.2028 300.4308178 +22.6751874     407.9592     72.51506      1.331     2.25     4.968183      20.4587     61.21043         6     0.720     0.543  54.05   0
       360    174.3790    136.7392 300.2271929 +22.4771736     394.6243     72.45963      1.736     2.37     4.944468      20.4587      42.2641         5     0.691     0.465 -74.14   0
       361    218.3864    134.3781 300.2416385 +22.4896844     455.0116     72.49659      1.289     2.94     4.950343      20.4587       64.855         8     0.971     0.622  12.58   0
       362    448.8280    128.3519 300.3152691 +22.5569968     6270.225     72.53352      1.310     2.23     4.875243      20.4587     832.2118        35     1.190     1.036  78.57   0
       363    334.2902    128.0286 300.2797392 +22.5225908      540.626     72.49659      1.262     2.50     5.061553      20.4587     100.3509        11     0.879     0.758 -10.71   0
       364    701.1046    118.6196 300.3969757 +22.6297473       886.97     72.42265      1.701     5.59     4.970362      20.4587     105.6007        15     1.750     0.697 -78.79   0
       365    505.5258    122.3983 300.3348461 +22.5722682     301.0329     72.42265      1.121     4.11     4.893488      20.4587     40.33214         6     1.012     0.476  36.19   0
       366    643.1309    119.4339 300.3786530 +22.6126238     305.5117     72.51506      1.442     3.59      4.94261      20.4587     44.09995         6     1.004     0.456  58.17   0
       367    793.7294    116.6756 300.4264680 +22.6569162     365.3186     72.58891      1.186     2.62       4.9752      20.4587     53.86123         6     0.729     0.535  41.56   0
       368    861.0782    114.2511 300.4482475 +22.6763769     299.1938     72.51506      1.646     3.83     4.970665      20.4587     31.46695         5     0.850     0.494  53.97   0
       369    141.7280    111.8962 300.2251009 +22.4602529     570.6379      72.6258      1.570     3.12     5.047107      20.4587     67.39272        11     0.990     0.764 -75.32   0
       370    817.5810    112.2997 300.4353211 +22.6627969     133.2095     72.42265      0.938     3.10      4.97673      20.4587     44.58866         6     0.846     0.508  41.75   0
       371    500.0867    110.9515 300.3368651 +22.5673492      285.451     72.51506      1.166     3.45     4.878864      20.4587     58.60928         9     0.933     0.766 -48.25   0
       372    577.2131    108.3564 300.3617174 +22.5897010     6201.486     72.53352      1.265     2.27     4.880054      20.4587     821.1138        33     1.170     0.965  70.85   0
       373    352.0749    107.3790 300.2919673 +22.5219862     1429.545     72.51506      1.317     2.29      5.07427      20.4587     203.5225        19     1.082     0.896  79.83   0
       374    618.3695    105.7658 300.3753735 +22.6012801     954.2621     72.53353      1.308     2.25     4.871305      20.4587     123.6813        14     0.866     0.841 -28.73   0
       375    634.3358    101.4240 300.3817539 +22.6048125     720.3114     72.49659      1.529     2.79     4.896689      20.4587     73.85454        10     1.001     0.631  75.24   0
       376    101.1326     99.8183 300.2164019 +22.4446170     603.3178     72.49659      1.331     3.07     5.088755      20.4587     82.09158         9     0.857     0.756  89.57   0
       377    943.5717     98.7761 300.4789880 +22.6966118     224.1509     72.51506      0.978     2.91     4.939369      20.4587     46.61501         5     0.714     0.466  72.20   0
       378    904.2173     98.9805 300.4666495 +22.6848942     502.6411     72.49659      1.238     2.71     4.960546      20.4587     80.68918        11     0.876     0.817 -42.90   0
       379    672.6294     97.1345 300.3950723 +22.6150444     362.5466     72.53352      1.216     2.23     4.989095      20.4587      75.3074         8     0.828     0.626  44.76   0
       380    621.4517     93.1336 300.3804296 +22.5985713     2804.698     72.53352      1.309     2.34     4.854499      20.4587     344.4022        24     1.098     1.000  74.26   0
       381    262.0676     94.0761 300.2682881 +22.4911971     456.7315     72.60735      1.329     4.45     5.040955      20.4587     51.88362         7     1.027     0.549  32.56   0
       382    636.3051     91.8507 300.3854715 +22.6026497     890.3419     72.58891      1.667     3.68     4.889305      20.4587     107.9513        15     1.348     0.733  54.79   0
       383    707.7520     84.7522 300.4100289 +22.6219987     1568.911     72.55199      1.288     2.33     4.930415      20.4587     240.1034        16     0.974     0.859  78.37   0
       384    868.1829     83.3860 300.4604711 +22.6696246     321.4352     72.45963      1.372     2.81     4.990389      20.4587     50.81008         5     0.832     0.517 -54.63   0
       385    786.4116     80.8919 300.4357910 +22.6444342      319.008     72.45963      1.464     4.84     4.912774      20.4587     37.11658         5     1.410     0.470  83.72   0
       386    645.7594     77.8269 300.3929633 +22.6014482     803.8718     72.57045      1.340     2.83     4.892175      20.4587     118.4052        12     0.938     0.766  87.00   0
       387    451.4085     77.3813 300.3325999 +22.5431213     999.0289     72.47811      1.211     2.55     4.867481      20.4587     121.7377        14     0.974     0.816  43.18   0
       388     24.1138     77.4042 300.1997413 +22.4150946     610.2814     72.44114      1.859     4.37     5.699586      20.4587     62.47026         8     0.917     0.728  71.22   0
       389    355.1694     75.3594 300.3033119 +22.5137129     854.1783     72.53352      1.292     2.64     5.100388      20.4587     101.1162        12     0.996     0.683  74.12   0
       390    998.3284     72.0397 300.5047363 +22.7053021     2306.025     72.49659      1.437     2.58     4.926167      20.4587     273.4919        24     1.179     0.998 -78.92   0
       391    737.3882     73.9879 300.4227528 +22.6277748     359.2875     72.40415      1.050     2.35      4.87131      20.4587      69.9856         7     0.722     0.625  89.17   0
       392    126.6908     65.5617 300.2354505 +22.4424390     3719.438     72.49659      1.483     2.52     5.194464      20.4587     462.1037        31     1.223     1.095  62.04   0
       393    694.8212     65.7820 300.4121512 +22.6126726     565.0979     72.51506      1.164     2.24     4.887734      20.4587     96.20648         9     0.768     0.732  79.02   0
       394    549.1689     62.7266 300.3677809 +22.5681858     340.3374     72.51506      1.460     2.53     4.849349      20.4587     57.43893         5     0.858     0.503  52.24   0
       395    242.5724     57.7245 300.2740121 +22.4749127     1266.059     72.49659      1.436     2.67     5.023148      20.4587     158.9853        20     1.176     0.939  88.09   0
       396    687.8135     57.8609 300.4125363 +22.6082970     804.8445     72.47811      1.201     2.24     4.873078      20.4587     150.0419        12     0.879     0.780  28.56   0
       397    725.8356     52.8638 300.4260021 +22.6182415     636.2946     72.51506      1.486     3.55     4.815575      20.4587     72.50717        12     1.161     0.695  83.83   0
       398    649.2191     52.4348 300.4022734 +22.5951828     455.2806     72.53352      1.420     3.12     4.856094      20.4587     68.96605         7     0.919     0.545 -26.95   0
       399    745.9095     49.1005 300.4334769 +22.6231678     2302.076     72.68111      1.335     2.29     4.790967      20.4587     309.5302        23     1.034     0.994  78.92   0
       400    451.3996     47.4500 300.3423010 +22.5345158     514.3427     72.49659      1.253     2.83     4.862495      20.4587     65.64006        10     0.897     0.778 -25.25   0
       401    129.0556     44.5543 300.2429956 +22.4371140      1051.58     72.55199      1.473     3.14     5.250479      20.4587      95.1633        15     1.074     0.851  56.92   0
       402    920.7740     42.3924 300.4901602 +22.6735680     751.3565     72.49659      1.398     2.92     5.024812      20.4587     91.37364        11     0.898     0.830 -74.82   0
       403    230.5398     43.1240 300.2750041 +22.4671129     918.8644     72.57045      0.715     0.93     4.997402      20.4587     412.6334         7     0.546     0.462  -0.31   0
       404    694.2330     41.4958 300.4198417 +22.6055124     904.3779     72.49659      1.319     2.92      4.81915      20.4587     110.7092        14     1.014     0.790  75.39   0
       405    401.5757     39.7090 300.3293068 +22.5173685     388.7838     72.45963      1.126     4.03     4.943435      20.4587     43.08807         5     0.963     0.482  82.36   0
       406    314.1519     35.8183 300.3033725 +22.4900634     250.5516     72.55199      1.267     3.94     5.155668      20.4587     32.44351         6     0.795     0.561 -39.98   0
       407    144.7676     34.8271 300.2510316 +22.4390285     325.3577     72.51506      1.329     3.91     5.133387      20.4587     35.92972         6     0.795     0.551  53.17   0
       408    452.3012     33.8578 300.3469879 +22.5308790      369.739     72.60735      1.654     4.56     4.859757      20.4587     45.92255         8     1.003     0.589  74.94   0
       409    278.9467     31.0903 300.2939565 +22.4781583     488.5735     72.55199      1.428     4.30     5.133731      20.4587     54.14179        10     1.117     0.689  44.79   0
       410    546.6013     26.6998 300.3786609 +22.5570597     788.7214     72.38565      1.161     2.41     4.820926      20.4587     116.7659        13     0.908     0.794  50.92   0
       411    779.3770     25.7867 300.4514642 +22.6264788     443.0254     72.49659      1.370     2.54     4.712527      20.4587     44.95669         6     0.699     0.612  35.28   0
       412    281.7227     24.6370 300.2969116 +22.4771357     390.1938     72.47811      1.620     4.11     5.148765      20.4587     41.49829         6     0.734     0.658 -81.73   0
       413    155.9924     24.1243 300.2579895 +22.4393177     397.6119     72.45963      1.386     3.68       5.0218      20.4587     64.36794         9     0.995     0.755 -79.56   0
       414    709.9922     21.5424 300.4312198 +22.6044912     863.7695     72.49659      1.468     3.00     4.742281      20.4587     94.42555        13     1.029     0.810  89.59   0
       415    340.9675     22.3116 300.3160914 +22.4942148     277.3845     72.47811      1.337     2.26      5.17296      20.4587     52.62345         5     0.745     0.555 -84.76   0
       416    518.4939     19.5689 300.3722222 +22.5465935     1824.851     72.44114      1.251     2.26     4.824913      20.4587     232.3493        20     1.044     0.944  64.11   0
       417    544.4327     19.2797 300.3803911 +22.5542771     1853.416     72.49659      0.768     1.14     4.814448      20.4587     728.3155         7     0.567     0.464  39.12   0
       418    607.6593   1015.4775 300.0764795 +22.8593344     6680.573     72.57045      1.734     3.48     2.708183      20.4587     509.6819        43     1.399     1.306   0.01  16
       419    119.0210   1011.3956 299.9258298 +22.7114987     1418.129     72.47811      8.273    12.17      29.2333      20.4587      45.6963        21     3.253     1.267  61.56  26
       420    199.0156   1009.4692 299.9513146 +22.7349667     673.8011     72.53352      2.356     4.84     11.01189      20.4587     56.95763        11     1.222     0.931 -28.73   0
       421    487.6209   1009.8486 300.0409465 +22.8217034     511.2527     72.53352      1.737     4.98     2.936498      20.4587     46.97567         7     0.944     0.743 -44.94   0
       422    516.2308   1006.3084 300.0510026 +22.8292729     1435.076     72.45963      1.543     3.46     2.931354      20.4587     132.1965        17     1.117     0.947  -1.92   0
       423     54.8061   1019.2045 299.9033402 +22.6944517     1176.028     72.36714      8.036    10.49     58.52533      20.4587     55.67174        17     2.418     1.267 -62.91  19
