#   1 NUMBER                 Running object number                                     
#   2 X_IMAGE                Object position along x                                    [pixel]
#   3 Y_IMAGE                Object position along y                                    [pixel]
#   4 ALPHA_J2000            Right ascension of barycenter (J2000)                      [deg]
#   5 DELTA_J2000            Declination of barycenter (J2000)                          [deg]
#   6 FLUX_APER              Flux vector within fixed circular aperture(s)              [count]
#   7 FLUXERR_APER           RMS error vector for aperture flux(es)                     [count]
#   8 FLUX_RADIUS            Fraction-of-light radii                                    [pixel]
#   9 FWHM_IMAGE             FWHM assuming a gaussian core                              [pixel]
#  10 BACKGROUND             Background at centroid position                            [count]
#  11 THRESHOLD              Detection threshold above background                       [count]
#  12 FLUX_MAX               Peak flux above background                                 [count]
#  13 ISOAREA_IMAGE          Isophotal area above Analysis threshold                    [pixel**2]
#  14 A_IMAGE                Profile RMS along major axis                               [pixel]
#  15 B_IMAGE                Profile RMS along minor axis                               [pixel]
#  16 THETA_IMAGE            Position angle (CCW/x)                                     [deg]
#  17 FLAGS                  Extraction flags                                          
         1    677.8273     16.0290 300.3928150 +22.6014532     737.4475     72.25871      1.552     4.06     6.921306     20.39157     72.58024        13     1.046     0.923 -89.83   0
         2    387.5975     13.3006 300.3032937 +22.5138378     898.6843     72.16658      1.684     3.92     6.468381     20.39157     99.26732        17     1.224     1.055 -75.05   0
         3    727.1439      4.4116 300.4119503 +22.6128597     557.0624     70.12804      1.411     2.89     7.389811     20.39157     55.99003         9     0.853     0.690 -58.52  16
         4    158.9499      3.2552 300.2354044 +22.4425092     3631.288     65.98305      1.647     3.36     7.321947     20.39157     340.7917        30     1.344     1.170   1.36  24
         5    190.0393   1009.3895 299.9185996 +22.7406687     153.4265     72.27712      0.858     5.47     89.15077     20.39157     35.17174         5     1.746     0.483  39.26   3
         6    311.9409   1021.7512 299.9524975 +22.7807816     697.7134      66.0032      5.087     7.06     5.759026     20.39157     29.66125         9     1.992     0.702  59.64  24
         7    300.6741   1022.8961 299.9486198 +22.7777305     414.6127     60.62302      4.940     5.36     5.907333     20.39157     31.38737         6     1.191     0.681 -51.69  24
         8     72.9501   1010.4368 299.8818576 +22.7058371     5576.125     72.29553     16.426    72.92     70.62573     20.39157     182.0627      2022    16.051    11.297  36.90  27
         9     65.1537    950.6812 299.8988619 +22.6863656     5417.544     72.25871     29.975   127.47     30.19369     20.39157     1328.635      4960    23.167    19.460 -46.91  27
        10    626.2082    984.3246 300.0625152 +22.8642716     10208.68     72.25871      2.474    13.33     4.546905     20.39157     442.9632        71     3.091     1.599 -14.78   3
        11    721.1220    987.1372 300.0911790 +22.8935250     562.7596     72.35072      2.089     6.99     4.580485     20.39157     35.76113        13     1.390     0.986  23.46   0
        12     25.1513    986.9079 299.8746531 +22.6847482     752.7272     72.31393      2.127     3.60     23.61402     20.39157     48.18072         5     1.337     0.280 -80.13   1
        13    184.9355   1001.5530 299.9195606 +22.7368904     1438.208     72.31393      3.697    13.03     83.16204     20.39157     52.82358        38     2.691     1.755 -80.13   3
        14    154.4853    977.9409 299.9177695 +22.7209840     2035.268      72.3875      7.762    14.99     63.73875     20.39157     68.09668        52     3.383     1.846  67.30   3
        15    152.8674    969.9677 299.9198587 +22.7182122     1803.577     72.27712     16.508    15.88      56.5376     20.39157     56.89323        63     4.513     1.554  50.12   3
        16    912.3637    970.9510 300.1560770 +22.9461748     794.3721     72.29553      2.842     7.76     4.514718     20.39157     47.98948        10     1.771     0.951 -63.74   2
        17    166.0199   1000.6106 299.9139853 +22.7309452     1657.808     72.25871      3.510    11.88     83.98438     20.39157     55.26971        35     3.250     1.209  81.86   3
        18    638.9978    953.5674 300.0765006 +22.8592756     7028.782      72.2403      2.146     4.83     4.571927     20.39157     364.1137        55     1.684     1.620  35.89   0
        19    159.4525    996.7280 299.9132056 +22.7278615     3205.951     72.27712      7.064    26.24      80.8415     20.39157     76.68791       189     5.356     3.721 -80.40  19
        20    343.6357    997.2878 299.9703144 +22.7832705     481.0269     72.25871      2.017     6.21     5.410503     20.39157     34.10141         8     1.154     0.938 -10.71   0
        21    150.0611    946.6187 299.9265767 +22.7106746     999.9208      72.2403      6.392     7.95     35.83427     20.39157     36.78846         9     1.453     1.217 -65.24   3
        22    135.1579   1007.2120 299.9022434 +22.7235786     408.8652     72.27712      1.698     5.12     89.84294     20.39157     35.80392         7     1.297     0.571 -76.47   0
        23    157.1694    944.7763 299.9293857 +22.7122787     691.4474     72.27712      4.543     7.24     34.03398     20.39157      46.0558        11     2.131     0.688  78.50   0
        24    547.5765    944.3175 300.0510278 +22.8292188     1693.487      72.2403      2.047     5.28     4.520485     20.39157     96.20994        26     1.472     1.222   9.93   0
        25    442.3242    940.3935 300.0195288 +22.7965397     897.1823     72.20345      2.020     5.40     4.801186     20.39157     57.55333        17     1.562     0.908  66.36   2
        26    371.9797    938.6179 299.9982098 +22.7749384     6528.838     72.27712      2.119     4.84     5.366183     20.39157     409.2716        52     1.678     1.548  -6.22   0
        27    404.7413    925.7816 300.0125795 +22.7810785     430.1982      72.2403      2.085     5.85     5.113885     20.39157     31.50336         9     1.384     0.696 -31.00   0
        28    132.8759   1004.4775 299.9024231 +22.7221098     4.008313      72.3875      1.235     5.03     87.14251     20.39157     36.97272         5     1.264     0.567 -52.25   0
        29    919.6835    918.6560 300.1753628 +22.9333452     1220.098     72.36911      1.777     6.17     4.809186     20.39157     89.56122        14     1.309     0.817 -58.65   3
        30    917.2313    917.8295 300.1748665 +22.9323733     1466.956     72.27712      1.944     8.15     4.812075     20.39157     105.5619        22     2.118     0.927 -53.80   3
        31    217.7172   1000.2335 299.9301842 +22.7463463     602.3292      72.2403      1.533     5.19      78.2843     20.39157     63.78468        16     1.370     0.928 -64.49   0
        32    601.0186    911.7329 300.0782676 +22.8358833     250.6412     72.25871      1.394     4.60     4.570058     20.39157     36.01435         5     1.025     0.587  89.60   0
        33    707.2281    906.0369 300.1132152 +22.8660754      774.247     72.29553      2.219     6.57     4.756603     20.39157     48.72149        16     1.324     1.203 -53.60   0
        34    741.9496    900.7316 300.1257627 +22.8749551     1092.615     72.27712      2.164     6.70     4.806324     20.39157     65.30618        24     1.565     1.231  19.86   0
        35    520.2421    901.2953 300.0564997 +22.8086766     278.5661     72.27712      1.396     3.90     4.696441     20.39157     37.98977         5     0.983     0.444  45.92   0
        36    186.9120    985.1029 299.9255238 +22.7327659     4007.134     72.46098      7.818    21.16     67.36888     20.39157     83.04415       276     5.207     4.619 -79.68   3
        37    764.1628    894.3738 300.1347542 +22.8797843     11472.74     72.29553      2.040     4.64     4.872781     20.39157     647.6867        59     1.619     1.553 -20.30   0
        38    205.8536    984.5469 299.9315950 +22.7382888     4710.588     72.31393      9.183    27.99     65.41708     20.39157     92.80988       403     6.995     4.755 -50.44  19
        39    809.4211    893.9645 300.1489985 +22.8932251     566.6553     72.29553      2.188     6.48     4.915638     20.39157     33.48871         8     1.219     0.966  86.69   0
        40    224.8529    972.5741 299.9413965 +22.7405543     7103.116     72.29553      7.716    30.17     52.12661     20.39157     163.5293       612     9.298     4.645  59.05  18
        41    534.3586    991.1826 300.0316737 +22.8387070      2372.94     72.29553      2.128     5.18      4.51996     20.39157     143.1966        35     1.481     1.467 -76.34   0
        42     76.8284    885.6490 299.9236280 +22.6712206     894.5068     72.29553      3.877     5.31     12.28129     20.39157       46.651        13     1.296     0.728 -88.49   0
        43    815.8633    882.0570 300.1548778 +22.8917347     528.9913     72.33233      2.571     7.84     4.942936     20.39157     34.43307        11     1.558     1.104 -32.39   0
        44    468.7674    882.5071 300.0465775 +22.7878541     440.8709     72.22187      1.696     5.73     4.856881     20.39157     39.71556         9     1.040     0.890  19.88   0
        45    772.5051    876.7333 300.1430888 +22.8772171     1304.067     72.40588      1.905     4.90      4.95181     20.39157     76.86368        23     1.363     1.167  25.63   0
        46    954.4636    876.0844 300.2000525 +22.9315304     393.1025     72.36911      1.712     4.12     5.049191     20.39157     32.45922         6     1.034     0.468  33.22   0
        47    625.6280    874.0244 300.0981914 +22.8324321     506.5098     72.25871      2.255     4.43      4.69373     20.39157      31.0275         6     1.095     0.509  39.47   0
        48    811.1907    869.9430 300.1573581 +22.8868554     973.3709     72.25871      2.176     6.63      4.97883     20.39157     60.56965        19     1.362     1.257 -50.56   0
        49    919.5182    866.7905 300.1921703 +22.9183950     426.5778     72.22187      2.463     5.18     4.969582     20.39157      28.3861         6     1.151     0.660 -69.68   0
        50    859.2120    861.5663 300.1750566 +22.8988329     666.5478     72.25871      2.170     7.56     4.974399     20.39157     38.68669        14     1.519     1.054   7.55   0
        51    710.8896    860.1989 300.1292550 +22.8540092     672.5109     72.18501      2.104     7.06     4.993578     20.39157     44.59048        14     1.303     1.184 -55.20   0
        52    423.1897    856.3499 300.0408888 +22.7666839     4172.041     72.29553      1.926     4.50     5.097603     20.39157     288.8227        42     1.489     1.462   8.93   0
        53    722.1450    857.1071 300.1337682 +22.8564933     798.8043     72.33233      2.133     6.25      5.02713     20.39157     46.72543        14     1.144     0.960   6.88   0
        54   1011.8030    856.2424 300.2243951 +22.9429983     200.7942     72.29553      1.553     5.49     5.218972     20.39157      34.5001         5     1.169     0.727 -18.30   0
        55    202.3604    844.4843 299.9760341 +22.6970666     349.5092      72.2403      1.506     4.20     6.830827     20.39157     30.72337         5     1.049     0.480  89.60   0
        56    467.4061    844.1647 300.0586144 +22.7764406     249.3487     72.27712      1.525     3.43     5.045198     20.39157     30.77229         5     0.742     0.459  72.58   0
        57    148.9285    842.4351 299.9600848 +22.6804539     631.1107     72.27712      1.911     6.25     8.666104     20.39157     59.91001        14     1.510     0.857 -43.21   0
        58    125.5410    838.9273 299.9539532 +22.6724330     1489.039     72.31393      2.048     4.99      8.48211     20.39157     106.0388        29     1.523     1.333  54.54   0
        59    188.5547   1003.7795 299.9199621 +22.7386146     1471.853     72.33233      2.868     8.16     84.63811     20.39157     40.73941        17     1.569     1.186  64.77   3
        60    997.5177    828.2529 300.2290330 +22.9306776     2130.431     72.31393      2.246     5.80     5.021084     20.39157     98.01391        37     1.651     1.514  52.52   0
        61    951.6867    826.8804 300.2151773 +22.9165605     2323.852     72.44262      2.150     5.42      5.00828     20.39157      110.422        36     1.588     1.486 -36.74   0
        62    657.0017    826.8834 300.1232872 +22.8282964     430.4504     72.18501      1.789     5.62      5.03033     20.39157     29.34742         7     1.293     0.689 -73.50   0
        63    428.4797    826.3589 300.0522812 +22.7596617     252.2952     72.25871      1.575     3.23     5.168195     20.39157     42.13522         5     0.758     0.728 -25.61   0
        64    735.2548    820.7911 300.1496563 +22.8499904     681.4802     72.27712      1.928     7.02     5.276016     20.39157     40.92701        16     1.435     0.963  15.08   0
        65    158.0631    820.5385 299.9700397 +22.6769123     449.6072     72.31393      1.698     6.07     7.030559     20.39157     37.54155        11     1.146     0.905 -77.84   0
        66    603.2942    814.5768 300.1105517 +22.8086703     4933.866     72.16658      1.899     4.15     5.010441     20.39157     349.2117        41     1.449     1.424  27.87   0
        67    621.5574    986.5552 300.0603409 +22.8635179     8782.648     72.35072      2.232     6.11     4.543134     20.39157     449.4224        34     1.652     1.404  57.80   3
        68    405.4799    811.9903 300.0497902 +22.7486432     655.7217     72.22187      2.127     5.98     5.227413     20.39157     45.95406        10     1.317     0.763   0.96   0
        69    153.2767    808.2274 299.9725513 +22.6719452     1244.656     72.27712      1.912     5.03     6.049419     20.39157     97.65134        23     1.412     1.213 -14.62   0
        70    623.8574    807.0087 300.1194174 +22.8126584     849.2109     72.25871      1.876     4.59     5.074168     20.39157     63.02823        18     1.204     1.094  57.02   0
        71    173.5680    805.2288 299.9798349 +22.6771703     465.0002     72.27712      1.420     5.56      5.74234     20.39157     37.01755         9     1.336     0.653 -66.69   0
        72    996.3040    794.8576 300.2395059 +22.9207165     1192.922     72.35072      2.072     6.51     4.871787     20.39157     66.49473        24     1.438     1.289  51.53   0
        73    779.3219    794.3808 300.1719760 +22.8556039     4286.944     72.27712      1.925     4.28     5.426358     20.39157     286.6413        43     1.522     1.440  46.03   0
        74    187.5730    788.6440 299.9895781 +22.6766120     426.3534     72.29553      1.707     5.03     5.479777     20.39157     49.96661         8     1.242     0.577 -14.14   0
        75    496.4638    786.8223 300.0862942 +22.7686882     720.0632     72.25871      1.757     5.19     5.261949     20.39157     58.18637        13     1.307     0.976 -40.12   0
        76    142.8486    784.5639 299.9769965 +22.6620293     1127.685     72.29553      2.234     4.97     5.513526     20.39157     92.08147        19     1.404     1.206 -42.20   0
        77    558.4711    780.1010 300.1077897 +22.7853398     603.0156     72.42426      1.934     6.56     5.276496     20.39157     47.76455        14     1.252     0.964 -77.25   0
        78    292.2830    776.6755 300.0260365 +22.7045737     54007.88     72.36911      1.925     4.08     5.330667     20.39157     4206.583        94     1.620     1.567  27.32   0
        79    550.1893    775.7852 300.1066122 +22.7816189      1559.23     72.18501      1.749     3.79     5.313813     20.39157     133.5889        27     1.385     1.154  67.35   0
        80    962.2867    776.2134 300.2349481 +22.9051737     610.1375     72.22187      1.683     4.88     4.989771     20.39157     53.90158         8     1.298     0.520  27.09   3
        81    963.3670    774.0592 300.2359851 +22.9048780     553.2063     72.31393      2.063     5.50     4.989401     20.39157     39.63965        10     1.395     0.612  44.05   2
        82    221.5616    774.4895 300.0047469 +22.6827425     464.5601     72.25871      1.856     4.28     5.466758     20.39157     42.93282         7     0.892     0.671 -70.51   0
        83    579.2529    771.8401 300.1169471 +22.7891946     798.7019     72.25871      1.750     4.27     5.236432     20.39157     70.87359        16     1.232     0.905  33.26   0
        84    590.4339    770.4922 300.1208681 +22.7921577     586.1849     72.22187      1.693     4.19     5.206285     20.39157     53.82402        12     1.074     0.900  22.33   0
        85    695.5001    766.6772 300.1548466 +22.8225383     503.0412     72.44262      1.855     7.16     5.277967     20.39157     33.05468         9     1.572     0.914 -50.06   0
        86    489.9141    764.3818 300.0915448 +22.7602826      297.062     72.22187      1.813     4.97     5.294247     20.39157     27.77596         5     1.437     0.486  -0.59   0
        87    733.1116    757.1544 300.1696638 +22.8310689     801.1655     72.25871      1.861     4.03       5.4297     20.39157     59.86988        16     1.108     1.024  78.32   0
        88    342.0623    753.9172 300.0489186 +22.7129648     31536.71     72.36911      1.850     3.85     5.300589     20.39157     2503.699        77     1.537     1.503  11.75   0
        89    356.4233    754.4738 300.0532070 +22.7174294     2042.512     72.31393      1.935     3.89     5.286463     20.39157     165.7001        29     1.463     1.265  57.22   2
        90    352.8168    748.8271 300.0539188 +22.7147275     719.3087     72.29553      3.211     6.30     5.293972     20.39157     44.88664        12     1.273     0.876 -24.82   3
        91    865.2308    750.1719 300.2131293 +22.8686299     2975.668     72.27712      1.887     4.14     5.423584     20.39157     185.6275        32     1.382     1.295  27.40   0
        92    895.8025    747.9720 300.2233802 +22.8771518     293.0253     72.22187      1.602     2.14     5.319495     20.39157     33.13982         5     0.916     0.693 -87.33   0
        93    623.2458    746.2782 300.1389568 +22.7950342     936.6061     72.25871      1.699     3.71     5.188027     20.39157     80.40562        16     1.152     0.957  35.72   0
        94    459.8521    746.2230 300.0880829 +22.7460601     675.8757     72.29553      2.109     4.26     5.241642     20.39157     47.87006        10     0.984     0.736 -24.07   0
        95     30.4913    741.3665 299.9561025 +22.6159402     441.3808      72.2403      1.666     3.67     6.210437     20.39157     49.07811         5     0.937     0.500  89.24   0
        96    470.2563    740.9150 300.0930466 +22.7476540      878.125     72.36911      1.757     4.42     5.273879     20.39157     71.66286        15     1.176     0.905  -6.92   0
        97    871.1445    738.3101 300.2188272 +22.8669921     559.4193     72.31393      1.696     4.92     5.437763     20.39157     44.63838         9     1.129     0.608  16.00   0
        98    224.8454    745.8961 300.0150562 +22.6755223     751.6774     72.29553      1.864     4.53     5.365769     20.39157     59.44137        17     1.214     1.146  46.81   0
        99     58.6574    734.6984 299.9670219 +22.6224751     468.8111     72.36911      1.592     3.82     5.890108     20.39157     73.57193        13     1.240     1.035  62.17   0
       100    222.1566    730.1078 300.0193479 +22.6701855     592.3036     72.27712      1.776     5.68     5.345247     20.39157     52.69672        13     1.116     0.945  56.28   0
       101    546.0089    720.8954 300.1231402 +22.7646043      426.575     72.18501      1.606     5.61     5.566122     20.39157     34.72473         9     1.117     0.793 -86.28   0
       102    515.6130    718.8890 300.1143249 +22.7549208     673.2255     72.22187      1.879     5.59     5.530677     20.39157     50.27597        14     1.256     0.954  80.33   0
       103    931.7128    715.5610 300.2451115 +22.8785884     4513.151     72.25871      1.908     4.19     5.466734     20.39157     265.5062        44     1.517     1.438   1.71   0
       104    537.2601    716.2470 300.1219250 +22.7606482      1326.21     72.31393      1.701     3.84     5.587362     20.39157     131.5816        23     1.242     1.189  -8.07   0
       105    456.6299    715.8533 300.0969439 +22.7363749     411.0046     72.27712      1.846     5.09       5.3717     20.39157     47.74026         6     1.160     0.632  -5.12   0
       106    618.8984    711.4902 300.1489018 +22.7837401     389.5803     72.46099      1.578     4.75     5.373128     20.39157     30.42235         8     0.905     0.706  51.90   0
       107    920.1920    707.0986 300.2442657 +22.8727070     1857.006     72.14814      1.793     3.99     5.616092     20.39157     118.6744        30     1.405     1.243  35.28   0
       108    282.9821    700.6239 300.0478447 +22.6799585     988.3112     72.25871      1.807     5.22     5.398169     20.39157      80.9826        20     1.343     1.121  61.49   0
       109    951.3909    697.2433 300.2572009 +22.8792141      1703.45     72.29553      1.930     4.48     5.505808     20.39157     122.7989        26     1.411     1.223  36.63   0
       110    746.3951    698.0435 300.1930050 +22.8180653     2493.325     72.29553      1.810     3.74     5.591803     20.39157     182.5937        29     1.316     1.239  24.31   0
       111    828.7021    684.0978 300.2231981 +22.8387048     627.6514     72.47935      1.758     6.42     5.937223     20.39157     47.91674        15     1.274     0.919  63.67   0
       112    132.6607    683.9932 300.0064932 +22.6301196      618.493     72.25871      2.017     4.43     5.491969     20.39157     46.57612         9     0.964     0.751 -70.05   2
       113    864.9327    675.0694 300.2374300 +22.8469577     148655.1     72.33233      1.832     3.79     6.023389     20.39157      10338.2       161     1.645     1.586 -42.11   0
       114    627.3947    678.4913 300.1622661 +22.7768066     301.9614     72.18501      1.485     3.97     5.571168     20.39157      34.9339         6     0.926     0.487  87.18   0
       115   1011.9984    676.8595 300.2827349 +22.8914958     1324.617      72.2403      2.206     5.82     4.998719     20.39157     79.99026        21     1.404     1.173   5.73   0
       116    717.5640    675.4158 300.1913661 +22.8029297     670.3749     72.27712      1.656     4.48     5.561114     20.39157     53.03214        15     1.098     1.012 -61.48   0
       117    897.5193    667.9194 300.2499168 +22.8546584     485.7645     72.40588      1.957     5.18     6.026552     20.39157     34.19762         8     1.290     0.588  36.14   0
       118    551.0801    663.7631 300.1432739 +22.7497155     1596.714      72.2403      1.607     3.51     5.874283     20.39157     173.0727        24     1.263     1.137 -28.70   0
       119    732.3690    661.1663 300.2006085 +22.8032692      9701.24     72.29553      1.688     3.39     5.542369     20.39157     791.0046        50     1.391     1.362 -20.00   0
       120    233.8549    655.9488 300.0470689 +22.6524094     5036.861     72.31393      1.824     3.59     5.415915     20.39157     416.5352        40     1.473     1.355  16.77   0
       121    315.9359    654.0491 300.0732219 +22.6764667     1177.549     72.31393      1.722     4.00     5.372837     20.39157     99.11102        20     1.247     1.061  21.62   0
       122    192.2043    652.0786 300.0353712 +22.6388129     382.4075     72.18501      1.653     5.03     5.429216     20.39157     38.52134         7     1.114     0.653  -0.02   0
       123    524.1991    649.7747 300.1394436 +22.7376448     560.6679     72.22187      1.429     3.44     5.920246     20.39157     80.02135        15     1.043     0.992  46.13   0
       124    515.8552    641.8770 300.1394092 +22.7328769     3341.089     72.31393      1.630     3.33     5.925753     20.39157     297.9418        32     1.263     1.243 -24.17   0
       125    506.1429    635.5985 300.1384230 +22.7281640     1463.897     72.22187      1.598     3.29     5.916575     20.39157     142.3574        20     1.159     1.084  39.39   0
       126    899.8741    634.0623 300.2616456 +22.8456314     427.1501     72.31393      1.706     5.81     6.064638     20.39157     39.38621         9     1.110     0.857 -59.98   0
       127    169.6269    631.8167 300.0349284 +22.6262295     707.3707     72.29553      1.696     4.62     5.437901     20.39157      69.8159        15     1.293     0.978 -67.77   0
       128    183.9164    630.2638 300.0398763 +22.6300674     607.3781     72.36911      1.522     3.11     5.418807     20.39157     67.12578        11     0.902     0.837 -58.97   0
       129    952.2306    626.5878 300.2804076 +22.8591543     386.3568     72.27712      1.409     3.83     5.845527     20.39157     39.14568         5     1.093     0.386 -73.84   2
       130    209.1538    626.7684 300.0488600 +22.6366295     470.8496     72.31393      2.071     6.72     5.381265     20.39157     37.18069        12     1.457     0.998  33.28   0
       131    530.4741    625.9257 300.1491413 +22.7326748     356.1921     72.33233      1.348     4.18      5.99562     20.39157     60.44765         7     0.957     0.677  78.14   0
       132    430.9444    625.1285 300.1184074 +22.7026273     1745.141     72.29553      1.635     3.37     5.634248     20.39157     153.4227        23     1.254     1.096  74.32   0
       133   1006.5544    623.2458 300.2984456 +22.8744519     829.3958     72.31393      1.769     4.34     5.335411     20.39157     68.25395        16     1.203     0.949  34.36   0
       134     84.7540    619.9811 300.0123830 +22.5973876     19929.09     72.31393      1.954     3.98     5.926501     20.39157     1499.229        67     1.599     1.547  26.03   0
       135      6.5085    621.8560 299.9874558 +22.5744637     543.2886     72.33233      1.535     4.62     6.300088     20.39157     65.20362        11     1.184     0.794 -76.63  16
       136    551.3021    619.6594 300.1576631 +22.7371141     337.8817     72.35072      1.443     4.90     6.023169     20.39157     39.79509         6     0.897     0.758 -68.52   0
       137    433.6004    617.6443 300.1216641 +22.7012739     273.9398     72.27712      1.982     3.80     5.675462     20.39157     30.68117         5     1.360     0.304 -44.82   0
       138    934.0515    607.3217 300.2809906 +22.8481743     1053.438     72.27712      1.841     3.56     6.046884     20.39157      88.2012        18     1.230     0.909  16.33   0
       139    800.6791    605.3432 300.2400315 +22.8076810     545.7961     72.31393      1.614     3.89     6.027908     20.39157     54.06755        12     1.070     0.802   6.14   0
       140     31.0207    604.2866 300.0007766 +22.5767730     1459.974     72.20345      2.058     5.18     6.161063     20.39157     92.89394        24     1.524     1.257 -55.01   0
       141    515.8334    620.4768 300.1463505 +22.7267239     1162.007     72.27712      1.848     4.30     5.969922     20.39157     86.54094        21     1.434     0.960  55.73   0
       142    478.8963    601.6006 300.1409758 +22.7102369     495.7375     72.14814      1.645     3.79     5.885811     20.39157     53.00335         9     0.921     0.743 -12.16   0
       143    873.6793    599.9987 300.2645337 +22.8279984     804.9032     72.16658      2.113     6.26     6.085294     20.39157     62.87365        15     1.384     0.820   1.75   0
       144    272.0741    600.4895 300.0769632 +22.6479452     451.0764     72.44262      2.144     4.54     5.324118     20.39157     41.46814         6     1.226     0.478  -7.48   0
       145    619.0178    597.8839 300.1858283 +22.7511408     304.2736      72.2403      1.405     5.06     5.706543     20.39157      32.0814         5     1.134     0.639  88.70   0
       146    436.0543    593.5563 300.1302478 +22.6950915     657.4512     72.27712      1.435     3.18     5.749698     20.39157     72.35657        12     1.054     0.830 -27.49   0
       147    584.4306    592.4489 300.1768167 +22.7392204     401.5224     72.31393      1.512     3.38     5.940523     20.39157       48.312         7     0.956     0.483  -8.25   0
       148    631.1473    590.6584 300.1919533 +22.7526975     639.6218     72.33233      1.775     3.57     5.678854     20.39157     57.59077         9     0.892     0.698  70.16   0
       149    601.7811    590.3426 300.1829059 +22.7438119     546.5269     72.27712      1.527     3.66      5.85886     20.39157     69.31351        10     0.978     0.790  26.44   0
       150    480.1431    589.2507 300.1453731 +22.7070633     1047.068     72.33233      2.059     4.85     5.943449     20.39157     68.08556        23     1.441     1.148  20.43   0
       151    913.9514    585.0765 300.2819412 +22.8357629     3420.316     72.27712      1.732     3.54     6.061127     20.39157     259.7007        38     1.455     1.315 -74.25   0
       152    445.7040    584.7427 300.1361132 +22.6954513     1769.465     72.35072      1.636     3.24     5.812551     20.39157     174.2393        20     1.145     1.053 -80.51   0
       153   1012.1458    583.5620 300.3130745 +22.8647144     700.6982     72.27712      1.946     4.84     5.391448     20.39157     51.19842        15     1.081     1.065 -63.58   0
       154    810.8192    582.5025 300.2506085 +22.8041519       350.82     72.20345      1.465     4.17     5.971712     20.39157     38.28983         6     0.933     0.572  67.16   0
       155      7.6256    578.0157 300.0020334 +22.5622202     5136.892     72.29553      2.033     4.15     6.137725     20.39157     378.2455        47     1.586     1.543  83.94  16
       156    954.0591    574.6573 300.2978376 +22.8447710     306.4982     72.35072      1.702     5.29      5.84897     20.39157     25.71363         6     1.185     0.666  19.13   0
       157    309.1055    571.4136 300.0979229 +22.6506951     9216.723     72.20345      1.702     3.36     5.320824     20.39157     908.3527        46     1.382     1.324  60.48   0
       158    431.5122    568.5335 300.1369561 +22.6865442     9016.397     72.36912      1.643     3.25     5.783492     20.39157     955.2132        46     1.418     1.256  66.81   0
       159    510.9014    566.4080 300.1623664 +22.7097158     172.1327     72.14814      1.245     4.23     6.125242     20.39157     31.07349         5     0.938     0.545  45.31   0
       160    678.1531    565.6071 300.2147337 +22.7595757     326.2513     72.29553      1.592     3.49      5.56448     20.39157     25.68111         5     0.783     0.449 -17.46   0
       161    843.2127    562.8534 300.2670892 +22.8082007     1861.825     72.29553      1.631     3.31     5.997319     20.39157     148.2934        26     1.233     1.160  57.28   0
       162    927.9570    560.2100 300.2943829 +22.8328054     12379.08     72.27712      1.719     3.44     6.019907     20.39157     1028.027        49     1.402     1.383 -11.14   0
       163    492.1685    558.1729 300.1592055 +22.7017390     11627.14     72.27712      1.582     3.08      6.10563     20.39157     1098.436        49     1.315     1.286  69.24   0
       164    219.5767    553.5078 300.0758821 +22.6187239     1419.729     72.20345      1.840     3.98     5.343541     20.39157     120.5895        24     1.345     1.132  35.15   0
       165    661.4962    554.2514 300.2132284 +22.7513248     549.3752     72.35072      1.678     3.91      5.71944     20.39157     55.70679        10     1.041     0.710 -12.70   0
       166    467.1840    551.8658 300.1534725 +22.6924432      307.851     72.25871      1.347     4.67     6.021458     20.39157     44.11366         8     1.107     0.669   9.16   0
       167    423.8650    546.2937 300.1417937 +22.6778658      4421.15      72.3875      1.572     3.12     5.780174     20.39157     425.9686        36     1.309     1.235  71.37   0
       168    766.6383    546.6246 300.2484781 +22.7806131     764.3842     72.29553      1.511     3.15     5.730803     20.39157     81.46574        12     0.932     0.816   9.82   0
       169    402.1744    544.5648 300.1356025 +22.6708710     1201.607     72.29553      1.577     3.92     5.642286     20.39157      118.429        20     1.224     1.071  67.72   0
       170    156.4940    543.9796 300.0593558 +22.5970815     793.6995     72.20345      1.906     4.91     5.744631     20.39157     74.08535        16     1.252     1.138  28.81   0
       171    843.6595    542.1996 300.2739325 +22.8023971     1526.303      72.2403      1.647     3.51     5.944356     20.39157     130.9906        24     1.232     1.170 -45.07   0
       172    540.4852    533.9394 300.1821186 +22.7092494     207251.6      72.3875      1.581     3.10     6.257191     20.39157     20432.28       200     1.580     1.487 -23.61   0
       173     90.3307    541.6574 300.0395387 +22.5765822      519.853     72.29553      1.789     5.56     5.765186     20.39157     39.04537         8     1.411     0.618 -80.16   0
       174    724.3653    539.1873 300.2377131 +22.7658196     839.2379     72.25871      1.595     4.12     5.663885     20.39157     79.63109        19     1.307     0.967 -60.67   0
       175    364.3593    539.4084 300.1255054 +22.6580607     380.3081     72.29553      1.890     5.99     5.430177     20.39157     40.54929         9     1.092     0.925  73.96   0
       176    226.5861    533.7554 300.0844727 +22.6151539     3512.883     72.29553      1.686     3.28     5.369659     20.39157     375.9437        34     1.353     1.231  55.87   0
       177    792.2781    530.9075 300.2615739 +22.7837708     557.7684     72.42426      1.650     4.25     5.701701     20.39157     43.46056        11     1.030     0.737 -16.20   0
       178    431.1236    514.4655 300.1543827 +22.6708983     2918.353     72.36911      1.735     3.15     5.826423     20.39157     242.7948        36     1.475     1.263  86.11   0
       179    275.3241    516.4723 300.1052429 +22.6247968      481.451     72.35072      1.618     5.22     5.496333     20.39157     48.46087         9     1.137     0.780  35.84   0
       180    842.2612    511.4620 300.2834722 +22.7931418     387.0395     72.31393      1.540     3.47     5.672406     20.39157     35.64938         5     0.734     0.474  16.06   0
       181    748.1158    503.1585 300.2568098 +22.7625744     399.8604      72.2403      1.510     6.08      5.62388     20.39157     35.19873        10     1.091     0.956  62.74   0
       182    828.1015    500.5206 300.2826067 +22.7857582     1735.494     72.40588      1.619     3.47     5.545189     20.39157     160.0164        24     1.218     1.101 -78.42   0
       183    699.2025    498.2119 300.2431673 +22.7465094     2641.234     72.09279      1.530     3.01     5.733878     20.39157     257.0776        26     1.202     1.094  27.32   0
       184    942.3290    492.2151 300.3209351 +22.8175545     1013.457     72.27712      2.502     4.69     5.621463     20.39157     61.46013        13     1.063     1.012 -88.61   2
       185    603.9357    494.8042 300.2145850 +22.7170063     470.1617     72.25871      1.654     5.07      6.14138     20.39157     53.05862         9     1.126     0.823 -12.38   0
       186    486.6063    493.8769 300.1783393 +22.6816028     680.2301     72.18501      1.478     3.00     6.118425     20.39157     75.32661        14     0.959     0.928 -89.67   0
       187    956.6896    492.3369 300.3253766 +22.8218866     1194.606     72.36911      1.699     3.75     5.603949     20.39157      102.521        21     1.257     1.062  37.44   0
       188    828.4910    490.5877 300.2859515 +22.7830190     2314.486     72.22187      1.929     4.78     5.460993     20.39157     164.7465        36     1.656     1.251  79.50   0
       189    581.5311    489.0030 300.2094872 +22.7086304     723.0679      72.2403      2.126     3.17     6.178462     20.39157     75.33701        11     0.978     0.844  20.50   2
       190    866.5471    485.8152 300.2993698 +22.7930365     4284.082     72.25871      1.647     3.33     5.525903     20.39157      377.291        33     1.286     1.252 -60.26   0
       191    419.9135    487.8410 300.1595322 +22.6598926     390.9628     72.25871      1.497     5.30     5.767336     20.39157     43.19735         8     1.218     0.650 -35.61   0
       192    367.7821    488.4367 300.1431113 +22.6444472     369.2598     72.27712      1.491     5.00     5.707108     20.39157     42.92179         7     1.041     0.680  10.97   0
       193    604.8077    482.2054 300.2189448 +22.7136469     356.8083     72.12969      1.404     3.79     6.139139     20.39157     34.55306         5     0.928     0.445 -45.34   0
       194    527.2221    481.6421 300.1949584 +22.6902518     384.6393     72.31393      1.336     4.20     6.198266     20.39157     37.68213         6     0.747     0.674  58.84   0
       195    958.4388    476.6079 300.3310265 +22.8178865     664.3013     72.29553      1.521     4.19     5.559108     20.39157     73.54895        15     1.264     0.985  57.31   0
       196     98.6137    475.7346 300.0635044 +22.5601432     995.3045      72.2403      1.854     3.95     5.755497     20.39157     103.7199        15     1.150     0.972  60.79   0
       197    759.3859    470.1285 300.2710414 +22.7564532     330.4148     72.27712      1.586     4.11     5.549367     20.39157     33.92558         6     0.743     0.648 -25.43   0
       198    954.9012    465.8318 300.3334191 +22.8137289     318.3772     72.25871      1.314     3.90     5.550483     20.39157     36.12701         6     0.768     0.568  40.87   0
       199    699.1403    460.4973 300.2553854 +22.7356505     373.3312     72.35072      1.306     3.98     5.774486     20.39157     45.19202        10     1.103     0.634  21.34   0
       200    639.8745    456.0594 300.2383546 +22.7166322     804.9092     72.33233      1.512     3.42     5.935999     20.39157     89.01762        13     1.039     0.866  22.20   0
       201    618.4191    454.5504 300.2321586 +22.7097748     340.9735     72.27712      1.668     4.22     6.007659     20.39157      26.3142         5     1.029     0.493 -88.36   0
       202    954.5998    449.1552 300.3387360 +22.8088424     558.7975     72.27712      1.479     5.45     5.537526     20.39157     59.22575        10     1.083     0.775  33.23   0
       203    700.8055    448.5234 300.2597893 +22.7327071     777.1172     72.18501      1.479     3.21     5.781898     20.39157     90.23682        14     1.024     0.901  -6.97   0
       204    857.8700    444.7903 300.3099744 +22.7786434     1037.116     72.25871      1.679     3.41     5.460279     20.39157     91.91154        17     1.141     0.969  29.93   0
       205    842.5861    440.9454 300.3064547 +22.7729640     654.5153     72.27712      1.654     4.31     5.418538     20.39157     56.37918        16     1.193     1.017  -4.31   0
       206    822.3322    441.4638 300.2999697 +22.7670518     322.4213     72.33233      1.265     3.40     5.360101     20.39157     43.55004         5     0.753     0.445  21.71   0
       207    586.5889    438.8342 300.2273401 +22.6957279     3293.294     72.25871      1.523     2.96     6.044321     20.39157     352.2209        30     1.209     1.148 -81.76   0
       208    946.9467    437.9301 300.3399898 +22.8033242     578.4072     72.27712      1.841     4.91     5.522242     20.39157     56.86196        10     1.047     0.885  12.37   0
       209     63.2631    429.9619 300.0673642 +22.5364083     374.9734     72.27712      1.587     3.95     5.887171     20.39157     42.17067         7     0.855     0.601  71.22   0
       210    592.5244    425.7318 300.2334398 +22.6937395     205.7119     72.35072      1.559     5.56     5.985756     20.39157     31.90809         6     1.123     0.776 -44.89   0
       211    426.8268    425.7689 300.1818225 +22.6441318     310.8912     72.27712      1.321     3.03     5.757113     20.39157     57.55556         7     0.924     0.649   0.10   0
       212    998.1987    418.1205 300.3624106 +22.8129593     1495.395     72.16658      1.850     4.48     5.568234     20.39157     120.6071        25     1.491     1.138 -33.02   0
       213    869.7372    418.3511 300.3222534 +22.7745916     444.2626     72.33233      1.274     2.87     5.479858     20.39157     68.05025         8     0.945     0.538  17.09   2
       214    956.3283    416.9158 300.3497346 +22.8000868     811.3881      72.3875      1.580     3.92     5.514419     20.39157     81.15422        13     1.063     0.970 -77.15   0
       215    697.2379    412.9950 300.2702030 +22.7214261     1120.305     72.29553      1.439     2.95     5.811222     20.39157     125.1203        16     1.086     0.864  32.97   0
       216    492.8453    413.4996 300.2063590 +22.6603776     472.7869     72.29553      1.530     4.88     5.817175     20.39157     55.75875        10     1.139     0.771 -67.88   0
       217    200.8444    410.6506 300.1164061 +22.5720932     736.7114     72.31393      1.797     4.97     5.905662     20.39157     62.51862        18     1.309     1.166  40.83   0
       218     41.6106    409.1253 300.0673927 +22.5239373     234.2025     72.29553      1.137     2.58      5.88568     20.39157      38.9194         5     0.725     0.441 -68.83   0
       219    263.4307    406.5786 300.1371953 +22.5896750     3857.448     72.27712      1.698     3.30     5.890078     20.39157     400.6379        31     1.287     1.200  48.39   0
       220    996.7036    405.4196 300.3660642 +22.8088585      4356.09     72.18501      1.779     3.35     5.539457     20.39157     404.9962        38     1.403     1.323 -75.73   0
       221    210.6859    401.2651 300.1225113 +22.5723467      7552.95     72.36911      1.716     3.34     5.914418     20.39157      686.521        45     1.426     1.322  61.64   0
       222    589.7700    401.3999 300.2404745 +22.6859217     293.6532      72.2403      1.209     2.31     5.909972     20.39157     50.37931         5     0.704     0.448 -21.36   0
       223    976.6509    396.4857 300.3627039 +22.8002899     1888.411     72.27712      1.722     3.42     5.480939     20.39157     161.3099        26     1.244     1.156  52.83   0
       224    351.4880    395.5835 300.1681622 +22.6128950     4817.778     72.20345      1.608     3.00     5.747039     20.39157     553.0079        36     1.322     1.175  58.56   0
       225    595.7932    392.4352 300.2452589 +22.6851484     18473.85     72.27712      1.526     2.80     5.864683     20.39157     2148.672        53     1.310     1.257  85.88   0
       226    613.6514    392.4919 300.2508046 +22.6905110     878.0109     72.33233      2.073     6.76     5.834206     20.39157      55.1182        16     1.604     0.799 -42.35   0
       227    792.9288    383.1570 300.3097145 +22.7414868     486.5256      72.2403      1.480     4.01     5.360262     20.39157     49.12216         7     0.898     0.519 -49.91   0
       228    215.9439    379.7436 300.1311268 +22.5677414     322.9335     72.35072      1.648     4.53     5.937419     20.39157     45.14024         6     0.896     0.652 -60.58   0
       229    929.3849    375.4765 300.3547693 +22.7801067       737.58     72.29553      1.624     4.02     5.300572     20.39157     71.93828        14     1.190     0.878 -48.01   0
       230    466.0620    374.4304 300.2106906 +22.6411309     394.6975     72.29553      1.833     4.67      5.73377     20.39157     31.83124         5     1.176     0.539 -49.47   0
       231    150.3295    372.2810 300.1131408 +22.5459394     2084.777      72.3875      1.842     3.68     6.032785     20.39157     199.7865        29     1.418     1.206  30.23   0
       232    536.4185    361.8641 300.2366775 +22.6585858     6723.056      72.2403      1.531     2.92     5.768228     20.39157     715.7679        39     1.263     1.198  88.56   0
       233    950.0859    362.4062 300.3654678 +22.7825398     1292.636     72.20345      1.730     3.26     5.305475     20.39157     130.3072        21     1.227     1.085 -46.63   0
       234    251.2496    361.2224 300.1481158 +22.5729989      593.258     72.27712      1.530     3.74      5.92045     20.39157     65.42836        11     1.132     0.697   7.42   0
       235    109.3308    354.6478 300.1061113 +22.5285913      563.312     72.25871      1.656     5.00     6.049146     20.39157     58.15805        11     1.342     0.637  12.05   0
       236    797.4423    354.0757 300.3205539 +22.7344748     367.9229     72.25871      1.601     4.28     5.329253     20.39157     35.56155         6     0.988     0.528  14.40   0
       237    740.4587    351.0233 300.3037764 +22.7165448     1224.111     72.27712      1.570     3.44     5.723576     20.39157     120.0069        17     1.114     0.946  49.24   0
       238    650.2690    352.2604 300.2752632 +22.6899074     385.1248     72.31393      1.225     2.94     5.742068     20.39157     60.34196         9     0.893     0.679  20.61   0
       239    443.0570    348.0128 300.2120948 +22.6266510     6212.111      72.2403      1.500     2.97     5.732379     20.39157     579.3997        36     1.247     1.210  63.88   0
       240    835.0010    342.6900 300.3359594 +22.7424386     1453.575     72.18501      1.530     3.38     5.330986     20.39157     151.1048        19     1.165     0.937  87.08   0
       241    932.3503    343.1470 300.3661798 +22.7716942     569.4577     72.31393      1.624     4.42     5.245996     20.39157     55.63163         9     1.034     0.723 -44.82   0
       242    427.9413    336.6402 300.2110765 +22.6188568     570.9224     72.27712      1.923     3.74     5.738237     20.39157     48.60546         7     0.903     0.700  85.35   0
       243    510.4933    334.7969 300.2373802 +22.6430447     473.8529     72.18501      1.543     3.51     5.717421     20.39157      51.0492        10     0.984     0.705  -5.18   0
       244    789.0132    333.8023 300.3245000 +22.7261224     374.9225     72.11124      1.706     4.37     5.432882     20.39157     35.10317         6     1.211     0.450 -53.11   0
       245    807.6168    330.3827 300.3314102 +22.7307055     628.4729      72.2403      1.474     3.64     5.369105     20.39157     77.62408        12     1.053     0.875  57.27   0
       246    330.8054    327.2242 300.1838941 +22.5870620     2618.397     72.25871      1.632     3.22     5.986113     20.39157     265.3418        29     1.303     1.184 -45.05   0
       247     49.1517    324.7120 300.0971107 +22.5019630       1020.9     72.27712      1.770     3.40     5.928818     20.39157     107.0543        20     1.190     1.104 -27.24   0
       248    678.2335    322.0287 300.2937821 +22.6895856     286.4472     72.29553      1.476     4.71     5.744435     20.39157     35.17719         5     0.985     0.639  56.39   0
       249    299.9524    316.6118 300.1777341 +22.5747726     30222.44     72.29553      1.628     3.10     6.088483     20.39157     3017.898        71     1.454     1.341  71.21   0
       250    834.7856    314.3603 300.3450789 +22.7342261     1456.641     72.29553      1.641     3.21     5.416021     20.39157     145.8548        20     1.146     1.060  51.70   0
       251    749.6707    303.6756 300.3220019 +22.7056862     492.1349     72.35072      1.480     4.70     5.718698     20.39157     58.08234         9     0.980     0.720  -4.27   0
       252    398.1098    302.4143 300.2128869 +22.6000890     560.9797     72.22187      1.882     4.71     5.869258     20.39157     47.57608        10     1.101     0.822 -20.07   0
       253    174.1554    303.0941 300.1429842 +22.5332082     546.5338     72.29553      1.712     5.27     6.118342     20.39157     45.59952        10     1.132     0.786 -35.37   0
       254    710.5087    296.6081 300.3120847 +22.6919351     2021.557     72.18501      1.594     3.11     5.773518     20.39157     208.3157        22     1.178     1.072  83.60   0
       255    518.6823    291.4591 300.2539826 +22.6330401     391.3104     72.35072      1.450     4.58     5.711578     20.39157     42.25206         7     1.029     0.589 -23.57   0
       256    925.6467    289.7787 300.3813935 +22.7543359      709.461     72.31393      1.830     4.30     5.408062     20.39157     53.27316        11     1.069     0.771  54.37   0
       257    372.2063    281.0039 300.2117650 +22.5861800     2138.982     72.11124      1.690     3.52     6.130636     20.39157      203.038        29     1.477     1.093  59.64   0
       258    584.2837    280.1118 300.2780967 +22.6494152     272.3903      72.3875      1.328     4.18     5.720757     20.39157     40.01225         7     0.877     0.576 -63.80   0
       259    811.5037    274.4078 300.3507716 +22.7157692     614.1111     72.16658      1.246     2.85     5.556781     20.39157     69.42696        10     0.958     0.693  34.68   0
       260    693.7269    271.6008 300.3149613 +22.6797221     357.6088     72.16658      1.208     3.16      5.77598     20.39157     63.34988         7     0.925     0.480  -7.10   0
       261    447.9118    260.3093 300.2420420 +22.6029000     1262.293     72.44262      1.605     3.44     5.809408     20.39157     139.8428        21     1.335     0.980  68.79   0
       262    255.1910    260.9824 300.1818421 +22.5453847     340.4222     72.22187      1.433     3.80     6.369392     20.39157     30.61557         5     0.826     0.502 -28.61   0
       263    975.3433    259.1375 300.4068354 +22.7603834     1013.475     72.33233      0.653     1.26      5.64953     20.39157      476.552         5     0.540     0.344   0.15   0
       264    960.1960    257.2330 300.4027257 +22.7553054     412.6923     72.27712      1.635     4.89     5.663846     20.39157     34.88197         7     1.012     0.668  14.61   0
       265    831.2603    254.7424 300.3633085 +22.7160229     313.3798     72.35072      1.753     5.74     5.607712     20.39157     28.56806         8     0.969     0.956  44.21   0
       266    188.5430    255.3855 300.1629247 +22.5238146     247.9415     72.25871      1.459     4.04     6.314675     20.39157     40.44111         5     1.207     0.386 -34.35   0
       267    692.9801    252.4350 300.3209416 +22.6739872     2263.852     72.29553      1.583     3.13     5.792075     20.39157     229.5845        25     1.223     1.110 -64.26   0
       268    954.3058    247.0073 300.4042026 +22.7506015     3278.522     72.16658      1.684     3.21     5.743043     20.39157     297.6264        37     1.400     1.289  89.64   0
       269   1015.6069    242.6297 300.4247534 +22.7676737     431.6151     72.27712      1.597     4.50     5.785885     20.39157     41.98624         8     0.920     0.705  -1.66   0
       270    401.2473    236.5323 300.2352209 +22.5820954     606.4944     72.25871      1.406     2.65      6.05682     20.39157      70.6579        12     0.886     0.847  76.80   0
       271   1023.1445    235.0645 300.4295586 +22.7677504     1177.866     59.26901      1.374     3.26     5.853159     20.39157     145.1053        15     1.256     0.736  79.36  24
       272     76.1917    230.1709 300.1361629 +22.4829163     1471.704     72.27712      2.015     4.08     6.230273     20.39157     117.0339        25     1.426     1.193   7.31   0
       273    107.0564    230.2962 300.1457177 +22.4921987     541.1512     72.36911      1.708     3.57     6.172301     20.39157     55.14995         8     0.967     0.708  11.19   0
       274    969.8226    227.6423 300.4153221 +22.7496695     499.3647     72.31393      1.537     3.36     5.898627     20.39157     62.07889         8     0.928     0.734  36.83   0
       275    160.2153    221.8145 300.1649959 +22.5056861     432.1747     72.22187      1.686     6.38     6.393596     20.39157     40.51646        10     1.226     0.931 -43.81   0
       276    955.4072    220.1989 300.4132362 +22.7432167     318.8898     72.09279      1.631     3.64     5.947114     20.39157     36.10986         5     0.982     0.389  -5.75   0
       277    764.6516    214.3400 300.3556333 +22.6844747     703.2556     72.33233      1.455     3.22     5.830339     20.39157     77.14466        14     1.017     0.908  22.43   0
       278    355.1768    213.4101 300.2283745 +22.5616565     451.4942     72.27712      1.362     3.89       6.3878     20.39157     56.18021         9     1.110     0.653  76.26   0
       279    862.7568    203.0420 300.3898908 +22.7105708     2053.405      72.3875      1.605     3.06     5.708622     20.39157     192.7413        25     1.216     1.121 -63.66   0
       280    281.2475    200.0238 300.2097065 +22.5356733     2192.245     72.29553      1.608     3.06     6.501961     20.39157     232.9182        24     1.180     1.134  59.89   0
       281    359.2126    195.3705 300.2354770 +22.5576804     927.6255     72.27712      1.442     3.47     6.410023     20.39157     92.03784        16     1.178     0.893 -18.90   0
       282    110.8772    195.7396 300.1581047 +22.4834175     315.8748     72.33233      1.582     5.02     6.340559     20.39157     31.18311         6     1.054     0.678  -8.44   0
       283    761.3123    194.7186 300.3609515 +22.6778317     689.6317     72.40588      1.529     2.95     5.857286     20.39157     67.27211        13     0.943     0.884  39.81   0
       284    517.8423    194.8507 300.2850361 +22.6050167     338.3356     72.29553      1.657     4.48        5.766     20.39157     28.16744         6     0.944     0.605 -20.48   0
       285    868.2188    191.5273 300.3953265 +22.7088914     376.5298     72.27712      1.686     5.35     5.772646     20.39157     35.30264         7     1.205     0.669  11.57   0
       286    175.6654    187.5051 300.1809196 +22.5004574     689.1425     72.40588      1.591     4.64     6.482737     20.39157     63.75229        13     1.215     0.922   0.02   0
       287    293.8280    186.6633 300.2179506 +22.5356011     304.8535     72.27712      1.561     4.25     6.490311     20.39157     27.81106         6     0.771     0.667 -50.11   0
       288    713.9309    184.3465 300.3495412 +22.6606734     1701.363     72.29553      1.569     2.96     5.958298     20.39157     183.2742        25     1.228     1.125  88.44   0
       289     28.3395    185.1743 300.1358710 +22.4556576     182.0199     72.27712      1.085     3.46     6.476593     20.39157     30.47394         5     0.781     0.442  74.70   0
       290    778.6372    183.9746 300.3698355 +22.6799237     661.0136     72.29553      1.604     3.50     5.872887     20.39157     70.32721        12     1.027     0.793  40.08   0
       291    197.4693    180.7937 300.1898757 +22.5050593     532.9194      72.2403      1.724     4.10     6.519342     20.39157     69.68234        10     1.220     0.736 -45.95   0
       292    985.2842    177.0167 300.4365557 +22.7397237     838.9825      72.2403      1.713     4.85     6.251618     20.39157     68.41464        15     1.160     0.916  54.01   0
       293    717.7872    175.8407 300.3534997 +22.6593805     831.1394     72.27712      1.497     3.74     5.968557     20.39157     94.19561        13     1.081     0.825  75.22   0
       294    638.4635    175.1448 300.3290014 +22.6354473      1136.58     72.33233      1.461     2.91     6.238148     20.39157     135.2121        19     1.106     0.971 -87.23   0
       295    459.5625    171.5867 300.2744252 +22.5808847     473.3633     72.27712      1.641     4.00     5.989075     20.39157     54.47763         5     1.101     0.458 -34.32   0
       296    564.5424    166.6427 300.3087242 +22.6108825     960.8385     72.22187      1.541     2.67     5.966762     20.39157     118.5753        17     1.161     0.881  64.02   0
       297    845.9639    165.7826 300.3967277 +22.6948280      899.412     72.27712      1.852     3.78     5.889883     20.39157     77.27182        17     1.150     1.087  40.33   0
       298    834.0522    166.5775 300.3927548 +22.6914940     1409.107     72.27712      1.581     3.24     5.888934     20.39157      166.525        22     1.239     1.053 -43.02   0
       299    892.5246    165.0306 300.4114956 +22.7085364     300.9252     72.27712      1.295     3.19     6.020779     20.39157     51.39725         5     0.943     0.554 -14.65   0
       300   1006.8453    156.5176 300.4499282 +22.7402703     1742.288      72.2403      1.848     4.01     6.419331     20.39157     132.8344        29     1.404     1.237  76.01   0
       301    962.8397    156.6364 300.4361556 +22.7271471     1095.634     72.35072      1.579     2.88     6.302177     20.39157     117.8819        19     1.186     0.950   9.64   0
       302    196.6627    148.8453 300.1999768 +22.4956384     843.5179     72.29553      1.659     4.83     6.544765     20.39157     69.96171        11     1.011     0.925 -49.52   0
       303     58.6655    143.4653 300.1588112 +22.4527625     2240.755     72.33233      1.814     3.32     6.603411     20.39157     227.4249        32     1.382     1.295 -14.29   0
       304    881.7132    141.0326 300.4158991 +22.6983977     841.9781     72.25871      1.767     3.48     6.079957     20.39157     82.36546        14     1.123     0.855  -7.44   0
       305      8.6003    140.4765 300.1442187 +22.4369068      482.372     72.14814      1.804     3.67     6.597731     20.39157     40.24873         8     1.000     0.586 -46.34   0
       306    215.9173    136.8018 300.2098679 +22.4979438     5779.436     72.18501      1.700     3.21     6.542456     20.39157     502.4939        42     1.450     1.315  64.16   0
       307      1.4045    131.0268 300.1450439 +22.4320371     615.9932     56.62839      1.182     2.95     6.657301     20.39157      128.098        10     1.101     0.542 -75.28  24
       308    199.4812    127.8032 300.2076708 +22.4904364     593.3489     72.18501      1.568     5.42     6.537588     20.39157     58.29231        13     1.255     0.941  67.24   0
       309   1014.9853    124.7491 300.4627627 +22.7335594     18510.16     72.27712      1.778     3.58     6.424228     20.39157      1657.59        62     1.588     1.410 -82.17  16
       310    860.1277    118.7964 300.4163703 +22.6855438     3690.538     72.22187      1.656     3.27     6.147873     20.39157     327.5648        37     1.391     1.265 -83.52   0
       311    963.8794    117.6860 300.4491007 +22.7162474     2761.377     72.44262      1.728     3.24     6.331193     20.39157     243.9924        33     1.360     1.261 -75.82   0
       312    409.7501    113.9444 300.2775921 +22.5494039     680.6656     72.31393      1.554     3.31      6.44724     20.39157     67.71542        15     1.058     0.938 -47.02   0
       313    162.6207    114.5181 300.2005106 +22.4755810     358.3748      72.2403      1.457     3.44     6.556149     20.39157     41.23375         6     0.911     0.420 -19.52   0
       314    523.7730    112.1158 300.3136913 +22.5830029     285.4547     72.27712      1.271     2.99     6.313674     20.39157      39.5545         6     0.750     0.557 -43.17   0
       315    333.6446    105.4608 300.2566510 +22.5241841     765.5436     72.31393      2.135     3.34        6.454     20.39157     80.80583        10     1.163     0.802   3.13   0
       316     99.6002    102.8951 300.1846798 +22.4533685     643.4452     72.14814      1.631     4.55     6.847319     20.39157     67.00317        11     1.006     0.923  -7.72   0
       317    460.9030    100.9207 300.2977381 +22.5609693     1724.862      72.3875      1.552     3.64     6.291237     20.39157     163.1607        27     1.292     1.173  78.06   0
       318    388.9884    101.2268 300.2752487 +22.5395335     503.8661     72.27712      1.825     4.75     6.436206     20.39157     47.66623         9     0.969     0.758  23.55   0
       319    522.6001    100.4525 300.3171044 +22.5792980     434.2896     72.22187      1.656     4.72     6.437993     20.39157     39.53307         7     0.914     0.692 -16.72   0
       320    204.5179     96.8161 300.2192757 +22.4830403     381.5621      72.2403      1.597     3.64     6.518019     20.39157     40.07746         5     1.015     0.376  -5.75   0
       321    749.3870     90.8057 300.3909031 +22.6443705     339.4025     72.14814      1.213     2.00     6.353691     20.39157     48.92449         5     0.656     0.477 -77.09   0
       322    895.3786     85.3335 300.4382079 +22.6864545     397.9923     72.25871      1.565     3.26     6.368063     20.39157     46.98331         6     0.691     0.672  35.58   0
       323   1023.6756     82.2103 300.4792569 +22.7239114     1131.972     56.08535      1.227     3.19     6.376792     20.39157      206.241        12     1.235     0.516 -88.18  24
       324    646.0284     82.2873 300.3614442 +22.6110029     285.2275     72.27712      1.384     2.87     6.650585     20.39157     45.22086         5     1.104     0.557  80.70   0
       325    234.8703     80.6142 300.2339654 +22.4874720     6135.461     72.27712      1.734     3.44     6.517751     20.39157     562.7318        40     1.480     1.264  76.79   0
       326    741.4741     81.1487 300.3915643 +22.6392254     480.8437     72.29553      1.642     6.20     6.482351     20.39157     40.85185         8     1.257     0.859  42.47   0
       327     85.9313     80.5786 300.1876589 +22.4428634     858.4595     72.27712      2.376     4.87     6.955836     20.39157     63.47425        14     1.504     0.859   9.66   0
       328    864.2385     78.6104 300.4306713 +22.6752084     325.0349     72.27712      1.385     3.06     6.504809     20.39157     35.92499         5     0.734     0.446 -19.86   0
       329    206.9984     75.1373 300.2270694 +22.4775531     311.9969     72.25871      1.357     3.50     6.592984     20.39157     37.41778         6     0.911     0.458 -34.83   0
       330    711.1957     72.6348 300.3848828 +22.6277196     226.5632     72.27712      1.231     3.44     6.606225     20.39157     26.50264         5     0.779     0.439 -17.94   0
       331    250.6073     72.0938 300.2416210 +22.4897348     353.1122     72.16658      1.605     4.12     6.524269     20.39157     44.71665        10     1.180     0.769   3.19   0
       332    481.0869     66.2459 300.3152555 +22.5570391     6257.025     72.25871      1.538     2.89     6.340877     20.39157     673.2543        41     1.328     1.225  83.13   0
       333    366.6916     66.0379 300.2797066 +22.5227435      668.812     72.25871      1.588     2.88     6.455566     20.39157     77.42455        12     0.979     0.797 -36.14   0
       334    675.1578     57.7155 300.3784820 +22.6126480     186.1277      72.2403      1.317     4.16     6.705195     20.39157     27.96619         6     0.762     0.648  68.31   0
       335    733.6922     56.4572 300.3971361 +22.6297937     838.4973     72.33233      1.790     3.06      6.79967     20.39157     79.38073        12     1.020     0.784  43.36   0
       336    826.0288     55.0925 300.4263711 +22.6570147      441.647      72.2403      1.640     6.15     6.816244     20.39157     39.00897        10     1.255     0.847 -48.18   0
       337    173.9624     50.2062 300.2248689 +22.4604971     380.9321     72.31393      1.461     2.37     6.873215     20.39157     56.34515         6     0.778     0.610   7.06   0
       338    532.5197     48.6992 300.3369579 +22.5673828     540.1254     72.40588      1.690     4.53     6.346378     20.39157     42.32756         7     0.974     0.599 -19.26   0
       339    609.4642     46.3151 300.3617017 +22.5897171      6362.02     72.36911      1.620     3.01     7.061682     20.39157     704.9759        38     1.344     1.239 -84.82   0
       340    384.2032     45.2012 300.2919062 +22.5219941     1403.739     72.05586      1.598     3.54     6.457886     20.39157     134.5538        23     1.268     1.085  72.76   0
       341    650.6198     43.9527 300.3752918 +22.6013487      795.682     72.31393      1.450     2.59      6.87307     20.39157     117.5945        14     1.017     0.907 -27.20   0
       342    666.5497     40.1329 300.3814937 +22.6050148     683.5291     72.25871      1.597     2.89     6.813534     20.39157     64.78578        11     0.971     0.698 -13.88   0
       343    936.6005     38.1517 300.4663523 +22.6851982     522.8124     72.27712      1.514     3.34     6.296513     20.39157     54.91325         9     0.937     0.638  12.80   0
       344    133.2695     37.5457 300.2163144 +22.4446745     771.0349     72.31393      1.724     3.46     7.075356     20.39157     87.82024        13     1.070     0.910  52.40   0
       345    705.4836     35.4241 300.3951545 +22.6153052     559.7809      72.2403      1.684     3.75      6.93911     20.39157     55.18078         8     0.889     0.693 -20.28   0
       346    668.4829     30.1405 300.3853325 +22.6027183     873.9082     72.36911      1.752     4.55     6.856181     20.39157     82.70714        21     1.562     0.944  55.35   0
       347    653.7387     31.2430 300.3803802 +22.5986253     2705.487     72.27712      1.549     2.88     6.934709     20.39157     327.7847        29     1.241     1.199  82.85   0
       348    294.3974     32.0721 300.2682078 +22.4913399     502.9555     72.22187      1.844     3.65     6.530756     20.39157      48.8678         8     0.942     0.660  16.37   0
       349    740.1143     22.9446 300.4099922 +22.6220715     1514.812     72.35072      1.479     3.15     7.228576     20.39157     154.2473        23     1.176     1.083 -43.47   0
       350    900.6113     22.1466 300.4603068 +22.6698320     212.8871     72.27712      1.282     4.16     6.712861     20.39157     40.58382         6     0.950     0.617  -9.36   0
       351     30.6030   1015.0700 299.8671905 +22.6944573     850.6681     72.22187      3.638     4.40      33.2779     20.39157     40.47681         5     1.185     0.604 -68.82  18
       352    483.6572     15.6081 300.3324559 +22.5432460     1078.491     72.25871      1.555     2.90     6.465224     20.39157     118.0968        15     1.028     0.903  15.18   0
       353     56.6548     15.2522 300.1997141 +22.4153268     544.5977     72.31393      1.745     3.93     7.199523     20.39157     48.32527         9     1.035     0.740  -5.98   0
       354    283.5430   1011.8159 299.9468932 +22.7694140     736.7869     72.25871      1.657     3.60     12.54776     20.39157     83.58543        15     1.336     0.813  76.05   2
       355    769.6400     12.7314 300.4225057 +22.6279621     265.1262      72.2403      1.240     2.92     7.357235     20.39157     51.74797         7     0.856     0.618 -18.81   0
       356    118.3951   1007.6249 299.8968979 +22.7186674      1575.71      72.2403      3.337    11.97     90.74309     20.39157     64.05257        35     2.267     1.761 -30.65   2
