#   1 NUMBER                 Running object number                                     
#   2 X_IMAGE                Object position along x                                    [pixel]
#   3 Y_IMAGE                Object position along y                                    [pixel]
#   4 ALPHA_J2000            Right ascension of barycenter (J2000)                      [deg]
#   5 DELTA_J2000            Declination of barycenter (J2000)                          [deg]
#   6 FLUX_APER              Flux vector within fixed circular aperture(s)              [count]
#   7 FLUXERR_APER           RMS error vector for aperture flux(es)                     [count]
#   8 FLUX_RADIUS            Fraction-of-light radii                                    [pixel]
#   9 FWHM_IMAGE             FWHM assuming a gaussian core                              [pixel]
#  10 BACKGROUND             Background at centroid position                            [count]
#  11 THRESHOLD              Detection threshold above background                       [count]
#  12 FLUX_MAX               Peak flux above background                                 [count]
#  13 ISOAREA_IMAGE          Isophotal area above Analysis threshold                    [pixel**2]
#  14 A_IMAGE                Profile RMS along major axis                               [pixel]
#  15 B_IMAGE                Profile RMS along minor axis                               [pixel]
#  16 THETA_IMAGE            Position angle (CCW/x)                                     [deg]
#  17 FLAGS                  Extraction flags                                          
         1    230.7260     20.2404 300.2354087 +22.4424542     3766.598     72.27303      1.524     2.81     4.938941     20.39561     430.4557        31     1.300     1.106  62.52   0
         2    791.8607     13.0241 300.4124175 +22.6084199     915.7059     72.29145      1.385     3.34     4.826456     20.39561     106.8969        13     1.075     0.799  53.46   0
         3    346.7287     12.4695 300.2740003 +22.4749759      1142.56     72.36507      1.367     2.72     4.642765     20.39561      179.347        15     0.980     0.881  64.33   0
         4    830.0761      8.0892 300.4259271 +22.6184377     707.6249     72.42023      1.588     3.60     5.012544     20.39561      72.8802        13     1.110     0.797  60.36   0
         5    753.1757      7.6475 300.4021033 +22.5952952     434.7678     72.30986      1.405     2.59     4.879229     20.39561     94.44704        11     1.038     0.730  37.57   0
         6    849.9468      4.0362 300.4334341 +22.6232185     2214.417     68.95528      1.444     3.15      5.16002     20.39561     271.0688        25     1.196     1.049 -85.75  24
         7    555.6650      2.6174 300.3422126 +22.5347200     440.9319     63.10919      1.206     3.10     4.258792     20.39561     74.96898         9     0.878     0.714  79.28  24
         8    793.0448   1004.2383 300.0910645 +22.8935153     553.1596     72.34667      1.725     6.23     3.169857     20.39561     37.83589        14     1.270     0.859  -4.14   0
         9    259.7672   1020.1685 299.9199030 +22.7380580     2046.297     71.29019      5.063    22.46     75.97038     20.39561     56.56654        88     4.630     3.027   0.07  27
        10    259.4590   1002.8011 299.9254555 +22.7329879     3924.416     72.25462      7.076    19.78     64.07835     20.39561     91.15373       215     4.784     3.965 -75.53  19
        11    297.7799    990.7674 299.9412831 +22.7410435     7552.227     72.29145      7.961    32.27     45.13147     20.39561     163.2085       671    10.573     4.647  64.14  18
        12    232.2456   1008.1519 299.9152557 +22.7263508     1995.084     72.32827      6.508    15.19     70.95422     20.39561     67.49725        54     3.399     1.888 -55.27  19
        13    209.6159   1022.7797 299.9034645 +22.7237478     771.1885      61.1161      3.020     7.02     79.58864     20.39561     44.06434        12     1.375     1.003 -11.60  26
        14    192.6467   1022.3488 299.8983306 +22.7185288     1644.515     63.29874      3.364    13.94      75.8111     20.39561     62.13759        52     3.651     1.480  -5.48  24
        15    139.9989   1013.3751 299.8848887 +22.7001475     5432.212     72.23619     13.514    53.13     52.58805     20.39561     121.4634      1258    12.994     7.975  20.04  27
        16    136.2294    971.8078 299.8972346 +22.6871050     5135.083     72.29145     25.403    98.14       31.778     20.39561     110.8206      3700    19.847    17.927 -46.03  19
        17    136.7406    937.5720 299.9085248 +22.6774478     4218.079     72.29145     15.624    41.46     16.64898     20.39561     79.97554       508     8.269     5.768 -15.00   3
        18    476.8333    942.1124 300.0128003 +22.7808338     422.7333     72.25462      1.538     5.17     3.277452     20.39561     51.14836        10     1.270     0.595  42.64   0
        19      5.0000   1021.5385 299.8403002 +22.6619387     728.7985     66.03645      2.790     4.20    -7.159325     20.39561     27.47862         6     1.745     0.289  90.00  24
        20    557.5904    991.4420 300.0218939 +22.8192128     448.3575     72.29145      1.895     6.48     3.045238     20.39561     35.81417        10     1.546     0.764  60.34   0
        21     42.7016    989.4367 299.8624480 +22.6640676     294.3599     72.29145      1.248     3.14     6.746899     20.39561     46.73392         5     0.922     0.428  78.52   0
        22    990.5704    934.3920 300.1753575 +22.9326919     2222.061     72.29145      1.999     4.98     3.417455     20.39561     116.0194        31     1.475     1.355 -22.76   0
        23    985.5482    987.5220 300.1565131 +22.9464393      682.355     72.29145      1.819     6.54     3.261687     20.39561     40.63053        17     1.329     1.007 -55.15   0
        24    641.1735    931.8504 300.0672953 +22.8271945     407.0607     72.30986      1.660     4.83     3.109141     20.39561     37.61515         6     1.036     0.637 -12.51   0
        25    226.5225    993.2616 299.9183191 +22.7203651     1937.146     72.34667      4.990    19.14     61.03269     20.39561     64.21021        71     4.454     2.284  70.07   3
        26    779.3391    923.7647 300.1129633 +22.8663125     766.7646     72.30986      2.040     5.84     3.702729     20.39561     55.85353        19     1.435     1.165  82.05   0
        27    591.7018    918.6007 300.0561989 +22.8085534     389.7815     72.16245      1.478     5.06     2.942435     20.39561     52.82317         9     1.048     0.780  51.91   0
        28    814.1930    917.5959 300.1258302 +22.8749933     1064.719     72.12554      1.730     4.17     3.622533     20.39561      77.7047        20     1.280     1.042 -33.22   0
        29    278.6031   1002.3085 299.9315674 +22.7385944     4631.803     72.19933      9.042    28.37     60.88078     20.39561      93.3673       411     6.856     4.918 -44.36  19
        30    836.3542    911.1831 300.1348220 +22.8797974     11283.98     72.30986      1.811     3.82     3.513535     20.39561      746.893        57     1.468     1.436  10.12   0
        31     24.9087    914.3775 299.8813256 +22.6372195     462.8383     72.21776      1.327     3.24     3.491855     20.39561     52.98766         5     0.943     0.436  64.47   0
        32    881.9865    910.6865 300.1492074 +22.8933360     401.4379     72.23619      1.848     6.31     3.360116     20.39561     36.98479         8     1.424     0.843  19.36   0
        33    266.2008    907.0136 299.9586963 +22.7075554      751.738     72.12554      5.111     5.49     8.901099     20.39561     31.31051         7     1.383     0.614 -61.98   0
        34    147.6958    902.4404 299.9233498 +22.6706689     836.4212     72.29145      3.081     7.44     10.67892     20.39561     51.08227        18     1.462     1.233 -48.80   0
        35    541.1402    899.9909 300.0465089 +22.7880470     476.5543     72.25462      2.516     4.66     2.880927     20.39561     37.63876         7     1.109     0.556 -56.57   0
        36    888.1685    898.9637 300.1549459 +22.8918242     327.3355     72.30986      1.525     5.32     3.419926     20.39561     32.28799         9     1.196     0.667   5.77   0
        37    203.8361    972.9317 299.9178786 +22.7077272     1720.734     72.29145      5.984    13.98      45.4207     20.39561     66.49889        52     3.118     1.744  13.91   3
        38    711.2409    970.4394 300.0765702 +22.8592825     6858.998     72.36507      1.873     4.13     3.665767     20.39561     398.6604        49     1.495     1.425  53.06   0
        39    844.9407    893.2029 300.1433439 +22.8772109     1334.001     72.25462      1.646     3.87     3.533223     20.39561     104.1659        22     1.192     1.154  46.76   0
        40    696.8974    890.2840 300.0981642 +22.8319815     498.5042     72.45699      1.630     5.88     3.392273     20.39561     44.56038        11     1.125     0.864 -14.47   0
        41    883.3472    886.8919 300.1573675 +22.8869134     721.0089     72.34667      1.738     4.81     3.487749     20.39561     57.74176        15     1.136     0.998  21.91   0
        42    931.7289    878.0604 300.1753228 +22.8988811     595.1266     72.32827      1.728     5.50     3.481408     20.39561     48.36099        10     1.098     0.776   1.26   0
        43    782.7902    877.3326 300.1291341 +22.8540213     665.6603     72.29145      1.761     4.39     3.629356     20.39561     51.33118        14     1.102     0.925   7.27   0
        44    495.4097    873.4446 300.0409050 +22.7667129     3998.691     72.30986      1.635     3.31      3.29151     20.39561      369.722        33     1.339     1.163  21.00   0
        45    230.7614   1014.9789 299.9125741 +22.7278617     3141.887     72.30986      6.214    29.08     76.00041     20.39561     72.00939       213     6.079     3.861  18.60  19
        46    794.3656    874.0519 300.1338076 +22.8565504     653.7136     72.30986      1.679     4.86     3.637079     20.39561     43.54407        11     1.022     0.771  20.47   0
        47    538.9761    861.2246 300.0584368 +22.7762772     353.3064     72.25462      1.569     4.26      2.93939     20.39561     35.61543         6     0.899     0.577  89.35   0
        48    273.7119    862.0778 299.9756380 +22.6969272     305.2115     72.43861      1.280     3.13     4.948745     20.39561     54.82897         7     1.034     0.582  48.43   0
        49    590.8854    965.0066 300.0408558 +22.8216201     448.7382     72.21776      1.730     4.71     3.083486     20.39561     36.09921         7     0.885     0.711  29.94   0
        50    220.7144    858.9757 299.9601707 +22.6801306     840.9438     72.23619      1.741     3.82     6.044166     20.39561     74.07881        15     1.113     1.033 -87.25   0
        51    197.6018    856.0069 299.9539517 +22.6723417     1607.386     72.10708      1.791     3.90     5.945545     20.39561     142.2101        26     1.333     1.248  42.23   0
        52    729.1812    844.6853 300.1230432 +22.8285768     440.5731     72.23619      1.621     4.86     3.527045     20.39561     46.25764         8     1.846     0.362 -49.21   0
        53    619.8943    961.1624 300.0511380 +22.8292202     1411.625     72.27303      1.683     3.96     3.185339     20.39561     103.8559        23     1.231     1.166  68.73   0
        54   1022.9805    843.7050 300.2149493 +22.9163650     1402.883     59.99501      1.475     3.78     3.668251     20.39561     120.0869        20     1.357     0.866 -88.25  24
        55    806.9910    837.3736 300.1496643 +22.8498075     617.0444     72.29145      1.731     3.12     3.635357     20.39561      66.4544        11     0.935     0.839 -55.63   0
        56    229.9856    837.3687 299.9700749 +22.6767189     342.0729     72.29145      1.549     4.41     5.251555     20.39561     35.27704         8     0.930     0.761 -76.65   0
        57    675.4019    831.4298 300.1105993 +22.8086461     4723.622     72.25462      1.598     3.18     3.437327     20.39561     438.1087        35     1.240     1.223  64.95   0
        58    165.5401    832.2679 299.9517024 +22.6559123     409.1384     72.32827      1.595     3.87     5.156581     20.39561      48.0435         5     0.968     0.508 -48.54   0
        59    477.3537    828.3867 300.0499307 +22.7483712     645.6269     72.29145      1.737     3.77     3.522799     20.39561     61.69281        13     1.103     0.966  52.13   0
        60    225.3276    825.2808 299.9725552 +22.6718552     1275.394     72.42023      1.733     4.07     4.926467     20.39561     131.5447        21     1.196     1.164  53.51   0
        61    695.9138    824.2284 300.1193288 +22.8127302     917.1194     72.29145      1.909     5.55     3.489998     20.39561     60.24995        19     1.452     1.043 -29.07   0
        62    494.6719    823.1057 300.0570365 +22.7520515     240.0229     72.40185      1.080     3.01     3.438294     20.39561     39.21587         5     0.862     0.469  89.19   0
        63    513.6875    957.6169 300.0192282 +22.7963388     1102.857     72.21776      1.858     4.57     3.080287     20.39561     78.36565        21     1.401     0.968  79.67   0
        64    851.4347    811.2218 300.1720156 +22.8556231     4095.908     72.30986      1.657     3.47     3.652945     20.39561     309.7028        33     1.310     1.190 -42.98   0
        65    259.5705    805.4943 299.9896301 +22.6764593     398.8519     72.21776      1.546     5.00     4.253163     20.39561     50.73271         8     1.185     0.805   1.80   0
        66    568.5499    803.7719 300.0863152 +22.7686645     612.4076     72.30986      1.518     4.37     3.350173     20.39561     58.15794        13     1.142     0.831  55.05   0
        67    214.9042    801.4467 299.9770602 +22.6618934     1000.845     72.30986      1.619     3.49     4.137504     20.39561     88.83106        19     1.177     1.019  17.12   0
        68    364.4484    793.7225 300.0260688 +22.7045547     53576.22     72.29145      1.613     3.04     4.157095     20.39561     5835.792        93     1.418     1.401   5.80   0
        69    630.0757    797.1217 300.1076329 +22.7852080     577.8411     72.40185      1.628     4.14     3.388916     20.39561     50.59634        10     1.042     0.842 -12.11   0
        70    622.3548    792.9369 300.1065885 +22.7816918     1639.121     72.30986      1.533     3.02     3.386803     20.39561     169.4969        21     1.204     1.015  65.94   0
        71    292.6162    791.6260 300.0044109 +22.6823994     542.6506     72.30986      1.480     5.19     4.160898     20.39561      52.9274        12     1.214     0.813  36.96   0
        72    651.3764    788.8915 300.1169407 +22.7892336     943.0861     72.21776      1.567     3.24     3.531356     20.39561     83.76577        16     1.044     0.966 -78.71   0
        73     50.7389    788.4791 299.9302639 +22.6088972     898.5683     72.36507      1.816     4.46     3.589108     20.39561     68.31338        16     1.233     1.016 -31.60   0
        74     17.5270    788.7748 299.9198526 +22.5990106     751.5486     72.32827      1.868     4.72     3.465335     20.39561     59.16288        11     1.073     0.842 -18.48   0
        75    662.4229    787.0634 300.1209751 +22.7920214     468.1869     72.27303      1.448     3.99      3.58758     20.39561      53.4518         8     0.929     0.657 -53.52   0
        76    767.8340    783.6517 300.1549212 +22.8226468     431.5368     72.30986      1.499     3.08     3.587845     20.39561     50.23042         7     0.814     0.606 -18.95   0
        77    804.9917    773.9154 300.1696638 +22.8309907     814.6498     72.23619      1.634     3.64     3.638695     20.39561     77.93462        14     1.028     0.963 -48.82   0
        78    414.1864    770.9687 300.0489342 +22.7129505     31559.46     72.27303      1.522     2.93     3.989625     20.39561     3450.645        75     1.366     1.321  39.20   0
        79    424.9317    766.0075 300.0538892 +22.7147509     723.2918     72.27303      1.744     7.17     3.937566     20.39561      64.4521        15     1.636     0.880 -65.06   0
        80    937.3188    766.8984 300.2131945 +22.8686367     2726.534     72.42023      1.665     3.47     3.811975     20.39561     208.3368        30     1.280     1.199 -15.98   0
        81    695.2433    762.9383 300.1390366 +22.7949379     1021.526     72.29145      1.456     3.24     3.700104     20.39561     96.66479        15     1.056     0.907  12.54   0
        82    531.7563    763.0375 300.0880976 +22.7459413     434.6891     72.36507      1.386     2.66     3.699458     20.39561     45.59311         7     0.727     0.652  82.53   0
        83    296.6940    762.8518 300.0150279 +22.6753713     611.0362     72.36507      1.351     3.02     3.987273     20.39561     101.8064        11     0.971     0.826  -0.43   0
        84    542.1157    757.7567 300.0930379 +22.7475329     798.4402     72.25462      1.459     3.57     3.737022     20.39561     84.85031        14     1.136     0.799   1.22   0
        85    101.4940    758.3716 299.9558123 +22.6155036     465.0474     72.19933      1.414     5.05     3.769799     20.39561     55.60091         9     1.161     0.621  -7.45   0
        86    943.7850    754.4772 300.2192468 +22.8670071     569.3661     72.30986      1.690     5.09     3.854537     20.39561     46.73869        14     1.210     0.998 -14.09   0
        87    444.4764    754.5316 300.0636987 +22.7173217     376.0948     72.38346      1.465     3.11     3.854026     20.39561     48.03959         6     0.867     0.457 -15.79   0
        88    428.4633    771.4694 300.0532133 +22.7173771     2075.426     72.32827      1.550     2.86     3.927587     20.39561     247.7507        23     1.207     1.031 -86.59   0
        89    696.7463    752.3654 300.1429400 +22.7923537     334.4349     72.30986      1.492     3.51     3.736391     20.39561     37.25264         6     0.732     0.640  54.02   0
        90    488.1191    752.2286 300.0780277 +22.7297517     493.2747     72.30986      1.652     4.30     3.734211     20.39561     42.97061         8     0.828     0.764   7.89   0
        91    129.9048    752.0473 299.9666941 +22.6222185     599.3189     72.30986      1.868     3.35      3.81131     20.39561     58.12265         9     1.024     0.763  -8.12   0
        92    920.9598    749.5469 300.2137315 +22.8587512     333.5855     72.27303      1.253     3.82     3.852308     20.39561     42.89141         6     0.850     0.493   5.59   0
        93    294.6545    747.2213 300.0194717 +22.6702766      584.405     72.30986      1.606     2.86     3.888287     20.39561     65.44063         7     0.883     0.533 -33.34   0
        94    617.5016    737.6586 300.1230379 +22.7643722     350.7781     72.38346      1.472     4.69     3.804456     20.39561     44.18632         9     0.926     0.790 -73.94   0
        95    587.2637    735.8738 300.1142026 +22.7547928     594.3165     72.32827      1.350     3.23     3.827466     20.39561     76.74766        11     0.967     0.800  35.96   0
        96    609.1318    733.3199 300.1218412 +22.7606172     1441.432     72.40185      1.442     3.33     3.802811     20.39561     142.7576        22     1.197     1.017 -32.55   0
        97    496.4836    735.0733 300.0862042 +22.7273383     321.0428     72.40185      1.379     2.58     3.819031     20.39561     44.06705         6     0.761     0.500 -89.15   0
        98   1003.8000    732.2988 300.2451698 +22.8786197      4332.76     72.16245      1.677     3.44     3.910212     20.39561     347.3246        33     1.284     1.253  87.53   0
        99    528.8771    732.9128 300.0969884 +22.7364336     167.3187     72.42023      1.179     2.15     3.882165     20.39561     53.76271         6     0.729     0.534  46.00   0
       100    690.4777    727.8010 300.1489679 +22.7834230     269.3457     72.18089      1.512     5.15     3.856667     20.39561     30.21902         7     1.031     0.727  38.25   0
       101    992.1344    723.7379 300.2443125 +22.8726654     1720.479     72.32827      1.681     3.40     3.910237     20.39561     148.8246        25     1.304     1.158  57.19   0
       102    759.6124    724.1907 300.1716788 +22.8031118     273.5594     72.16245      3.464     4.40     3.657406     20.39561     22.48519         5     1.157     0.476 -84.32   0
       103    354.9569    717.3510 300.0479285 +22.6798013     992.8002     72.32827      1.514     3.41      3.89366     20.39561     102.8313        18     1.223     0.898 -12.57   0
       104    221.3703    718.2863 300.0060873 +22.6399884     424.5164     72.29145      1.720     3.76     3.782601     20.39561     36.66201         6     0.726     0.660 -22.39   0
       105    818.6819    714.8970 300.1931053 +22.8181487     2692.822     72.43861      1.644     3.24     3.760964     20.39561      234.106        30     1.469     1.119   6.15   0
       106   1022.9288    713.8813 300.2571200 +22.8790601     1216.546     60.45915      1.380     3.36     3.910269     20.39561     126.4393        16     1.090     0.883  72.15  24
       107     41.2669    705.1483 299.9543919 +22.5821676     860.5939     72.30986      1.545     3.72     3.772007     20.39561     95.54047        14     1.291     0.837 -89.17   0
       108    900.8154    701.0319 300.2232121 +22.8387812     655.1003     72.27303      1.797     3.66     3.870584     20.39561     53.72218         9     0.937     0.799 -46.44   0
       109    203.8689    701.4744 300.0061079 +22.6299155     595.6736     72.36507      1.370     3.40     3.798152     20.39561     71.29993        11     1.040     0.747 -29.55   0
       110    937.0091    691.8899 300.2374670 +22.8470006     148659.8     72.21776      1.545     3.04     3.910339     20.39561      13198.5       156     1.483     1.464 -59.54   0
       111    699.0682    695.3708 300.1621786 +22.7766886     303.7653     72.27303      1.256     2.91     3.902321     20.39561      38.9313         7     0.730     0.652  20.65   0
       112    789.6021    692.2003 300.1914156 +22.8029157     777.7975     72.07015      1.580     3.30     3.858996     20.39561     71.19306        14     1.060     0.870  49.51   0
       113    969.5352    684.7177 300.2499399 +22.8546858     359.1855     72.40185      1.381     5.37     3.910361     20.39561     38.21952         8     0.971     0.839  88.98   0
       114    804.5024    677.9973 300.2006724 +22.8033030     9594.795     72.19933      1.475     2.83     3.929511     20.39561     975.2242        46     1.285     1.224 -80.32   0
       115    623.1439    680.6089 300.1433268 +22.7496892     1571.656     72.27303      1.323     2.61     3.959047     20.39561     192.1393        17     1.000     0.914  16.99   0
       116    305.9637    672.9857 300.0471015 +22.6523770     4960.127     72.29145      1.443     2.87     3.832265     20.39561     523.1937        30     1.203     1.095  26.13   0
       117     19.8422    671.4605 299.9586784 +22.5660792      1605.25     72.27303      1.698     3.90     4.061147     20.39561     141.0484        23     1.267     1.182  51.12   0
       118    388.0360    671.0382 300.0732604 +22.6764379     1152.615     72.36507      1.412     3.18      3.87962     20.39561     127.6959        16     1.063     0.924  48.02   0
       119    263.6362    668.5159 300.0353919 +22.6383961     420.0806     72.27303      1.368     3.60      3.83728     20.39561     57.05196        12     1.159     0.706  32.48   0
       120    596.3629    666.8008 300.1394724 +22.7376962     760.3446     72.29145      1.382     2.61     4.072278     20.39561     95.40769        13     0.945     0.821   8.46   0
       121    587.9460    658.8251 300.1394420 +22.7328833     3247.041     72.30986      1.334     2.54     4.142678     20.39561     435.3999        24     1.076     0.998  25.29   0
       122    578.0797    652.5488 300.1384085 +22.7281236     1221.606     72.29145      1.234     2.42     4.202332     20.39561     176.0159        15     0.909     0.868   2.47   0
       123    773.2024    651.8035 300.1994259 +22.7864005     174.7092     72.07015      1.142     3.80     3.969747     20.39561     25.61536         5     0.927     0.447 -44.85   0
       124    506.8521    651.7582 300.1164927 +22.7065394     296.8285     72.29145      1.223     2.93     4.155367     20.39561     51.56294         7     0.843     0.570 -35.78   0
       125    971.6359    650.6121 300.2616726 +22.8455175     560.5047     72.27303      1.837     3.90     3.910329     20.39561     43.30571         9     0.914     0.775 -18.14   0
       126    489.4910    649.2774 300.1118951 +22.7006214     248.2097     72.43861      1.164     3.42     4.099217     20.39561     37.51719         5     0.762     0.444 -68.16   0
       127    241.2123    648.6436 300.0348738 +22.6259685     634.1208     72.29145      1.440     3.06     3.894949     20.39561     91.86134        14     1.066     0.883  20.69   0
       128    255.7983    647.1462 300.0398947 +22.6299151     579.4935     72.23619      1.285     3.47     3.877142     20.39561     74.10486         9     0.921     0.678  25.10   0
       129    281.3634    643.8782 300.0489046 +22.6366473     501.8472     72.25462      1.357     2.73     3.839509     20.39561     77.73446        10     0.939     0.712 -27.99   0
       130    601.8370    642.9400 300.1489259 +22.7324882     477.8687     72.30986      1.356     2.77     4.181674     20.39561     65.06241         8     0.907     0.599  23.49   0
       131    502.8680    642.2350 300.1183454 +22.7026116     1761.701     72.29145      1.330     2.55     4.185111     20.39561     215.0398        16     0.985     0.858  75.34   0
       132    156.8960    637.1255 300.0124065 +22.5973665      19822.6     72.43861      1.554     2.93     3.844949     20.39561     1900.744        64     1.422     1.315  44.53   0
       133     77.8192    638.8492 299.9872768 +22.5741306     690.2709     72.29145      1.974     4.43     3.927909     20.39561      67.4546        11     1.060     0.873 -20.24   0
       134    587.9421    637.6562 300.1463155 +22.7268057     1015.191     72.36507      1.316     2.41     4.239611     20.39561     139.8856        14     0.902     0.878 -74.43   0
       135    623.4255    636.8014 300.1576418 +22.7371981     317.5722     72.23619      1.206     2.47     4.184852     20.39561      50.6099         6     0.760     0.494  88.13   0
       136    671.2455    625.3980 300.1762377 +22.7482592       279.16     72.29145      1.397     3.89     4.184045     20.39561     45.44827         8     0.973     0.741  65.26   0
       137   1005.8746    624.0373 300.2809820 +22.8481391     925.8118     72.23619      1.423     3.70     3.910244     20.39561      86.1925        15     1.188     0.836  35.63   0
       138    168.9917    622.1666 300.0210228 +22.5967057     510.1791     72.29145      1.612     5.34      3.87598     20.39561     50.16395        10     1.057     0.763 -36.88   0
       139    102.9374    621.0970 300.0008444 +22.5765782     1485.083     72.38346      1.940     4.49     3.926253     20.39561     90.34212        27     1.527     1.092  78.24   0
       140    872.8302    621.8892 300.2401920 +22.8076640     363.7227     72.25462      1.202     2.22     3.976628     20.39561     63.07393         8     0.758     0.648 -49.61   0
       141    551.1332    618.2846 300.1411462 +22.7102093     454.6159     72.40185      1.269     2.82     4.358745     20.39561     60.83606         9     0.871     0.665 -55.21   0
       142    944.7076    616.3427 300.2644039 +22.8276052     992.1195     72.34667      2.467     7.49     3.910218     20.39561     86.42542        22     2.247     0.986   9.37   0
       143    344.0161    617.0628 300.0770956 +22.6477482     359.7708     72.27303      1.474     5.00     3.819798     20.39561     44.41977         8     0.979     0.723  87.30   0
       144    508.0941    610.5112 300.1302732 +22.6950737     740.6423     72.47535      1.246     2.39     4.333117     20.39561     111.3052        11     0.924     0.685  41.01   0
       145    656.0627    608.8749 300.1768742 +22.7389642     563.0768     72.32827      1.393     3.01     4.283996     20.39561     65.44491        10     0.887     0.746  71.59   0
       146    703.3451    607.4422 300.1920669 +22.7527249     387.9624     72.29145      1.137     1.94     4.147104     20.39561     73.41544         5     0.668     0.467  79.47   0
       147    673.6552    607.1450 300.1829152 +22.7437407     607.8622     72.32827      1.365     2.54     4.250996     20.39561     70.34595         9     0.853     0.654  31.97   0
       148    552.3685    606.2275 300.1454457 +22.7071186     840.4432     72.29145      1.312     2.61     4.376687     20.39561     113.2707        14     1.013     0.815 -85.40   0
       149    738.9911    605.9665 300.2036512 +22.7629846     228.7009     72.29145      1.330     3.66      4.02712     20.39561     27.54275         5     1.009     0.381  32.12   0
       150    985.9756    601.8884 300.2819677 +22.8358146     3360.851     72.25462      1.514     2.93     3.898503     20.39561     339.4193        30     1.188     1.178  86.11   0
       151    517.8036    601.7382 300.1361438 +22.6954668     1578.247     72.29145      1.276     2.11     4.351244     20.39561      263.586        19     1.019     0.923   1.69   0
       152    493.5587    597.2603 300.1300516 +22.6869121     291.5872     72.27303      1.105     3.13     4.328073     20.39561     44.44856         5     0.727     0.489 -80.98   0
       153     79.6374    595.2692 300.0019911 +22.5621798     5115.292     72.27303      1.700     3.22     3.974356     20.39561     470.6293        38     1.352     1.255  42.97   0
       154    547.0148    592.7128 300.1481671 +22.7016341     280.3234     72.23619      1.281     3.75     4.377134     20.39561     35.13427         5     0.808     0.499  53.38   0
       155    381.1183    588.4954 300.0979114 +22.6506790     9153.253     72.45699      1.392     2.51     3.824029     20.39561     1041.538        42     1.224     1.151  55.56   0
       156    503.5848    585.5354 300.1369789 +22.6865529     8817.723     72.27303      1.341     2.29     4.337728     20.39561     1206.556        38     1.161     1.093  53.75   0
       157    915.3047    579.6708 300.2671429 +22.8082613     2019.501     72.40185      1.571     2.82     3.895927     20.39561     223.4246        22     1.177     1.002 -70.01   0
       158    147.4561    581.3259 300.0275896 +22.5785307     297.2975     72.32827      1.239     4.01     3.954743     20.39561     34.53511         6     0.985     0.467   2.47   0
       159    999.9330    576.9360 300.2944230 +22.8328255     12472.37     72.34667      1.514     2.96     3.856741     20.39561     1156.951        49     1.304     1.254 -74.37   0
       160    564.1683    575.1438 300.1592112 +22.7017332     11706.05     72.30986      1.328     2.38     4.375615     20.39561     1474.634        43     1.165     1.134  28.05   0
       161    733.7805    571.3952 300.2132523 +22.7514949     710.0289     72.25462      1.716     3.74     4.163595     20.39561     67.15365        11     1.092     0.742  60.74   0
       162    291.6202    570.4709 300.0759277 +22.6186646     1441.602     72.29145      1.483     2.48     3.814173     20.39561     182.3916        17     1.091     0.852  14.61   0
       163    449.9805    569.9316 300.1253626 +22.6660016     301.5522     72.27303      1.254     2.14     4.074878     20.39561     49.04451         5     0.615     0.561 -88.81   0
       164    538.3621    568.0870 300.1534685 +22.6919709     426.8652     72.27303      1.193     2.69     4.370554     20.39561     52.30787         7     0.736     0.625  67.55   0
       165    495.8546    563.2956 300.1417930 +22.6778515     4547.661     72.36507      1.346     2.40     4.330004     20.39561     562.9496        32     1.143     1.110 -80.09   0
       166    838.6156    563.3752 300.2485256 +22.7806046     934.8517     72.30986      1.428     2.55     4.012226     20.39561     108.2388        14     0.932     0.843  35.94   0
       167    474.2282    561.6331 300.1356022 +22.6708902     1168.979     72.30986      1.275     2.28     4.259685     20.39561     161.8319        15     0.976     0.824  59.81   0
       168    228.4536    561.1169 300.0593249 +22.5970336     672.1043     72.32827      1.330     2.69     4.048393     20.39561     104.8913        12     0.959     0.810  -8.57   0
       169    915.7099    558.9171 300.2740072 +22.8024200     1635.384     72.40185      1.503     2.96     3.865532     20.39561     167.7839        22     1.168     1.076 -40.32   0
       170    162.4874    558.8336 300.0395623 +22.5765891     363.4574     72.25462      1.290     2.38     4.018789     20.39561     61.67647         5     0.722     0.480 -75.06   0
       171    612.4630    550.8752 300.1821267 +22.7092425     200549.9     72.34667      1.340     2.32     4.369082     20.39561     28202.43       191     1.460     1.367  -1.27   0
       172    436.1375    556.9208 300.1252789 +22.6581166     284.3667     72.38346      1.102     3.39     3.950555     20.39561     48.02925         6     0.740     0.580 -46.98   0
       173    889.8485    553.9986 300.2675407 +22.7932598     244.9655     72.27303      1.151     3.39     3.939987     20.39561     50.53912         7     0.901     0.550 -42.73   0
       174   1000.5500    553.0013 300.3023861 +22.8261324     424.4918     72.27303      1.609     4.36     3.816651     20.39561     40.42672         6     0.846     0.641  56.40   0
       175    298.5367    550.8198 300.0844575 +22.6151008     3551.533     72.27303      1.416     2.48     3.808578     20.39561     490.8233        27     1.129     1.054  28.78   0
       176    477.4773    547.8135 300.1410994 +22.6678976     337.8869     72.30986      1.672     4.24     4.282117     20.39561     38.85098         5     1.081     0.473 -31.04   0
       177    864.6895    547.1788 300.2619113 +22.7837634     634.5924     72.21776      1.929     2.84     4.017978     20.39561     59.79902         8     0.845     0.659   3.86   0
       178    644.2712    537.4543 300.1963888 +22.7149225     274.9371     72.30986      1.340     4.32     4.394232     20.39561      41.9179         6     0.929     0.573 -39.14   0
       179    347.3664    533.5897 300.1052362 +22.6248010     311.0683     72.27303      1.293     3.26     3.783038     20.39561     49.28736        11     0.936     0.798  19.16   0
       180    503.0389    531.1313 300.1544699 +22.6707724     2814.373     72.25462      1.402     2.41      4.35608     20.39561     358.1053        25     1.075     1.011 -74.55   2
       181    914.6176    527.4591 300.2838787 +22.7930543     430.1406     72.23619      1.414     3.33     3.918766     20.39561     42.73808         6     0.859     0.485  87.54   0
       182    796.2501    555.9716 300.2377251 +22.7657843     838.8345     72.30986      1.292     2.53     4.025162     20.39561     115.4207        13     0.930     0.847 -39.29   0
       183    820.4682    520.0051 300.2569481 +22.7627087     510.3025     72.25462      1.614     4.16     4.087578     20.39561     53.33361         9     1.016     0.773 -72.61   0
       184    371.1266    521.0690 300.1166907 +22.6283329     9942.881     72.36507      0.710     1.68     3.814728     20.39561     4286.408        12     0.752     0.468 -10.89   0
       185    900.1428    517.4384 300.2826183 +22.7858393     1683.323     72.29145      1.379     2.67     4.036571     20.39561     207.1002        19     1.052     0.956  25.57   0
       186    787.1471    517.2623 300.2474538 +22.7519378     440.6711     72.34667      1.830     4.71     4.095286     20.39561     42.07005         5     1.210     0.521 -40.84   0
       187     30.4016    515.9678 300.0124376 +22.5246640     794.9941     72.25462      1.661     3.26     3.913882     20.39561     83.02184        14     1.094     0.941 -48.45   0
       188    771.2684    515.0425 300.2432261 +22.7465426     2556.679     72.27303      1.324     2.40     4.157679     20.39561     335.8274        24     1.057     1.014  86.57   0
       189    807.7284    515.1120 300.2545658 +22.7574863     2709.485     72.45699      0.756     2.21     4.065298     20.39561     887.6849         8     0.801     0.362   1.90   0
       190    131.0643    514.9903 300.0440277 +22.5545858     236.7915     72.27303      1.252     4.17     4.041378     20.39561     41.99993         7     0.914     0.543 -40.61   0
       191   1014.1609    508.6704 300.3210223 +22.8174686     854.5101     72.25462      1.949     3.54     3.707649     20.39561     75.76953        11     1.114     0.741  60.76   2
       192    558.7868    511.0275 300.1783485 +22.6817122       800.96     72.29145      1.380     2.30     4.642111     20.39561     119.9595        13     0.941     0.884 -81.98   0
       193    675.8590    511.5216 300.2146446 +22.7169420     504.4848     72.32827      1.383     3.97     4.464011     20.39561     61.58121         6     0.886     0.510  36.79   0
       194    900.3727    507.4907 300.2859188 +22.7830499     2274.377     72.25462      1.641     3.15     4.085143     20.39561     254.0268        27     1.583     0.955  76.30   0
       195    653.9408    505.5164 300.2097669 +22.7086489     689.7892     72.40185      1.492     2.08     4.552896     20.39561     107.2264         9     0.781     0.725 -67.68   0
       196    439.5051    505.5108 300.1430137 +22.6443701     416.0416     72.47536      1.459     4.12     4.062596     20.39561     53.12448         9     0.994     0.755  17.80   0
       197    938.4956    502.6159 300.2993883 +22.7930678     4374.386     72.21776      1.440     2.50     3.897583     20.39561     517.0775        33     1.178     1.121  41.19   0
       198    492.1287    504.3691 300.1597604 +22.6598188     331.6723     72.29145      1.002     2.00     4.313716     20.39561     91.38361         6     0.719     0.551  41.13   0
       199    579.4382    502.1889 300.1876467 +22.6853644      211.424     72.27303      1.060     2.46     4.711949     20.39561     35.70068         5     0.703     0.461  69.71   0
       200    652.7584    501.4621 300.2107145 +22.7071303     409.4114     72.27303      1.653     3.31     4.583434     20.39561     38.16151         5     0.729     0.467 -18.14   0
       201    676.4977    499.1909 300.2188456 +22.7135921     174.2754     72.18089      1.184     3.57     4.520173     20.39561     43.96783         7     0.854     0.632 -20.12   0
       202    598.8921    498.4647 300.1949126 +22.6901258      173.265     72.40185      1.133     4.66     4.742886     20.39561     41.67701         8     0.951     0.649 -11.01   0
       203    170.6372    492.7373 300.0635474 +22.5600734     987.8277     72.30986      1.378     2.41     4.078477     20.39561     139.5064        16     0.981     0.952 -75.70   0
       204    766.8887    491.4876 300.2495065 +22.7384641      9008.93     72.45699      0.710     0.99     4.197088     20.39561     3692.994        11     0.606     0.407  82.57   0
       205    437.5023    485.9604 300.1487353 +22.6381576     162.3651     72.29145      1.031     3.71     4.105862     20.39561     34.26276         6     0.793     0.500 -89.85   0
       206    162.9390    482.8061 300.0643776 +22.5549151      308.691     72.25462      1.221     3.16     4.082051     20.39561     50.53249         6     0.756     0.552  37.06   0
       207    770.8901    477.1156 300.2554176 +22.7355343     398.2877     72.43861      1.265     3.43     4.198178     20.39561     63.13834         9     0.886     0.778  84.89   0
       208    659.7656    474.5727 300.2216236 +22.7015076     218.7937     72.30986      1.116     4.60     4.661109     20.39561     61.74857         8     1.071     0.615  39.92   0
       209    711.9395    473.0224 300.2383787 +22.7166961     741.1273     72.25462      1.277     2.64     4.441206     20.39561     122.5527        11     0.915     0.775  80.36   0
       210     72.7253    466.2432 300.0417206 +22.5231009     351.5827     72.27303      1.922     3.29     4.039532     20.39561     32.73817         5     0.826     0.627 -42.85   0
       211    772.8356    465.2104 300.2598874 +22.7326971     792.1108     72.27303      1.261     2.21     4.211028     20.39561     107.3769         9     0.739     0.712 -59.93   0
       212    930.0580    461.4498 300.3101174 +22.7787107     895.3536     72.34667      1.373     2.96     4.053909     20.39561     110.0561        16     1.035     0.891 -20.75   0
       213    914.3308    457.9388 300.3063527 +22.7729916     614.7852     72.32827      1.354     2.51     4.158926     20.39561      93.7924        10     0.837     0.773 -38.62   0
       214    894.6069    457.7270 300.3002717 +22.7670233     337.2034     72.23619      1.625     4.95     4.271569     20.39561     41.06914         6     0.955     0.726  60.31   0
       215    658.4923    455.8567 300.2273005 +22.6957507     3173.094     72.34667      1.259     2.17     4.653467     20.39561     491.8342        22     0.998     0.965 -38.71   0
       216   1018.9882    454.8313 300.3400015 +22.8034395     533.7223     72.29145      1.332     3.19     3.620801     20.39561     61.62001        10     0.967     0.715  -5.95  16
       217    778.8661    453.1818 300.2656700 +22.7310480      508.924     72.27303      0.592     0.88     4.211744     20.39561     309.5177         5     0.470     0.376 -17.90   0
       218    765.7863    449.5971 300.2627573 +22.7260997     120.1337     72.12554      1.010     3.45     4.259304     20.39561     28.72885         5     0.746     0.461  16.64   0
       219    134.9083    447.5417 300.0671091 +22.5363899     409.4212     72.34667      1.428     3.32     4.253157     20.39561     48.09585         6     0.949     0.578 -29.90   0
       220    498.3323    442.8031 300.1816701 +22.6440027     391.2796     72.27303      1.224     4.08     4.380898     20.39561     65.06281         9     1.134     0.587  38.67   0
       221    430.4034    443.2191 300.1603958 +22.6237596      288.835     72.25462      1.305     3.31      4.17056     20.39561     44.76944         5     0.769     0.414  66.05   0
       222    941.8955    434.7970 300.3224575 +22.7745959     604.3287     72.19933      1.406     2.87     4.079488     20.39561     83.69341        10     0.944     0.768 -53.23   0
       223    769.1101    429.8493 300.2702008 +22.7214220     1124.754     72.29145      1.310     2.33      4.28202     20.39561     170.6217        16     0.984     0.873  39.38   0
       224    678.0150    431.3489 300.2413336 +22.6945610     311.6593     72.29145      1.420     2.71     4.592539     20.39561     53.87602         5     0.815     0.500  59.67   0
       225    565.0187    430.2871 300.2064898 +22.6603957     382.8034     72.23619      1.237     2.47     4.855503     20.39561     62.70724         7     0.801     0.585 -24.58   0
       226    273.2315    427.8531 300.1164938 +22.5722252     628.5527     72.30986      1.387     2.98     4.149318     20.39561     86.02948        12     0.949     0.853  57.77   0
       227    335.5344    423.6303 300.1372389 +22.5896944     3621.762     72.29145      1.303     2.24      4.16106     20.39561     513.8362        25     1.069     0.996  32.32   0
       228    282.6791    418.3820 300.1225042 +22.5723400     7653.308     72.29145      1.396     2.39     4.199326     20.39561     986.8452        42     1.242     1.153  76.93   0
       229    661.3752    418.1370 300.2404373 +22.6857803     274.8252     72.27303      1.092     2.58     4.620575     20.39561     42.98739         5     0.728     0.439  69.39   0
       230    423.4772    412.6412 300.1681615 +22.6129048     4833.825     72.27303      1.321     2.21     4.219086     20.39561     674.0347        34     1.191     1.043  71.04   0
       231    667.6865    409.3747 300.2452459 +22.6851543     18871.29     72.23619      1.282     2.22     4.592261     20.39561     2767.645        60     1.277     1.154  22.66   0
       232    515.3442    411.0450 300.1972690 +22.6399825     362.1838     72.32827      1.394     4.09     4.566063     20.39561     41.62836         7     0.934     0.659  59.63   0
       233    685.3384    409.2815 300.2507745 +22.6904162     839.8431     72.38346      1.904     6.50     4.550246     20.39561     63.09428        14     1.554     0.763 -42.54   0
       234    911.5729    405.9088 300.3223752 +22.7572127     276.6569     72.23619      1.251     2.12      4.29141     20.39561     46.79853         5     0.694     0.446  66.32   0
       235    260.2224    401.5670 300.1209766 +22.5607802     232.6786     72.29145      1.165     3.81     4.245553     20.39561     25.94602         5     1.035     0.403  83.89   0
       236    865.0852    400.1043 300.3097647 +22.7416224     406.0614     72.47535      1.670     3.81     4.384653     20.39561     55.30091         8     1.097     0.703  45.73   0
       237    287.7970    396.4470 300.1312115 +22.5675789     354.2753     72.27303      1.413     3.60     4.236139     20.39561     42.22842         7     0.921     0.624  48.81   0
       238   1001.2659    391.9841 300.3548652 +22.7800672     830.1993     72.27303      1.496     3.39     4.024002     20.39561     81.71179        14     1.079     0.839 -66.38   0
       239    538.1756    391.3603 300.2107620 +22.6411722     348.4538     72.32827      1.048     3.17     4.677173     20.39561     44.89568         6     0.956     0.410 -16.78   0
       240    222.3017    389.4055 300.1131322 +22.5459189     2121.107     72.18089      1.400     2.52     4.331066     20.39561     255.7745        25     1.163     1.026  56.58   0
       241    236.1670    384.4524 300.1190494 +22.5486551     310.5119     72.30986      1.943     3.75     4.328658     20.39561     31.10799         5     0.823     0.678 -53.21   0
       242    878.4019    381.3700 300.3199940 +22.7402264     196.0714     72.25462      1.432     4.17     4.374842     20.39561     27.00411         5     1.248     0.397  36.30   0
       243    608.3104    378.8114 300.2366691 +22.6585846     6389.272     72.23619      1.267     2.16     4.546344     20.39561     940.1791        32     1.069     1.014  64.07   0
       244   1021.9819    379.3945 300.3654116 +22.7826501     1208.164     64.91832      1.397     2.83     4.114555     20.39561     166.0663        18     1.035     0.959  61.13  24
       245    323.3204    378.0582 300.1482238 +22.5729512     848.0403     72.34667      1.598     2.52      4.23666     20.39561     97.74583        11     0.907     0.727  -5.24   0
       246    180.8974    371.1816 300.1061732 +22.5282728     554.1292     72.21776      1.470     4.03     4.489529     20.39561     57.20432        11     1.071     0.812  53.37   0
       247    868.4843    370.9199 300.3202921 +22.7342529     372.9536     72.43861      1.447     2.22     4.383864     20.39561     53.44676         6     0.739     0.500 -88.72   0
       248    721.9498    369.1245 300.2752070 +22.6898478     540.5361     72.29145      1.452     3.20     4.405719     20.39561     82.67424         8     1.007     0.657  73.80   0
       249     28.1232    368.8772 300.0594518 +22.4817904     1379.483     72.38346      1.627     3.38     4.357742     20.39561     157.2622        21     1.247     1.027  17.86   0
       250    812.5491    367.6560 300.3039152 +22.7165631     1161.202     72.32827      1.386     2.48     4.253367     20.39561     157.5914        18     1.013     0.970  88.79   0
       251    514.9615    364.9938 300.2120886 +22.6266433     6157.708     72.32827      1.330     2.29     4.409184     20.39561     933.9934        31     1.116     1.032  65.42   0
       252   1004.2765    359.7186 300.3662712 +22.7716927     567.0808     72.40185      1.312     2.60     4.372484     20.39561     88.05093        10     0.894     0.749 -30.42   0
       253    907.0698    359.3903 300.3360621 +22.7424937     1434.412     72.27303      1.425     2.60     4.398385     20.39561      185.439        21     1.104     1.011  -8.16   0
       254    499.4983    353.8775 300.2108811 +22.6188168     316.9252     72.42023      1.133     2.53     4.336012     20.39561     71.28516         7     0.829     0.572 -14.90   0
       255      5.9317    354.1937 300.0573216 +22.4709212     321.8426     72.25462      1.256     3.91     4.511248     20.39561     47.33411         6     0.760     0.575 -44.39   0
       256    582.2692    351.9903 300.2372603 +22.6430777     424.3139     72.27303      1.104     2.14     4.451774     20.39561     71.12272         7     0.693     0.639 -77.99   0
       257     26.3411    350.3480 300.0649078 +22.4759401      1067.57     72.34667      1.593     3.43     4.559329     20.39561     113.9935        22     1.293     1.091  -8.60   0
       258    879.9110    347.0732 300.3315897 +22.7308209     553.4208     72.45699      1.332     2.31      4.39684     20.39561     90.21322         9     0.766     0.731  14.05   0
       259    160.9684    346.3167 300.1080437 +22.5151609     287.9249     72.29145      1.360     3.79     4.563299     20.39561      37.3112         5     0.889     0.463   3.51   0
       260    402.5721    344.1638 300.1838698 +22.5869777     2608.852     72.30986      1.342     2.35     4.231266     20.39561     322.0135        24     1.113     0.952  53.29   0
       261    120.8761    341.7192 300.0970756 +22.5018183     901.1255     72.40185      1.389     3.27     4.566351     20.39561      113.369        14     1.008     0.879  58.52   0
       262    371.8655    333.6753 300.1777186 +22.5747621     29894.54     72.34667      1.343     2.32     4.237475     20.39561     4574.635        70     1.314     1.157  53.20   0
       263    349.8194    337.3038 300.1696841 +22.5691955     325.8996     72.19933      1.301     2.46     4.235721     20.39561     47.32443         5     0.816     0.629 -52.10   0
       264    906.5331    331.2357 300.3450269 +22.7342402     1383.195     72.29145      1.348     2.51     4.415479     20.39561     160.9488        19     1.087     0.906  59.57   0
       265    861.8746    329.4053 300.3316973 +22.7203417      403.568     72.21776      1.538     3.55     4.394838     20.39561     56.85283         8     0.936     0.729 -77.43   0
       266     68.1491    321.3915 300.0872854 +22.4801721     4930.735     72.29145      1.584     2.89     4.657992     20.39561     539.9838        39     1.392     1.198  42.71   0
       267    944.2736    321.5729 300.3599294 +22.7427622     338.9584     72.29145      1.619     3.50     4.429815     20.39561     31.55719         5     0.776     0.456 -17.83   0
       268    821.8674    320.1071 300.3222421 +22.7056887     615.9753     72.43861      1.312     2.28     4.352443     20.39561      83.3285         9     0.764     0.714  65.38   0
       269    246.2030    319.9684 300.1430836 +22.5331560     430.8186     72.27303      1.259     2.25     4.418431     20.39561     80.23779         8     0.885     0.564  26.13   0
       270    470.4882    318.9893 300.2131673 +22.6001036     491.2874     72.23619      1.143     2.56     4.291476     20.39561     73.05249         8     0.774     0.680   6.66   0
       271    782.2414    313.5230 300.3120275 +22.6919294      1848.88     72.25462      1.290     2.31     4.364266     20.39561     245.4053        20     1.081     0.891  72.46   0
       272    590.6090    307.8441 300.2541746 +22.6328953     294.7821     72.30986      1.032     2.15     4.428761     20.39561     62.82349         5     0.709     0.435  66.67   0
       273    997.4175    306.6999 300.3813280 +22.7543959     633.9949     72.19933      1.353     2.28     4.448745     20.39561     87.35236         9     0.891     0.601  -3.21   0
       274    444.0398    298.0951 300.2117124 +22.5861770     2121.343     72.29145      1.448     2.99     4.291421     20.39561     233.5788        22     1.226     0.977  55.24   0
       275    883.4563    291.0923 300.3508507 +22.7157910     542.3495     72.34667      1.284     2.19     4.423564     20.39561       89.645        10     0.890     0.628  25.71   0
       276     17.0675    288.4557 300.0820974 +22.4554013     733.2772     72.32827      1.772     3.70     5.095228     20.39561     86.88483        10     1.109     0.820  37.06   2
       277    782.8831    288.7017 300.3202767 +22.6849880     247.9462     72.45699      1.047     2.80     4.424027     20.39561     44.35826         5     0.792     0.507 -53.96   0
       278    765.5419    288.6417 300.3148922 +22.6797775     346.7307     72.29145      1.082     2.94     4.424027     20.39561     73.82795         7     0.895     0.607  42.47   0
       279    519.9654    277.5635 300.2420002 +22.6030313     1148.389     72.36507      1.277     2.33     4.364906     20.39561     169.9666        15     0.952     0.838 -77.66   0
       280    234.6297    278.6638 300.1528789 +22.5178295     91.19097     72.30986      1.051     3.82     4.460707     20.39561     34.11826         5     1.009     0.414  74.34   0
       281    327.4182    277.4896 300.1821129 +22.5453073     361.0941     72.21776      1.559     3.38     4.282121     20.39561     40.71428         6     0.911     0.417  70.97   0
       282     92.6855    277.3966 300.1091738 +22.4749059     478.4321     72.21776      1.997     4.79     4.590335     20.39561     38.49439         6     1.469     0.444 -84.39   0
       283    605.0854    275.0357 300.2693210 +22.6278069     436.1898     72.27303      2.596     4.58     4.415898     20.39561     42.44812         7     0.841     0.708  39.66   0
       284    902.8618    270.9134 300.3634444 +22.7158000     363.1895     72.38346      1.464     3.92     4.431622     20.39561     43.42516         5     0.817     0.538 -32.86   0
       285    764.7846    269.3602 300.3209085 +22.6740093     2060.208     72.30986      1.257     2.26     4.430547     20.39561     299.1138        21     1.066     0.890  61.25   0
       286   1024.0000    263.1398 300.4037459 +22.7498272     266.6273     54.23853      1.241     3.63      4.44498     20.39561     64.53209         5     1.317     0.289  90.00  24
       287      1.5016    254.5898 300.0882424 +22.4410158     2409.982     57.13103      1.947     4.80     5.042623     20.39561     306.7359        33     2.341     0.797  88.97  24
       288    473.2448    253.0963 300.2353913 +22.5820045     687.5026     72.30986      1.331     2.72     4.291699     20.39561       95.587        12     0.966     0.756  67.09   0
       289    147.9146    247.2369 300.1361135 +22.4828105     1410.809     72.27303      1.712     3.55     4.543651     20.39561     131.2236        22     1.338     1.072 -21.13   0
       290    179.1198    247.1498 300.1458403 +22.4921413     628.0617     72.30986      1.382     3.45     4.536053     20.39561     76.56663        10     0.893     0.846  49.08   0
       291    895.7926    244.6583 300.3697531 +22.7061354     224.9088     72.27303      1.136     3.33     4.446514     20.39561     53.00697         6     0.871     0.521 -40.88   0
       292    885.8681    241.1568 300.3677941 +22.7021575     316.6769     72.27303      1.393     4.72       4.4556     20.39561     42.72094         8     1.105     0.634  21.57   0
       293    231.8876    239.1553 300.1648352 +22.5056655     537.5753     72.27303      1.346     3.43     4.518807     20.39561     72.86938        12     1.098     0.743  53.11   0
       294     87.3857    236.6461 300.1207381 +22.4616218     345.6012     72.30986      1.656     3.82     4.612237     20.39561     32.81872         5     0.976     0.429 -13.91   0
       295    908.0646    233.0400 300.3773463 +22.7064688     383.0218     72.25462      1.356     2.30     4.442616     20.39561     62.91881         7     0.842     0.497  51.37   0
       296    836.3925    230.8490 300.3557121 +22.6843817     503.2021     72.29145      1.101     2.37     4.472812     20.39561     105.7955         9     0.818     0.707 -40.45   0
       297    427.0068    230.4940 300.2283301 +22.5616577     432.1491     72.18089      1.277     2.90     4.232283     20.39561     59.58624         8     0.860     0.640  58.30   0
       298    934.5604    219.8109 300.3898972 +22.7105965     2060.849     72.29145      1.395     2.42     4.423831     20.39561     266.3671        21     1.039     0.975  21.81   0
       299    353.0898    216.9906 300.2097112 +22.5356290     2187.257     72.21776      1.390     2.39     4.268728     20.39561     293.5789        26     1.178     1.009  83.75   0
       300    430.9635    212.1134 300.2355196 +22.5575639     940.0871     72.27303      1.356     2.17     4.245734     20.39561     138.9336        15     1.042     0.880   9.05   0
       301    833.0442    211.6208 300.3609019 +22.6778515     553.5193     72.34667      1.284     2.54     4.465552     20.39561     73.87321         9     0.808     0.700 -55.24   0
       302    183.2156    212.6134 300.1583087 +22.4834551     315.0208     72.23619      1.428     3.11     4.644763     20.39561     35.98116         5     0.731     0.451 -18.51   0
       303    939.9139    208.8284 300.3951270 +22.7090410     248.2661     72.29145      1.149     2.09     4.420419     20.39561     54.92073         5     0.727     0.480 -54.33   0
       304    247.9121    204.2656 300.1811269 +22.5004519     725.9694     72.38346      1.385     2.92     4.479795     20.39561     93.59662        14     1.018     0.869 -38.76   0
       305    365.9400    204.1433 300.2178728 +22.5357903     392.3127     72.36507      1.402     3.92     4.265809     20.39561     32.76513         5     0.825     0.533  56.59   0
       306    785.7268    201.1772 300.3495396 +22.6606822     1759.597     72.34667      1.327     2.66     4.449556     20.39561      222.653        22     1.119     0.977 -69.27   0
       307    100.2515    201.5768 300.1361030 +22.4554141     209.0697     72.29145      1.068     4.55     4.707508     20.39561     27.87683         5     1.177     0.499 -57.57   0
       308    850.7188    200.7064 300.3699495 +22.6800051     572.3139     72.43861      1.298     2.55     4.449185     20.39561     86.10535        12     0.949     0.781  59.50   0
       309    269.1057    197.7877 300.1898163 +22.5049443     591.3188     72.21776      1.339     2.34     4.407062     20.39561     83.25433         8     0.770     0.630 -22.53   0
       310    789.7915    192.8345 300.3535106 +22.6595010     763.3672     72.29145      1.293     2.50     4.452171     20.39561     136.6172        13     0.983     0.777  -4.36   0
       311    559.0715    193.3878 300.2814631 +22.5905645     292.9831     72.30986      1.205     4.33     4.370196     20.39561     39.63828         6     0.861     0.620  37.42   0
       312    710.2521    191.9676 300.3290073 +22.6354352     1202.133     72.30986      1.211     2.18     4.366713     20.39561     197.6952        12     0.850     0.783  82.50   0
       313    531.3663    188.5068 300.2744200 +22.5808629     477.7195     72.23619      1.375     2.58     4.363095     20.39561     54.06822         7     0.798     0.614 -71.18   0
       314    905.7121    183.4235 300.3926969 +22.6914982     1360.461     72.21776      1.294     2.45     4.412455     20.39561     192.5254        18     1.007     0.944  64.88   0
       315    636.5111    183.6171 300.3087441 +22.6109517     1018.666     72.21776      1.390     2.29      4.34965     20.39561     136.5755        14     0.963     0.846 -73.03   0
       316     87.7757    183.6380 300.1380408 +22.4465246     1349.571     72.30986      0.749     1.83     4.816042     20.39561     472.2783         7     0.571     0.488 -66.95   0
       317    963.8879    181.9255 300.4113244 +22.7084801      307.311     72.43861      1.369     3.17     4.412042     20.39561     55.43075         7     0.962     0.599 -88.90   0
       318    917.6307    182.6151 300.3966753 +22.6948333     865.2571     72.29145      1.464     2.90     4.412402     20.39561     103.6715        14     1.049     0.830  56.75   0
       319    102.8026    182.3105 300.1431400 +22.4506488     241.0924     72.19933      1.330     3.32     4.833617     20.39561     40.87838         5     0.887     0.534  51.74   0
       320      7.8400    171.7983 300.1170460 +22.4191585     410.7571     72.30986      1.525     5.23     4.925957     20.39561      36.2394        10     1.065     0.741   4.90   0
       321     57.8614    169.3980 300.1333619 +22.4334683     560.0662     72.27303      1.566     5.02     4.906565     20.39561     55.89658        10     1.013     0.860  64.65   0
       322    268.5207    165.8708 300.1999787 +22.4956041     830.9491     72.40185      1.708     2.55      4.43107     20.39561     110.2289        14     0.990     0.886 -18.58   0
       323    130.3179    160.5891 300.1587296 +22.4526624     2120.376     72.25462      1.488     2.74     5.080614     20.39561     293.5942        23     1.188     1.024  40.49   0
       324    953.5457    157.9758 300.4158614 +22.6984972     763.1165     72.30986      1.384     2.95     4.407644     20.39561     100.5342        15     1.067     0.878 -21.35   0
       325     80.0116    157.4525 300.1441145 +22.4366805     480.0298     72.29145      1.211     3.60     4.939219     20.39561     72.15045        10     0.999     0.749  83.43   0
       326    287.7771    153.9360 300.2098344 +22.4979478     5781.737     72.27303      1.423     2.44     4.381037     20.39561     796.7513        37     1.267     1.096  57.28   0
       327     71.9043    148.2865 300.1445660 +22.4316188     1258.532     72.47535      1.554     3.59     4.946739     20.39561     123.5903        22     1.261     1.052  29.54   0
       328    271.1635    144.7930 300.2076311 +22.4903433     752.0637     72.29145      1.654     3.85     4.475734     20.39561     78.68848        13     1.131     0.871  52.36   0
       329    931.9880    135.5083 300.4164198 +22.6855837     3802.367     72.23619      1.463     2.61     4.428741     20.39561     500.9157        32     1.238     1.161  84.92   0
       330    481.1217    130.6296 300.2775375 +22.5491829     557.3937     72.29145      1.280     2.86      4.44847     20.39561     85.88564        12     0.965     0.822  38.19   0
       331    234.2097    131.3267 300.2005048 +22.4754014     226.4671     72.29145      1.196     3.66     4.796444     20.39561     45.58513         5     0.882     0.437  47.65   0
       332    595.6401    128.1029 300.3140074 +22.5827574     389.3371     72.29145      1.457     3.98     4.297149     20.39561      48.8082         6     1.041     0.435 -77.55   0
       333    405.3505    122.5035 300.2565917 +22.5241492     859.1561     72.34667      1.970     2.60     4.295928     20.39561     77.33392         9     0.828     0.730  33.82   0
       334    171.5392    119.6337 300.1848118 +22.4532605     578.8611     72.30986      1.457     3.53     5.175826     20.39561     80.63034        12     1.047     0.861 -19.08   0
       335    532.7217    118.0333 300.2976807 +22.5610196     1670.387     72.27303      1.265     2.14     4.330731     20.39561     249.7978        18     1.021     0.901  75.96   0
       336    460.6983    118.5336 300.2751008 +22.5395896     362.5824     72.38346      1.259     4.15     4.418818     20.39561     53.00584         8     0.994     0.644  34.35   0
       337     69.4746    118.8518 300.1533487 +22.4224411     327.1565     72.30986      1.195     1.86     4.970432     20.39561     54.45447         5     0.662     0.478 -71.68   0
       338    594.2040    116.9678 300.3171684 +22.5791272     507.9153     72.27303      1.554     3.56     4.283954     20.39561     48.15487         6     1.005     0.555  61.34   0
       339    275.9092    113.6631 300.2191938 +22.4828254     447.0016     72.38346      1.334     3.08     4.515529     20.39561     56.61803         8     0.891     0.623  17.62   0
       340    820.8978    107.5683 300.3908391 +22.6442987     310.3987     72.27303      1.455     3.37     4.461926     20.39561     57.25426         5     0.873     0.537  45.15   0
       341    668.2407    103.6939 300.3445275 +22.5974824     193.0126     72.30986      1.330     2.76     4.261961     20.39561     39.55756         6     0.699     0.639  62.65   0
       342    177.7550    103.0248 300.1921251 +22.4503545      301.757     72.30986      1.582     4.54      5.19821     20.39561     30.67006         6     1.096     0.534  40.64   0
       343    966.5367    102.0363 300.4380410 +22.6862958     424.7614     72.29145      1.479     3.59     4.439379     20.39561     46.19447         6     0.915     0.519 -17.32   0
       344    813.5607     98.7456 300.3914109 +22.6395656     363.7853     72.29145      1.375     2.11     4.466311     20.39561     52.65355         5     0.691     0.437  64.00   0
       345    717.7260     99.3885 300.3613383 +22.6110610     215.9516     72.30986      1.169     3.49     4.315611     20.39561     36.72205         5     0.792     0.444 -17.90   0
       346    306.8240     97.8348 300.2339361 +22.4875430     5878.426     72.30986      1.432     2.62     4.382583     20.39561     774.6608        35     1.236     1.117  43.02   0
       347    157.8287     97.2884 300.1877902 +22.4427350     738.5515     72.27303      1.472     3.07     5.208873     20.39561     80.57869        10     0.868     0.789  12.47   0
       348    935.8976     95.6314 300.4305609 +22.6752848     342.8618     72.25462      1.167     3.20     4.473179     20.39561     54.95982         8     0.907     0.621  17.53   0
       349      2.0034     94.1609 300.1403893 +22.3951256      550.124     60.03937      1.234     2.42     4.889316     20.39561     69.18235         9     0.758     0.731  23.36  24
       350    278.5704     91.9712 300.2270494 +22.4773929      395.869     72.27303      1.415     3.55     4.511683     20.39561     49.71903         8     1.043     0.538 -35.74   0
       351    552.8593     83.1897 300.3152395 +22.5570377     6343.236     72.23619      1.344     2.31     4.258792     20.39561      827.184        36     1.197     1.076  74.52   0
       352    438.1256     82.9664 300.2796001 +22.5226089     637.8082     72.27303      1.296     2.45     4.419866     20.39561     100.9055         9     0.838     0.687  12.06   0
       353    573.6297     77.6845 300.3234899 +22.5616757     222.8856     72.29145      1.350     2.90     4.258792     20.39561     39.10908         5     0.715     0.462  75.10   0
       354    747.1393     75.1278 300.3783632 +22.6128917     323.6731     72.32827      1.342     2.08     4.489109     20.39561     55.17753         6     0.726     0.528  51.56   0
       355    805.3178     72.8804 300.3972220 +22.6296607     689.0417     72.43861      1.340     2.95     4.574377     20.39561      95.5528        11     0.997     0.687  51.25   0
       356    898.2187     71.6636 300.4265771 +22.6571154     44.33535     72.25462      0.605     4.74     4.707741     20.39561     63.88683         7     1.058     0.602 -27.96   0
       357    245.6049     67.0968 300.2248574 +22.4603705     306.4634     72.19933      1.244     2.61     4.881395     20.39561     69.01749         8     0.838     0.658 -26.06   0
       358    604.0825     65.7851 300.3368275 +22.5673747     456.4513     72.27303      1.234     2.41     4.258792     20.39561     67.94282         8     0.792     0.629 -33.69   0
       359    681.1872     63.2044 300.3616784 +22.5897192     6340.234     72.14399      1.359     2.52     4.383084     20.39561     840.7448        37     1.289     1.035  79.05   0
       360    456.1651     62.2287 300.2919320 +22.5220538     1477.142     72.30986      1.306     2.64     4.525486     20.39561     177.3144        20     1.103     0.948 -83.65   0
       361    722.3186     60.6639 300.3753154 +22.6013027     828.1467     72.40185      1.325     2.35     4.516532     20.39561      128.722        15     0.951     0.866  55.61   0
       362    791.8591     58.2381 300.3977710 +22.6214217     485.6466     72.30986      1.994     4.60     4.624245     20.39561     42.51705         8     0.985     0.745  14.54   0
       363    738.2442     56.8197 300.3815228 +22.6049649     560.1557     72.30986      1.332     2.25     4.588456     20.39561     82.08054         8     0.810     0.624  81.00   0
       364   1008.2845     54.6263 300.4664236 +22.6851490     438.8564     72.27303      1.346     2.92     4.900819     20.39561     53.57536         6     0.680     0.655  64.32   0
       365    205.0553     54.8716 300.2162109 +22.4447083     568.1642     72.30986      1.344     2.52     5.092305     20.39561     79.27337         8     0.826     0.596 -32.61   0
       366     52.0765     54.9830 300.1686346 +22.3988902     313.7807     72.29145      1.690     4.72     4.972087     20.39561     30.52652         6     1.118     0.566  -0.97   0
       367    776.9393     52.1400 300.3950967 +22.6152023     475.1477     72.32827      1.209     3.41     4.642348     20.39561     65.14189         9     0.915     0.705 -20.26   0
       368    725.3845     48.1633 300.3803202 +22.5986264     2813.102     72.29145      1.373     2.36     4.598522     20.39561     348.8206        25     1.135     0.990  47.27   0
       369    366.4101     49.2550 300.2682078 +22.4914402     402.2314     72.29145      1.364     2.28     4.537243     20.39561     69.71098         7     0.853     0.504  31.39   0
       370    740.5762     46.9520 300.3854461 +22.6028257     989.7333     72.29145      1.761     4.89     4.651482     20.39561     97.52433        18     1.422     0.850  55.79   0
       371     19.2865     42.6707 300.1624369 +22.3855262     762.7733     72.40185      1.522     3.10     4.932904     20.39561     79.04097        14     1.041     0.870 -12.60   0
       372    811.8732     39.8364 300.4099700 +22.6221203     1574.446     72.23619      1.302     2.32     4.748534     20.39561     242.6355        17     0.985     0.917 -16.53   0
       373    749.5956     33.0137 300.3927715 +22.6015178      855.388     72.14399      1.421     3.00     4.736584     20.39561     95.24853        13     0.991     0.851  59.25   0
       374    555.4587     32.1724 300.3325757 +22.5431534     1091.037     72.29145      1.359     2.97     4.258792     20.39561     125.5181        15     1.084     0.841  29.40   0
       375    128.0727     32.4076 300.1995598 +22.4151867     532.8491     72.27303      1.517     4.57     5.029941     20.39561     53.29625        12     1.156     1.007 -19.93   0
       376    459.1157     30.1819 300.3032311 +22.5137288     746.5623     72.25462      1.382     3.35     4.603693     20.39561     109.7845        15     1.178     0.913  56.92   0
       377    841.3090     29.3039 300.4225571 +22.6279010     290.2802     72.47536      1.196     3.75     4.933242     20.39561     53.78082         7     0.933     0.711 -23.55   0
       378    755.3944     26.6023 300.3966552 +22.6014100     233.8658     72.10708      1.407     3.45     4.770446     20.39561     29.52425         5     1.030     0.334  68.56   0
       379    798.8613     21.1074 300.4119811 +22.6128398     619.3551     72.38346      1.281     2.95     4.787896     20.39561     95.37068        11     0.981     0.770 -86.51   0
       380    290.2170   1017.5856 299.9302099 +22.7464598     1424.158     72.23619      2.708     7.55      69.9601     20.39561      56.4572        28     1.830     1.368  44.09  18
       381    652.9077     17.4010 300.3677066 +22.5680847      309.504     72.18089      1.414     2.84     4.421165     20.39561     42.35939         5     0.727     0.451 -19.73   0
       382    414.9195   1015.0865 299.9698060 +22.7831775     465.3999     72.45699      1.749     7.21     3.601459     20.39561     30.45542        11     1.248     1.166 -34.86   0
       383    444.1470    955.6676 299.9982221 +22.7749125     6445.284     72.30986      1.820     3.91     3.470017     20.39561     505.2155        42     1.429     1.365   2.45   0
       384    606.5466   1008.1645 300.0316964 +22.8386977     2328.779     72.30986      1.814     4.20     3.304238     20.39561     153.5829        31     1.373     1.314  -0.67   0
       385    692.9366   1003.4078 300.0601467 +22.8632504     8431.565     72.27303      1.920     4.29     3.826231     20.39561     462.7179        46     1.521     1.388  76.82   3
       386    698.4907   1001.0850 300.0626321 +22.8642501     9128.003     72.45699      1.918     4.35     3.808072     20.39561     501.5842        49     1.559     1.424 -55.45   3
