#   1 NUMBER                 Running object number                                     
#   2 X_IMAGE                Object position along x                                    [pixel]
#   3 Y_IMAGE                Object position along y                                    [pixel]
#   4 ALPHA_J2000            Right ascension of barycenter (J2000)                      [deg]
#   5 DELTA_J2000            Declination of barycenter (J2000)                          [deg]
#   6 FLUX_APER              Flux vector within fixed circular aperture(s)              [count]
#   7 FLUXERR_APER           RMS error vector for aperture flux(es)                     [count]
#   8 FLUX_RADIUS            Fraction-of-light radii                                    [pixel]
#   9 FWHM_IMAGE             FWHM assuming a gaussian core                              [pixel]
#  10 BACKGROUND             Background at centroid position                            [count]
#  11 THRESHOLD              Detection threshold above background                       [count]
#  12 FLUX_MAX               Peak flux above background                                 [count]
#  13 ISOAREA_IMAGE          Isophotal area above Analysis threshold                    [pixel**2]
#  14 A_IMAGE                Profile RMS along major axis                               [pixel]
#  15 B_IMAGE                Profile RMS along minor axis                               [pixel]
#  16 THETA_IMAGE            Position angle (CCW/x)                                     [deg]
#  17 FLAGS                  Extraction flags                                          
         1    476.3325     15.6806 300.3326431 +22.5430906     1152.419     72.24676      1.628     3.09     6.123062     20.35192     131.1762        20     1.176     1.118  -4.13   0
         2    380.2268     14.2482 300.3031744 +22.5139344     854.3691     72.15497      1.548     3.64     6.378638     20.35192     78.89355        14     1.158     0.792  -1.75   0
         3   1022.8140     11.1141 300.5045629 +22.7051146     1852.122     60.81106      1.538     3.50     7.061228     20.35192     212.6491        24     1.468     0.945  81.96  24
         4    719.8748      4.9968 300.4120112 +22.6128301     615.6408     71.37928      1.373     3.14     6.751819     20.35192     79.48711        11     1.046     0.696  26.13  16
         5    151.4487      3.7494 300.2353706 +22.4424687     3641.214     67.75938      1.807     3.40     7.016249     20.35192     362.3558        37     1.459     1.325 -17.60  24
         6    574.2520      1.5323 300.3677353 +22.5682990     320.4749      57.3101      1.483     3.43     6.201299     20.35192     40.81232         5     0.757     0.449 -20.94  24
         7    199.2717    985.5385 299.9316646 +22.7388369     5129.112     72.17333      9.662    30.16     60.33843     20.35192      94.5872       472     7.187     5.326 -52.44  19
         8     66.5938   1010.5693 299.8822636 +22.7062310     5632.577      72.1366     15.430    70.89     75.04878     20.35192     186.9395      1917    15.360    11.206  39.90  27
         9    476.9441    976.4178 300.0210629 +22.8194507     373.7625     72.11822      2.073     6.40      4.85302     20.35192     35.52757         6     1.210     0.952  16.88   0
        10     57.5674    916.3421 299.9100923 +22.6764906     3264.266     72.15497     12.056    45.34     22.19033     20.35192     80.52502       655     9.647     5.915 -45.33  19
        11    526.7509    991.7825 300.0315815 +22.8387875     2253.581     72.17333      2.134     5.21     4.849688     20.35192     142.2287        38     1.620     1.500 -12.76   0
        12    906.0504    971.1069 300.1565682 +22.9464551     812.7916     72.21005      2.214     7.41     5.334132     20.35192     37.71834        16     1.400     1.099  15.25   0
        13    569.2286    969.3205 300.0521200 +22.8450639     3850.526     72.15497      1.014     3.25     4.985362     20.35192      1791.06        10     1.014     0.361 -65.16   0
        14    136.3585    963.2441 299.9193448 +22.7135751      463.854     72.21005      5.872     5.37     51.03394     20.35192     28.01119         5     1.480     0.549 -50.37   0
        15    124.5661    956.4785 299.9178771 +22.7080977      1987.96     72.08145     10.143    15.73     45.61393     20.35192     54.52906        74     3.198     2.676 -16.79   3
        16    145.7045    972.9624 299.9190917 +22.7191662     1714.648     72.11822     23.950    17.59     59.35021     20.35192     55.97935        57     5.623     1.529  62.35   3
        17    631.5616    954.0679 300.0765047 +22.8593564     6908.633     72.09984      2.137     5.04     5.076748     20.35192     337.5779        53     1.668     1.561  23.69   0
        18    511.6598    948.4963 300.0409551 +22.8218348     509.4707     72.21005      2.226     5.55       5.0527     20.35192     35.24197         8     1.139     0.763  20.66   0
        19    540.0555    944.8410 300.0509898 +22.8292928     1522.107     72.11822      2.114     5.05     5.083969     20.35192     88.24511        32     1.535     1.399  41.99   0
        20    433.9596    941.3213 300.0190872 +22.7964919     1088.669     72.11822      2.136     5.80     5.060035     20.35192     74.17661        25     1.468     1.265 -27.30   0
        21    364.5252    939.0640 299.9982018 +22.7750353     6714.859     72.17333      2.159     4.73     5.295751     20.35192     373.7033        52     1.649     1.607  24.19   0
        22    152.9325    998.9454 299.9128913 +22.7287890     3125.344     72.17333      6.938    28.73     82.20822     20.35192     71.85863       211     5.855     3.914  75.00  18
        23    613.3510    987.0850 300.0600931 +22.8633850     9052.523     72.11822      2.328     5.99     4.910117     20.35192     390.3597        54     1.730     1.649  -4.01   3
        24    217.5827    973.5533 299.9412581 +22.7408875     7408.023     72.17333      8.076    31.38     45.88457     20.35192     156.5958       724    10.801     4.848  62.16  18
        25     98.8644    916.9955 299.9227200 +22.6890615     1361.423     72.11822      9.043    10.13     22.72005     20.35192     39.25146        21     3.021     0.947 -81.90   3
        26    128.3703   1007.2169 299.9025627 +22.7237966     528.9439      72.1366      1.806     3.80     88.78006     20.35192     32.36118         5     1.026     0.403  -5.20   0
        27    911.7023    918.8920 300.1753096 +22.9331387     1547.577      72.3201      1.871     5.23     5.630322     20.35192     99.39256        20     1.462     0.975 -67.10   3
        28    909.2739    918.1105 300.1748059 +22.9321870     1014.167     72.30177      1.623     5.22     5.632989     20.35192     104.1002        14     1.675     0.566 -63.27   3
        29    618.7133    984.6669 300.0625506 +22.8642969     9383.479     72.24676      2.214     5.15     4.920312     20.35192     486.6518        51     1.695     1.497  61.11   3
        30     58.5870    954.5110 299.8980013 +22.6877475     5280.789     72.08145     21.998    84.74     39.82533     20.35192     1196.025      3248    19.528    15.314 -15.56  19
        31    561.4656    915.4911 300.0672024 +22.8272771     368.0626      72.2651      1.737     3.73     5.219955     20.35192     32.64317         6     1.043     0.383  19.34   0
        32    408.3187    914.4363 300.0198429 +22.7810884     364.5276     72.09984      1.818     6.52     5.215895     20.35192     41.61446         8     1.221     0.978   3.25   0
        33    700.2164    907.0687 300.1131865 +22.8664172     668.3926     72.15497      1.840     6.22     5.524929     20.35192     49.45839        12     1.371     0.794  22.12   0
        34    735.5846    901.8022 300.1259264 +22.8754957     1063.337     71.98945      2.568     6.33     5.691659     20.35192     57.82953        14     1.447     1.055  85.62   2
        35    336.2019    998.8625 299.9699417 +22.7837123     567.8417     72.11822      1.895     3.89     5.239202     20.35192     47.02241         7     1.214     0.401  88.78   0
        36    756.7534    894.8524 300.1347869 +22.8798375     11377.28     72.17333      2.043     4.68     5.728031     20.35192     607.8758        55     1.624     1.533  50.00   0
        37    947.7465    894.4529 300.1945038 +22.9369025     535.5671     72.17333      2.022     6.30     5.705496     20.35192     37.39375         7     1.308     0.994 -13.21   0
        38    803.3555    895.1288 300.1492316 +22.8938708     464.1068     72.09984      1.973     3.15     5.795636     20.35192     36.63382         5     0.756     0.428  69.87   0
        39     68.7551    884.8058 299.9238209 +22.6707964     607.7576      72.1366      2.511     6.43     14.78295     20.35192     37.16463        10     1.641     0.707  71.51   0
        40    462.1551    882.5195 300.0469831 +22.7880542     478.7965     72.11822      2.118     6.62     5.321475     20.35192     47.62976         8     1.600     0.770  51.83   0
        41    809.0933    881.9139 300.1553170 +22.8917907     387.3084      72.3201      1.933     4.90     5.797159     20.35192      33.6292         7     1.515     0.449  50.60   0
        42    765.4252    877.0850 300.1432668 +22.8773280     1381.784     72.09984      2.104     5.90     5.745471     20.35192     79.85383        27     1.482     1.388 -48.56   0
        43    617.6815    873.2366 300.0984561 +22.8319776     410.1893     72.09984      1.481     3.40     5.482531     20.35192     34.61545         5     0.759     0.441 -75.82   0
        44    803.7639    870.6982 300.1573003 +22.8869714     803.9465      72.1366      1.883     6.25     5.810397     20.35192     62.21856        14     1.108     0.991  31.08   0
        45    852.0775    862.0054 300.1751974 +22.8989368     539.6711     72.04466      1.917     6.36     5.772077     20.35192      43.8479        15     1.324     1.051 -44.10   0
        46    703.1691    860.7516 300.1291626 +22.8539923     781.1188     72.17333      1.920     6.89     5.655768     20.35192     45.79441        16     1.428     0.932   8.10   0
        47    714.0269    857.6735 300.1335484 +22.8563591      682.953      72.1366      2.387     8.29     5.664691     20.35192     42.36489        17     1.569     1.224  23.78   0
        48    415.7282    856.7667 300.0408949 +22.7667478     4187.626      72.1366      1.970     4.32     5.390364     20.35192     278.3052        40     1.639     1.360  33.12   0
        49    713.2078    987.3452 300.0911359 +22.8933724     626.4296      72.1366      2.327     7.06     4.885883     20.35192     40.81332        11     1.672     1.056  -8.51   0
        50     78.3393    844.8212 299.9397953 +22.6621957      397.385     72.08145      1.880     4.75     9.122231     20.35192     37.75438         5     0.975     0.700  -9.47   0
        51    141.3657    842.2036 299.9602453 +22.6803396     792.7952      72.1366      2.216     7.95     8.880273     20.35192     49.11391        17     1.607     1.147  40.56   0
        52    118.0236    839.3511 299.9539129 +22.6725233      1609.24      72.1366      2.073     5.10     9.052076     20.35192     122.0238        32     1.565     1.431 -16.63   0
        53     50.5897    840.1931 299.9326716 +22.6525475      316.523     72.00786      1.819     4.98     7.807626     20.35192      23.3664         5     1.117     0.629 -27.06   0
        54    990.1215    829.1233 300.2289656 +22.9308006     2126.424     72.24675      2.212     5.40     5.729598     20.35192     94.71289        40     1.637     1.541 -45.47   0
        55    944.2460    827.2932 300.2152406 +22.9165452     2167.407     72.15497      2.128     5.43     5.683677     20.35192     116.2001        36     1.536     1.532 -86.07   0
        56    649.6906    828.0588 300.1231159 +22.8285831      544.413     72.21005      2.289     6.37     5.581316     20.35192     41.50714         9     1.392     0.818 -43.94   0
        57    727.7412    821.1389 300.1496982 +22.8499658     700.9448      72.1917      2.055     6.45     5.639072     20.35192     49.97689        11     1.706     0.684  43.11   0
        58    151.1593    820.7532 299.9702615 +22.6771184     300.9397      72.1917      1.338     4.72     7.395307     20.35192     34.80507         6     1.177     0.537  67.94   0
        59    595.8353    815.0665 300.1105526 +22.8087214     4849.329      72.1366      1.831     3.96     5.495569     20.35192     322.5983        38     1.418     1.360  20.95   0
        60    210.6268   1000.5120 299.9303282 +22.7465384     1378.011     72.11822      2.923     9.26     68.98597     20.35192         49.3        22     1.976     1.211  49.82   3
        61    397.9196    812.0244 300.0498895 +22.7485621     677.6311     72.11822      1.935     7.50     5.391403     20.35192     59.02851        13     1.567     1.004  53.55   0
        62    145.8135    808.6263 299.9725392 +22.6720349     1319.304      72.1366      2.039     5.13     6.663432     20.35192     108.5864        28     1.510     1.399   6.81   0
        63    616.4093    807.8345 300.1193145 +22.8128049     762.3328     72.11822      2.032     5.96     5.522562     20.35192     67.31268        18     1.435     1.030  10.99   0
        64    987.5596    795.3286 300.2391482 +22.9203154     1028.655     72.11822      2.101     5.67     5.692044     20.35192     64.80903        16     1.470     0.883  88.03   2
        65    771.8122    794.9142 300.1719635 +22.8556225     4237.342     72.08145      1.875     4.14     5.610252     20.35192     254.9786        42     1.444     1.419 -18.19   0
        66    503.7709    792.1852 300.0893023 +22.7745732     291.7029     72.15497      1.595     4.45     5.396057     20.35192     31.76139         5     0.788     0.714  39.62   0
        67    181.2074    789.0975 299.9898934 +22.6770377     410.9473     72.00786      1.468     3.79      6.08675     20.35192     45.75736         8     1.005     0.613  84.15   0
        68    488.4900    786.9317 300.0862492 +22.7684868     665.1814     72.28344      1.773     6.81     5.380658     20.35192     67.61999        15     1.272     1.023  59.10   0
        69    135.0662    784.9435 299.9768911 +22.6620152         1013      72.1917      2.120     6.08     6.097037     20.35192     88.42559        23     1.712     1.250  27.64   0
        70    284.8387    777.1498 300.0260194 +22.7046643      53816.6     72.15497      1.936     3.98     5.815683     20.35192     4279.206       111     1.677     1.616  41.87   0
        71    550.5737    780.6470 300.1076325 +22.7852762     476.1117     72.17333      1.685     4.90     5.409518     20.35192     45.26794        10     1.177     0.880  45.71   0
        72    542.6761    776.2451 300.1066020 +22.7816462     1661.001     72.11822      1.802     4.40      5.39656     20.35192     127.4816        29     1.539     1.226  46.95   0
        73    955.7014    775.8536 300.2355316 +22.9051814     741.1085     72.22841      1.845     6.14     5.676101     20.35192      48.7149        17     1.341     1.057  54.76   0
        74    213.6217    775.8076 300.0042950 +22.6829370     541.9849     72.11822      1.921     4.87     5.998557     20.35192     46.16984         9     1.111     0.816 -36.54   0
        75    571.9941    772.4487 300.1169706 +22.7893357      908.378     72.11822      1.724     3.65      5.40517     20.35192     79.31845        16     1.181     0.936  23.01   0
        76    582.7781    770.7592 300.1208800 +22.7920797     631.9328     72.17333      1.699     5.10     5.408374     20.35192     56.89191        14     1.177     1.089  -4.25   0
        77    903.0034    768.8125 300.2213724 +22.8873864     380.3676     71.97104      1.814     4.69     5.605442     20.35192     27.56321         5     0.949     0.657  30.54   0
        78    687.9089    767.5577 300.1546890 +22.8226397     409.9446      72.1366      1.673     4.86     5.510936     20.35192     49.08094         6     0.906     0.740  63.80   0
        79    725.7195    757.5059 300.1697438 +22.8310706     847.3433      72.2651      1.879     5.38     5.494209     20.35192     73.49774        15     1.254     0.958  51.68   0
        80    334.5833    754.4399 300.0488802 +22.7130474     31494.03     72.15497      1.871     3.95     5.479148     20.35192     2365.929        86     1.584     1.538  17.14   0
        81    348.9515    754.9299 300.0531937 +22.7174929     2005.148     72.11822      1.844     3.74     5.442689     20.35192     155.0327        29     1.343     1.254  18.33   0
        82    857.8002    750.7538 300.2131348 +22.8686653     2825.952      72.1366      1.863     4.11     5.484574     20.35192     175.0482        34     1.381     1.360 -44.05   0
        83    345.4099    749.1548 300.0539672 +22.7147732     784.6699     72.15497      3.248     6.46     5.451265     20.35192     50.56053        13     1.396     0.921   5.34   1
        84    615.7981    746.5347 300.1390406 +22.7950063     935.2968     72.15497      1.711     4.92     5.358634     20.35192      68.6377        15     1.189     0.941  42.86   0
        85    452.0170    746.6133 300.0879875 +22.7459791      500.035     72.08145      1.691     5.62     5.362615     20.35192      43.6914        12     1.168     0.889   8.20   0
        86    216.8925    746.2712 300.0149077 +22.6754365     880.6741     72.28344      2.019     5.33     5.815367     20.35192     67.23456        20     1.428     1.123   2.21   0
        87    462.7062    741.4312 300.0930002 +22.7476920     878.9376     72.06306      1.711     4.00     5.348779     20.35192     65.82521        15     1.079     0.968  46.47   0
        88     22.6428    741.3559 299.9560941 +22.6158031     464.6195     72.21005      1.581     4.12     6.270009     20.35192      50.9673         7     1.051     0.460  81.94   0
        89    863.9608    738.9530 300.2188907 +22.8671159     561.3866     72.17333      1.903     5.78     5.477076     20.35192      37.3724        11     1.105     0.852  10.17   0
        90    320.9423    737.2479 300.0502187 +22.7040228      419.461      72.1917      1.776     4.24     5.446486     20.35192     48.13903         9     0.936     0.862 -29.93   0
        91     51.1657    735.2726 299.9669373 +22.6226075     465.4827      72.1366      1.601     4.02     6.196631     20.35192     42.67391         9     1.038     0.684 -80.97   0
        92    841.9205    733.6792 300.2137275 +22.8590031     469.3999      72.2651      1.650     4.77     5.540063     20.35192     37.20662         8     0.974     0.662  14.68   0
        93    215.1898    730.4221 300.0195261 +22.6703753     640.1718      72.1366      2.041     7.02     5.762634     20.35192     36.18916        13     1.423     0.971 -40.28   0
        94    538.0928    721.5831 300.1229315 +22.7645670     466.9852     72.06306      3.607     5.84      5.33681     20.35192     40.89692         9     1.735     0.553  19.39   0
        95    507.6522    719.5544 300.1141068 +22.7548679     630.2823     72.15497      1.715     3.92     5.333248     20.35192     52.44833        12     1.039     0.826  27.78   0
        96    924.1648    715.9948 300.2451355 +22.8785298     4543.843      72.1366      1.889     4.20     5.789975     20.35192     267.9775        44     1.541     1.450 -80.27   0
        97    529.5219    716.8929 300.1217846 +22.7606526     1502.626     72.28344      1.823     4.02     5.336001     20.35192     119.0456        23     1.355     1.075  13.01   0
        98    611.2888    711.9538 300.1488683 +22.7837176     297.3531     72.11822      1.566     3.82     5.324525     20.35192     32.12992         5     0.836     0.500 -36.29   0
        99    912.7700    707.5447 300.2443241 +22.8726899     1806.075     72.15497      1.903     5.09     5.762059     20.35192     114.8574        28     1.441     1.249 -36.69   0
       100    275.4577    701.1706 300.0477802 +22.6800336     782.2756      72.1366      1.723     5.50     5.670479     20.35192     71.89481        14     1.245     1.054  23.32   0
       101    739.1290    698.4640 300.1931047 +22.8181118     2664.263     72.17333      1.904     4.05     5.554343     20.35192     182.1334        31     1.386     1.352 -25.72   0
       102    943.8685    697.6530 300.2572430 +22.8791501     1616.376     72.15497      1.885     4.21     5.758421     20.35192     107.0816        29     1.409     1.279  75.67   0
       103    124.6763    685.1357 300.0060788 +22.6302473      502.574     72.21005      1.798     5.32     5.940109     20.35192     42.57322         9     1.098     0.885 -80.05   0
       104    821.7039    684.6358 300.2233510 +22.8388504     591.4183      72.1366      1.951     6.83     5.763096     20.35192      36.6936        12     1.177     1.112  19.28   0
       105    857.5022    675.5969 300.2374550 +22.8469639     148416.6     72.04466      1.823     3.98     5.792563     20.35192     10667.93       153     1.632     1.583 -80.58   0
       106    620.1058    679.5392 300.1621443 +22.7770408     296.4739     72.22841      1.530     4.57     5.366549     20.35192     39.57409         7     0.949     0.626 -48.01   0
       107   1004.4719    677.7385 300.2826293 +22.8915528     1223.378     72.17333      1.934     4.66     5.562619     20.35192     88.57864        21     1.407     1.063  -3.94   0
       108    709.8095    676.0642 300.1912373 +22.8028957     824.1058     72.11822      1.815     3.60     5.608697     20.35192     74.71042        14     1.210     0.835  55.85   0
       109    890.3065    668.5427 300.2499818 +22.8547512     382.0613      72.1917      1.360     4.51     5.814354     20.35192      42.9593         7     1.164     0.496   2.65   0
       110    543.8353    664.2199 300.1433513 +22.7498018     1670.575     72.15497      1.622     3.52     5.432689     20.35192     159.9862        24     1.278     1.163  -6.75   0
       111    724.9232    661.6595 300.2006281 +22.8032782      9333.18      72.1917      1.701     3.53     5.646722     20.35192     740.9504        47     1.377     1.334  57.06   0
       112    206.9678    663.4646 300.0387138 +22.6486837     407.7258      72.1366      2.001     3.40      5.76425     20.35192     32.85894         5     0.748     0.608 -84.76   0
       113    308.4230    654.8480 300.0730833 +22.6766043      1030.76     72.15497      1.665     4.94     5.799825     20.35192      104.542        20     1.416     1.099  88.73   0
       114    226.3369    656.4332 300.0470233 +22.6524677     4902.287      72.1366      1.836     3.78     5.763322     20.35192      419.779        42     1.474     1.320  25.23   0
       115    183.6520    652.4467 300.0350379 +22.6385334     467.2459     72.17333      1.638     7.07     5.804463     20.35192     57.30069        10     1.395     1.005 -39.55   0
       116    516.5627    650.3387 300.1393620 +22.7376462     709.9639     72.15497      1.677     4.42     5.592692     20.35192     65.88452        14     1.075     1.011 -17.93   0
       117    508.4077    642.3841 300.1394045 +22.7329183     3281.055     72.06306      1.706     3.21      5.68688     20.35192     336.5436        32     1.288     1.260   1.59   0
       118    498.6549    636.0128 300.1384350 +22.7281669      1611.05      72.1366      1.772     4.10     5.761018     20.35192     137.7285        23     1.336     1.082  60.23   0
       119    892.6368    634.3158 300.2618241 +22.8456040     463.3967     72.11822      1.872     3.60     5.875466     20.35192     47.27216         5     0.873     0.429 -44.25   0
       120    161.8253    632.1157 300.0348495 +22.6261548     646.0966     72.09984      1.791     5.83     5.898587     20.35192     59.51569        13     1.308     0.874  44.89   0
       121    176.1142    630.4313 300.0398412 +22.6299524     667.5797      72.1366      1.815     4.96     5.879538     20.35192     74.50285        17     1.404     1.224  13.88   0
       122    945.1332    627.8120 300.2803196 +22.8594388     663.4469     72.11822      2.054     5.87     5.864471     20.35192     49.27665        12     1.192     0.815  36.20   0
       123    202.5867    627.6951 300.0489651 +22.6370982     497.5194     72.06306      1.441     2.42     5.832365     20.35192     48.82538         5     0.687     0.464  71.12   0
       124    522.8337    626.5175 300.1490507 +22.7326777     548.3433     72.09984      1.852     4.75     5.842267     20.35192     41.09745         9     1.038     0.770 -18.98   0
       125    423.3604    625.6998 300.1183319 +22.7026559     1781.074      72.1366      1.690     3.49     5.943643     20.35192     190.4642        26     1.329     1.163  25.25   0
       126     77.3356    620.4681 300.0123548 +22.5974923     20034.51      72.1917      1.991     4.00     6.145319     20.35192     1780.151        78     1.715     1.562  41.92   0
       127    999.3550    623.7900 300.2985516 +22.8745016     739.2285     72.15497      1.967     5.67      5.81061     20.35192     72.14921        15     1.278     1.202 -37.92   0
       128    508.6635    621.1754 300.1463706 +22.7268995       1070.7     72.11822      1.709     3.66     5.922407     20.35192     98.57492        22     1.219     1.144  20.67   0
       129    543.9863    620.3842 300.1576325 +22.7372481     395.2929     72.08145      1.478     3.04      5.89715     20.35192     48.82867         7     0.717     0.697 -45.25   0
       130    272.1712    609.8659 300.0764056 +22.6528233     993.2802      72.1366      0.552     2.20     5.781453     20.35192     587.1418         5     0.455     0.325 -53.33   0
       131    926.2751    607.5906 300.2809997 +22.8479801     1072.554     72.11822      1.835     4.41     5.920128     20.35192     85.39757        20     1.237     1.163 -26.14   0
       132    591.6848    609.2297 300.1761176 +22.7483219     310.9917      72.1366      1.585     3.42     6.012005     20.35192     43.26246         6     0.903     0.704  13.48   0
       133     23.4467    604.5182 300.0007785 +22.5767629      1515.23     72.11822      2.177     6.47     6.265513     20.35192     79.47866        26     1.480     1.338  64.39   0
       134    793.0330    605.4864 300.2401099 +22.8075092     519.0721     72.09984      1.826     6.29     5.904005     20.35192     43.79643        11     1.132     0.981  27.62   0
       135    471.9276    602.1096 300.1411172 +22.7104204     365.3545     72.30177      1.290     4.40     6.104848     20.35192     44.73351        10     0.950     0.752  -7.24   0
       136    866.0698    600.5804 300.2644881 +22.8279517     922.8701     72.15497      2.641     8.08     5.919164     20.35192     71.96848        20     2.070     0.883  -4.22   0
       137    264.5586    600.7404 300.0769991 +22.6479215     394.5947     72.11822      1.882     4.91     5.784948     20.35192     41.48293         6     0.987     0.823 -35.43   0
       138    428.4765    594.1238 300.1301768 +22.6951143     824.2756     72.22841      1.628     3.28     6.021225     20.35192     84.89767        13     1.052     0.860 -10.45   0
       139    576.6704    592.4117 300.1768987 +22.7389926     424.6976     72.15497      1.352     4.79     6.105107     20.35192     42.92919         8     0.962     0.677 -89.35   0
       140    624.0023    591.3969 300.1919796 +22.7528695     547.6976     71.91576      1.616     4.82     6.061764     20.35192     49.44218        11     1.077     0.896 -35.87   0
       141    594.4106    590.8958 300.1829194 +22.7438674      519.784     72.06306      1.464     3.76     6.099418     20.35192     50.28197        10     0.944     0.806  52.93   0
       142    472.7552    589.8788 300.1453457 +22.7071531     966.9388     72.11822      1.921     4.57     6.160535     20.35192     72.90364        17     1.270     1.025  87.91   0
       143    906.5314    585.5725 300.2819866 +22.8357396     3378.547     72.11822      1.777     3.71     5.933314     20.35192     264.3581        38     1.490     1.299 -81.82   0
       144    438.2188    585.3016 300.1360748 +22.6954964     1774.599     72.06306      1.640     3.24     6.074835     20.35192     165.0367        24     1.195     1.110  77.48   0
       145   1004.3986    583.6462 300.3131604 +22.8644598     662.8721      72.1366      1.692     6.29     5.918006     20.35192     56.55913        14     1.207     0.944 -31.42   0
       146    803.2635    583.0653 300.2505804 +22.8041221     304.8514     72.17333      1.745     4.68     5.944579     20.35192     30.82474         5     1.134     0.605   9.31   0
       147      1.5042    578.7340 300.0023274 +22.5627839     2566.673     57.21751      1.234     3.12      6.10979     20.35192     431.6514        20     1.414     0.639  89.62  24
       148    467.3602    576.4672 300.1480190 +22.7016832     464.7076     72.09984      2.365     4.67     6.201953     20.35192     35.36546         7     1.022     0.606  22.45   0
       149    945.9587    575.1922 300.2976619 +22.8445476     330.3319     72.15497      1.333     5.24     5.946756     20.35192     42.81786         6     1.097     0.707  81.19   0
       150    301.5975    571.9164 300.0978836 +22.6507352     8921.438     72.06306      1.672     3.58     5.783397     20.35192     811.7948        42     1.380     1.288  55.83   0
       151    424.1170    569.0121 300.1369710 +22.6865923     9055.892     72.09984      1.611     3.16     6.069438     20.35192     787.0144        47     1.355     1.332 -75.38   0
       152    502.5657    566.4908 300.1622241 +22.7093564     342.4052     72.11822      1.373     5.35     6.298107     20.35192     35.37716         5     1.133     0.713 -17.40   0
       153    835.7313    563.2498 300.2671418 +22.8081370     1885.299      72.1366      1.729     3.67     5.940178     20.35192     155.1469        26     1.353     1.142  58.55   0
       154    920.5410    560.7297 300.2944238 +22.8327835     12572.12     72.17333      1.761     3.73     5.958525     20.35192     930.9227        55     1.456     1.414 -76.02   0
       155    484.7145    558.7081 300.1591895 +22.7017749     11711.24     72.30177      1.645     3.20     6.332581     20.35192     1203.272        49     1.352     1.294  43.27   0
       156    654.3074    554.9857 300.2132461 +22.7514713     556.5412     72.06306      1.603     3.21     6.121072     20.35192     68.66973         9     1.020     0.709  64.76   0
       157    212.1287    553.9685 300.0758673 +22.6187800     1244.798      72.1366      1.659     3.70     5.819189     20.35192     131.8607        22     1.227     1.109  44.96   0
       158    459.3203    552.3831 300.1533327 +22.6923538     387.6954      72.1366      1.589     4.39     6.266593     20.35192     49.43621         9     1.232     0.629  -3.34   0
       159    416.3682    546.7800 300.1417743 +22.6778828     4306.243      72.1366      1.637     3.20     6.084076     20.35192     456.2849        32     1.246     1.215  52.52   0
       160    759.4009    546.9052 300.2486378 +22.7805975     781.2826     72.00786      1.571     4.06     5.978241     20.35192     84.26665        14     1.166     0.913  53.47   0
       161    394.4811    545.2524 300.1354546 +22.6708901     1106.764     72.17333      1.531     3.38      5.98984     20.35192     121.9568        20     1.146     1.040  55.76   0
       162    149.1111    544.8571 300.0592205 +22.5972845     551.6373     72.17333      1.364     3.65     5.920403     20.35192     75.71137        13     1.128     0.818 -24.14   0
       163    836.4023    542.6445 300.2740398 +22.8024106     1700.334     72.11822      1.807     3.82     5.964254     20.35192     132.2971        28     1.401     1.171 -37.33   0
       164     83.6743    542.5181 300.0396287 +22.5770075     430.1836     72.24676      2.017     5.64     5.911405     20.35192     35.64725         6     0.984     0.913 -82.11   0
       165    533.0551    534.4434 300.1821253 +22.7092718     205478.2      72.1366      1.594     3.00     6.436239     20.35192     20114.28       196     1.564     1.523 -13.40   0
       166    716.8043    539.6070 300.2377230 +22.7657522     749.5041     71.97104      1.645     3.65     6.034307     20.35192     90.16384        15     1.168     0.939  77.73   0
       167    357.0813    540.1593 300.1254630 +22.6582270     403.6404     72.09984      1.789     5.00     5.845546     20.35192     28.97376         7     0.852     0.831  43.74   0
       168    810.0875    538.0148 300.2673333 +22.7932060     341.9093     72.08145      1.391     4.07     6.028392     20.35192     40.14718         6     0.980     0.484 -56.75   0
       169    219.0340    534.2075 300.0844295 +22.6151718     3694.247      72.1366      1.721     3.33     5.802273     20.35192     329.7519        36     1.402     1.289  72.60   0
       170    785.0545    530.7724 300.2618755 +22.7836331     537.4493      72.1366      1.485     3.38      6.07632     20.35192     59.88127        10     0.904     0.764 -87.09   0
       171    423.6225    514.9177 300.1543745 +22.6708975     2797.592     72.09984      1.693     3.20      6.14284     20.35192     275.9224        35     1.573     1.210  82.96   0
       172    267.8874    517.3168 300.1051131 +22.6249516     431.5552     72.24675      1.708     4.69     5.783694     20.35192     39.53125         7     1.115     0.560  22.90   0
       173    834.7963    511.6101 300.2836117 +22.7930024     399.7374     71.97104      1.445     3.49     6.210423     20.35192      30.9703         5     0.770     0.457  15.94   0
       174    740.9323    503.7254 300.2568928 +22.7626521     444.0165     72.21005      1.482     4.07     6.143685     20.35192      44.2734         8     0.922     0.728  58.94   0
       175    820.7377    501.2047 300.2826028 +22.7858033     1744.759     72.11822      1.675     3.57     6.306072     20.35192     149.0296        20     1.152     1.070 -69.09   0
       176    691.8404    498.7343 300.2432046 +22.7465274     2626.415     72.09984      1.592     3.24     6.174081     20.35192     259.2091        25     1.212     1.099  44.76   0
       177    936.1120    496.6808 300.3200726 +22.8190123     557.9364      72.2651      1.608     3.78     6.216938     20.35192     51.92299         6     0.832     0.493  -3.99   2
       178    934.8362    492.3612 300.3210762 +22.8173877     869.4611     72.21005      2.329     4.85     6.246319     20.35192     54.74404        15     1.132     1.079  68.68   2
       179    596.9479    495.0820 300.2148097 +22.7170795     463.9012     72.17333      1.708     4.30     6.315798     20.35192     51.59624         7     1.015     0.596  84.80   0
       180    479.7689    494.5496 300.1784719 +22.6818520     700.9794     72.17333      1.599     2.44     6.542483     20.35192     83.18716        10     0.917     0.655 -38.59   0
       181    949.1459    492.9333 300.3253570 +22.8218320     1386.797      72.1917      1.810     4.07     6.177996     20.35192      102.924        22     1.336     1.070  59.01   0
       182    821.0942    491.2137 300.2859565 +22.7830357     2140.989     72.06306      1.832     4.17     6.383928     20.35192     177.9945        30     1.523     1.176  77.21   0
       183    574.3081    489.3036 300.2096293 +22.7086421     665.0135      72.3201      1.797     3.10     6.369511     20.35192     63.66601         8     0.774     0.737 -78.30   2
       184    573.5815    485.1107 300.2107635 +22.7072190     515.3555     72.06306      1.873     4.55     6.369511     20.35192      42.4937         7     1.196     0.492  44.94   2
       185    360.0950    489.0973 300.1429725 +22.6444553     305.9648      72.3201      1.295     4.26     6.062344     20.35192     40.36743         6     0.902     0.664  40.38   0
       186    859.1290    486.2668 300.2994283 +22.7929901       4186.4     72.17333      1.626     3.26     6.404406     20.35192     392.3775        32     1.260     1.218  49.91   0
       187    413.0661    488.3513 300.1597083 +22.6601010     324.8668      72.1366      1.313     2.73     6.104373     20.35192     48.34909         5     0.752     0.416  22.02   0
       188    520.0791    482.2825 300.1950103 +22.6903920     294.0659      72.2651      1.356     3.59     6.496357     20.35192     40.94051         7     0.768     0.639   2.68   0
       189    951.0841    477.0240 300.3311249 +22.8178335     774.2612     72.09984      1.631     3.89     6.215847     20.35192      70.3988        16     1.253     0.871 -15.94   0
       190     91.2934    476.2380 300.0635063 +22.5602538     962.6017      72.1366      1.714     3.82     6.023715     20.35192     99.49466        18     1.268     1.039 -89.43   0
       191    751.8856    470.5114 300.2710871 +22.7563756     308.1046     72.28344      1.379     3.79     6.294036     20.35192     35.35011         5     0.832     0.665  43.01   0
       192     83.9169    466.4144 300.0643998 +22.5552223      441.079     72.09984      1.897     6.67      6.06767     20.35192     46.80481        10     1.185     1.054 -64.49   0
       193    691.1510    461.3221 300.2551300 +22.7355610     395.7243      72.1366      1.468     4.19     6.253396     20.35192     51.64675         7     0.762     0.656  20.39   0
       194    632.7347    456.6866 300.2384229 +22.7167481     867.0399     72.22841      1.544     2.91     6.277562     20.35192     101.9668        13     1.071     0.749  47.97   0
       195     88.6864    452.3189 300.0704561 +22.5526023      1535.59     72.28344      0.742     0.93     6.155684     20.35192     744.1027         6     0.551     0.455 -18.84   0
       196    947.2092    449.7292 300.3387724 +22.8088197     499.0008     72.11822      1.477     3.56     6.261173     20.35192     51.47194        10     0.986     0.712  37.22   0
       197    693.4383    449.1071 300.2598065 +22.7327320      821.754      72.1366      1.444     3.02     6.274834     20.35192     90.45458        12     1.000     0.768  -4.87   0
       198    850.5959    445.1876 300.3100957 +22.7786183     1098.618     71.98945      1.729     3.59     6.472406     20.35192     97.09877        17     1.159     0.963 -83.10   0
       199    835.0203    441.5489 300.3064168 +22.7729126     638.7734     72.11822      1.544     3.28     6.491331     20.35192      61.1671        13     1.075     0.833  -8.53   0
       200    579.1265    439.3740 300.2273317 +22.6957269     3238.347      72.1366      1.523     2.88     6.276139     20.35192     342.4631        31     1.273     1.133  80.49   0
       201     55.3503    431.5355 300.0668328 +22.5366459     303.0607      72.1917      1.367     3.46     6.251186     20.35192     40.93504         5     0.735     0.470 -17.06   0
       202    940.0164    438.3455 300.3402208 +22.8033926     644.3434     72.11822      1.966     6.64      6.31576     20.35192      46.9743        14     1.459     0.848 -61.37   0
       203    419.1295    426.5133 300.1816603 +22.6441408      533.308     72.24675      1.763     4.14     6.111394     20.35192     39.26862         6     0.979     0.500  -1.00   0
       204    990.4387    418.8217 300.3622952 +22.8128506     1347.472     72.15497      1.670     3.96     5.999211     20.35192     108.1247        21     1.387     0.950  46.75   0
       205    948.8124    417.3581 300.3497756 +22.7999826      983.845      72.1366      1.645     4.09     6.275539     20.35192     90.61167        21     1.245     1.185  29.84   0
       206    862.8088    418.6132 300.3225282 +22.7746244      441.845     72.02627      1.425     3.00     6.472574     20.35192       58.733         7     0.929     0.476  -7.31   0
       207    689.8948    413.3189 300.2703127 +22.7213776     1093.768     72.28344      1.482     3.01     6.332002     20.35192     109.3782        18     1.097     1.003 -44.82   0
       208    485.4490    413.9790 300.2063829 +22.6603885     442.3243      72.1366      1.418     4.16     6.106725     20.35192      64.9266        13     1.171     0.826   2.09   0
       209    193.4191    411.1420 300.1163904 +22.5721419     749.8536     72.11822      1.782     4.75     6.486431     20.35192     74.12164        13     1.204     0.950  61.63   0
       210    256.0882    407.0296 300.1372243 +22.5897268      3864.64      72.1366      1.599     3.13     6.374314     20.35192     362.6695        36     1.346     1.241  32.66   0
       211    989.2797    405.9447 300.3661109 +22.8087976     4370.654     72.17333      1.720     3.49     6.025078     20.35192     357.3872        34     1.333     1.323 -76.45   0
       212    203.2935    401.6996 300.1225254 +22.5723858     7580.815      72.3201      1.735     3.47     6.494093     20.35192     775.9355        42     1.451     1.287  58.38   0
       213    969.3325    397.1443 300.3627387 +22.8003003      1864.82     72.17333      1.747     3.58     6.156027     20.35192     144.3375        27     1.321     1.174 -16.59   0
       214    344.0904    396.0515 300.1681769 +22.6129201     4862.546     72.15497      1.564     2.96     6.270089     20.35192     435.9576        35     1.302     1.217  68.44   0
       215    588.3445    392.9539 300.2452636 +22.6851357     18715.02     72.17333      1.525     2.87     6.212704     20.35192     1845.346        62     1.375     1.285  76.62   0
       216    605.6704    393.1929 300.2505860 +22.6903887     906.3019     72.09984      2.064     5.93     6.239728     20.35192     64.16361        18     1.646     0.866 -46.02   0
       217    785.5516    383.6159 300.3097792 +22.7414472     263.4185     72.17333      1.424     4.74     6.534355     20.35192     35.97764         7     0.920     0.692  22.55   0
       218    208.2843    380.1446 300.1310697 +22.5676862     371.5251     72.22841      1.531     2.37     6.512822     20.35192     63.13088         5     0.709     0.618  55.56   0
       219    922.0496    376.2726 300.3547504 +22.7801549     804.3364     72.11822      1.750     3.93     6.372038     20.35192     64.51544        16     1.134     0.927  21.69   0
       220    458.8380    375.2967 300.2106412 +22.6413015     334.4551     72.11822      1.608     4.27     6.050556     20.35192     42.85032         6     0.964     0.566  67.44   0
       221    142.9584    372.7772 300.1131367 +22.5460063     2055.985     72.17333      1.723     3.25     6.503116     20.35192     202.6803        29     1.388     1.188  50.28   0
       222    942.7274    362.9253 300.3655337 +22.7824958     1177.239      72.1917      1.633     3.67     6.289153     20.35192     98.62019        20     1.222     1.037 -66.47   0
       223    528.9730    362.3504 300.2366891 +22.6585681     6556.827     72.15497      1.512     2.80     6.086419     20.35192     708.6277        37     1.257     1.187  66.01   0
       224    244.1299    361.9473 300.1481253 +22.5731898     522.3606     72.11822      1.355     3.07     6.502866     20.35192     63.54511         9     0.857     0.725 -83.67   0
       225    101.7756    354.7539 300.1061732 +22.5284939     678.9454     72.15497      1.974     3.56     6.509698     20.35192     67.71384        12     1.039     0.893  10.45   0
       226    642.9411    352.8068 300.2753026 +22.6899234     629.0511     72.11822      1.557     3.13     6.256843     20.35192     74.58669         8     0.885     0.751 -51.39   0
       227    733.3157    351.3905 300.3039399 +22.7165509     1206.141     72.08145      1.588     3.14     6.332002     20.35192     130.8476        19     1.216     0.964  89.61   0
       228    435.5795    348.5456 300.2120732 +22.6266485     6351.749     72.11822      1.592     2.91     6.078021     20.35192     755.0505        40     1.310     1.224  48.77   0
       229    925.1307    343.7212 300.3662700 +22.7717067     672.6823     72.24675      1.526     4.48     6.341252     20.35192     55.37474        12     1.083     0.790   7.64   0
       230    827.7072    343.2059 300.3360365 +22.7424267     1438.258     72.04466      1.579     3.17     6.532482     20.35192     137.3591        22     1.180     1.125  42.73   0
       231    420.1093    337.4289 300.2108604 +22.6188220     414.2162     72.09984      1.500     4.20     6.129531     20.35192     54.08641         5     0.789     0.639  72.14   0
       232    503.1596    335.3532 300.2374023 +22.6430795      415.207      72.1917      1.369     3.08     6.093359     20.35192      54.6102         9     0.860     0.746 -89.72   0
       233    800.4250    330.9651 300.3314954 +22.7307451     462.4343     72.15497      1.443     4.07     6.564286     20.35192     51.62061        10     0.933     0.776  -3.06   0
       234    323.1178    327.7425 300.1838021 +22.5870054     2632.082      72.1917      1.600     3.52     6.408399     20.35192     280.8216        30     1.328     1.151  54.24   0
       235     41.8082    324.7828 300.0972451 +22.5019225      918.386     72.08145      1.698     4.87     6.480433     20.35192     90.07895        17     1.292     1.111 -80.69   0
       236    292.5219    317.0817 300.1777352 +22.5747818     30031.15     72.24675      1.659     3.06     6.498688     20.35192     3120.972        84     1.511     1.392  63.55   0
       237    827.5181    315.1340 300.3450813 +22.7342912       1265.5     72.24675      1.451     3.04     6.486015     20.35192     123.1887        18     1.107     0.952 -27.30   0
       238    742.2255    304.1049 300.3220530 +22.7056099     433.5883     72.06306      1.240     2.94     6.344782     20.35192     72.12492         7     0.869     0.519  42.79   0
       239    166.8670    303.4811 300.1430452 +22.5332525     455.4863     72.24675      1.525     3.71     6.621058     20.35192     48.62515         9     1.021     0.764  -7.25   0
       240    391.3495    302.3503 300.2132792 +22.6001280     419.2852     72.17333      1.336     2.77     6.220269     20.35192     54.96586         8     0.851     0.634 -89.71   0
       241    702.9980    297.1371 300.3120797 +22.6918723      1955.16      72.1366      1.525     2.93     6.332002     20.35192     196.2201        22     1.115     1.079 -67.40   0
       242    511.1319    291.7835 300.2540142 +22.6329343     296.5787      72.1366      1.284     3.64     6.284711     20.35192     40.54899         6     0.855     0.687 -68.64   0
       243    918.2790    290.2722 300.3814645 +22.7542724     610.0471      72.2651      1.532     4.57     6.347926     20.35192     63.07912        10     0.968     0.824 -54.79   0
       244    364.7094    281.4849 300.2117494 +22.5861553     2205.122     72.30177      1.778     3.91     6.250401     20.35192     199.6207        26     1.412     1.074  62.60   0
       245    796.7080    275.6426 300.3482751 +22.7137121     172.7171      72.1366      1.270     3.78     6.449656     20.35192     38.35715         5     0.940     0.437 -81.24   0
       246    803.8376    274.7397 300.3507918 +22.7155842     582.3155     72.15497      1.509     3.94     6.454451     20.35192     71.57307        14     1.215     0.841  36.06   0
       247    686.3478    272.3368 300.3149292 +22.6797563     465.5623      72.1917      1.477     3.92     6.364774     20.35192     57.42637         9     0.935     0.833 -58.28   0
       248    440.5070    261.1784 300.2419366 +22.6029994       1255.9     72.06306      1.516     2.92     6.290231     20.35192     137.6528        19     1.163     0.956  47.70   0
       249     13.6667    261.4363 300.1090336 +22.4752938     241.0991      72.1366      1.260     4.06     6.855019     20.35192     33.27988         5     0.958     0.492  -4.48   0
       250    951.9568    257.6063 300.4025676 +22.7549356     314.3526     72.15497      1.523     3.42     6.303148     20.35192     41.73064         5     0.771     0.438  20.01   0
       251    824.1268    254.6260 300.3636425 +22.7158616     292.3501      72.1366      1.383     3.47     6.445477     20.35192     33.74755         5     0.791     0.440 -17.85   0
       252    685.5526    252.9524 300.3209658 +22.6739406     2257.472     72.17333      1.564     3.12     6.401401     20.35192     217.4178        23     1.193     1.097 -85.00   0
       253    946.8845    247.5028 300.4042598 +22.7505104     3141.545     72.30177      1.679     3.40     6.329258     20.35192     286.5241        34     1.326     1.270  83.93   0
       254   1008.9148    242.7691 300.4251595 +22.7676881     406.7564     72.15497      2.002     3.91      6.24287     20.35192     45.06874         5     0.982     0.461 -65.76   0
       255   1016.3428    235.6583 300.4297840 +22.7678604     1579.145     72.21005      1.691     3.20     6.264612     20.35192     170.4499        23     1.260     1.100  70.87  16
       256    480.3085    236.8940 300.2622067 +22.6079241     1684.792     72.30177      0.616     1.13     6.372212     20.35192     872.5859         7     0.598     0.348  -6.58   0
       257    393.7661    236.7538 300.2352980 +22.5819883     798.6568     72.17333      1.735     3.52     6.343799     20.35192      89.0975        12     1.136     0.785 -25.11   0
       258     99.5547    231.0050 300.1456037 +22.4922684     573.8701      72.1366      1.521     3.40     6.748277     20.35192     81.18262        11     1.046     0.914 -10.77   0
       259     68.6979    230.7606 300.1360872 +22.4829588     1359.391      72.1366      1.771     3.86     6.922261     20.35192     123.9874        20     1.294     0.991  -8.80   0
       260    962.8702    228.3178 300.4154693 +22.7497647     441.8825     72.24675      1.512     3.96     6.346124     20.35192     63.26402         9     1.096     0.557  13.03   0
       261    806.3260    225.0293 300.3676839 +22.7020200     387.6451     72.15497      1.542     2.54      6.45511     20.35192      53.0924         5     0.785     0.473  26.13   0
       262    152.9107    223.1749 300.1647372 +22.5059927      528.501     72.08145      1.662     2.73     6.769753     20.35192     48.54372         6     0.711     0.581 -42.12   0
       263    828.9854    217.1063 300.3773212 +22.7065140     293.6783     72.06306      1.242     3.05     6.482402     20.35192       49.715         6     0.896     0.457  32.73   0
       264    757.1462    214.4147 300.3557843 +22.6842598     678.2629     72.15497      1.652     3.82     6.543955     20.35192     69.71088        12     1.184     0.815  62.33   0
       265     32.7416    206.8229 300.1326658 +22.4653130     261.1568      72.1366      1.260     3.73     7.358833     20.35192     32.28412         5     0.911     0.438  42.93   0
       266    855.4223    203.4797 300.3899866 +22.7104948     2095.701     72.09984      1.619     3.27     6.473485     20.35192     224.8433        24     1.288     1.101 -80.79   0
       267    273.8104    200.4308 300.2097271 +22.5356441     2249.731      72.1366      1.729     3.27     6.879426     20.35192     224.0907        33     1.495     1.166  72.58   0
       268    351.7111    195.6544 300.2355248 +22.5575841     1184.325     72.17333      1.775     3.99     6.496001     20.35192     96.35946        23     1.266     1.191 -28.00   0
       269    753.8315    195.1399 300.3609979 +22.6777209     496.3022     72.17333      1.546     4.54     6.695698     20.35192     57.64325        10     1.104     0.848 -76.03   0
       270    104.0388    195.9984 300.1583442 +22.4835496      316.832     72.15497      1.778     3.64     6.957927     20.35192     33.73223         5     0.652     0.584   0.04   0
       271    860.6651    192.5164 300.3951759 +22.7089058     371.4783     72.24676      1.510     5.15     6.468536     20.35192     35.79609         8     0.994     0.754  22.11   0
       272    168.3616    187.8365 300.1809969 +22.5004600     740.0053     72.21005      1.623     3.68     6.937742     20.35192     94.37874        14     1.193     0.872  34.88   0
       273    706.5461    184.8048 300.3496015 +22.6606071     1869.978     72.11822      1.644     3.28     6.770637     20.35192     187.9792        25     1.345     1.029  76.82   0
       274    771.4299    184.9486 300.3697900 +22.6800492      538.998     72.15497      1.470     2.97      6.77583     20.35192     60.88124         8     0.810     0.664   4.30   0
       275    190.3510    181.1005 300.1900209 +22.5051058     566.1722     72.17333      1.632     4.11     6.927243     20.35192     51.55177        11     1.017     0.912 -48.90   0
       276    978.1607    177.8639 300.4365965 +22.7398056     942.4065     72.11822      1.840     4.44     6.602419     20.35192     88.89082        17     1.337     1.013   0.73   0
       277    710.5474    176.0889 300.3536739 +22.6592950     905.8061     72.15497      1.836     4.69     6.842346     20.35192     85.09693        16     1.359     0.858  62.15   0
       278    630.8631    175.7342 300.3289453 +22.6353639     1188.318     72.17333      1.381     2.72     6.731847     20.35192     149.3283        16     1.140     0.885  41.13   0
       279    480.2034    177.2910 300.2814924 +22.5907476     419.8806     72.04466      1.536     4.49      6.30268     20.35192     38.06152         8     1.001     0.572 -16.79   0
       280    452.3636    172.3874 300.2744095 +22.5810082     452.5052     72.11822      1.698     2.88      6.28944     20.35192     51.41459         5     0.714     0.478  10.46   0
       281    826.6916    167.3197 300.3927421 +22.6914956     1384.116      72.2651      1.551     2.89     6.738512     20.35192     160.1933        19     1.095     1.063 -63.31   0
       282    557.2565    167.3022 300.3087368 +22.6109229     970.9344     72.22841      1.539     3.50     6.728343     20.35192     100.3348        19     1.190     1.032 -56.74   0
       283    884.8110    166.1759 300.4112475 +22.7085396     255.9779      72.1366      1.505     3.62     6.473481     20.35192     30.98835         5     1.136     0.331  78.94   0
       284    838.6497    166.6554 300.3966883 +22.6948791     775.3287     72.17333      1.523     2.68     6.654933     20.35192     106.7261        14     1.001     0.897  11.63   0
       285    999.4285    157.2932 300.4499031 +22.7402370     1632.092     72.06306      1.691     3.15     6.799802     20.35192     182.6565        22     1.253     1.120  69.97   0
       286    955.3140    156.3984 300.4364210 +22.7267960     1073.359     72.06306      1.671     4.20     6.622084     20.35192     111.0593        21     1.346     1.131  84.65   0
       287    189.0857    149.4820 300.1998731 +22.4956368     798.7507     72.28344      1.613     3.67      7.00005     20.35192      79.7047        15     1.182     0.992   0.46   0
       288     51.0281    143.9589 300.1587226 +22.4527213     2210.921     72.15497      1.813     3.70     7.634178     20.35192     190.3842        34     1.434     1.381  11.30   0
       289    874.4252    141.9347 300.4158622 +22.6984552     618.8389     72.11822      1.389     2.86     6.626835     20.35192     77.93776        10     0.974     0.628  22.60   0
       290    208.5085    137.3062 300.2098614 +22.4979494     5690.448     72.30177      1.761     3.19     6.941537     20.35192     633.5595        46     1.507     1.312  45.58   0
       291   1007.5458    125.2674 300.4628155 +22.7334383     18468.12     72.17333      1.837     3.60      6.89713     20.35192     1646.276        69     1.619     1.440 -86.98   0
       292    191.8359    128.7913 300.2074328 +22.4905111     619.7402      72.1366      1.415     4.47      6.98158     20.35192     65.77219         9     0.956     0.692   3.43   0
       293    852.7546    119.2468 300.4164517 +22.6854451     3533.016     72.17333      1.628     3.10     6.838702     20.35192     386.0103        33     1.355     1.211 -89.11   0
       294    956.4193    118.2004 300.4491438 +22.7161254     2692.135     72.06306      1.702     3.11     6.834414     20.35192     265.8684        31     1.416     1.192 -71.39   0
       295    402.1110    114.4242 300.2775402 +22.5493004     553.8261     72.08145      1.352     3.10     6.432761     20.35192      63.6281         9     0.951     0.638  45.86   0
       296    155.3638    115.2678 300.2004677 +22.4757066     372.7006      72.1366      1.389     3.35     7.060185     20.35192      47.9141         5     0.765     0.675 -17.33   0
       297    326.2640    106.0787 300.2566281 +22.5242075     632.1197     72.22841      1.561     3.93     6.738528     20.35192     66.62626        13     1.085     0.910  -8.91   2
       298    330.4759    105.3007 300.2581913 +22.5252440     364.2551      72.2651      1.779     3.39     6.720946     20.35192     37.68859         5     1.032     0.322  19.48   3
       299     91.9249    103.0842 300.1846828 +22.4532150     680.8674      72.2284      1.836     4.12     7.260419     20.35192      51.0892        14     1.211     0.933 -21.54   0
       300    453.4654    101.5335 300.2977109 +22.5609545     1956.677      72.1917      1.696     3.09     6.315542     20.35192     206.0075        25     1.270     1.087  48.80   0
       301    381.5790    102.0863 300.2751438 +22.5396088     616.0743     72.06306      1.833     3.44      6.52143     20.35192      54.3854        10     1.031     0.735  39.99   0
       302    515.6070    101.3798 300.3171194 +22.5794973     377.7696     72.09984      1.462     3.57      6.52173     20.35192     48.35504         6     0.821     0.548  44.88   0
       303    887.7437     85.8866 300.4381784 +22.6862958     356.5464     72.22841      1.616     3.75     6.962351     20.35192     43.89429         8     0.998     0.774  43.77   0
       304   1018.1145     82.5623 300.4799519 +22.7242947     3629.918     72.11822      1.889     3.81     6.967134     20.35192     278.9651        40     1.532     1.379 -71.67  16
       305    638.7765     83.1852 300.3613998 +22.6110946     233.6034      72.1366      1.984     3.85     6.912708     20.35192     25.47225         5     0.939     0.452 -44.04   0
       306    227.5438     81.1172 300.2339882 +22.4874889     6016.924     72.21005      1.786     3.38     6.894313     20.35192     620.9475        47     1.514     1.360  65.09   0
       307    734.4369     82.5164 300.3914435 +22.6395021     287.1669     72.11822      1.082     3.71     6.978497     20.35192     38.46937         6     0.930     0.425 -18.54   0
       308     78.6657     80.7849 300.1877831 +22.4428354     731.8768     72.11822      1.992     4.11     7.389057     20.35192      86.8089        12     1.231     0.836   5.28   0
       309    199.6529     75.3158 300.2271889 +22.4774742     291.2946     72.17333      1.543     4.19     6.943953     20.35192     32.30072         6     0.927     0.541  46.93   0
       310    243.2426     72.9440 300.2415211 +22.4898362     300.9221     72.11822      1.244     2.76     6.908807     20.35192      45.9612         5     0.771     0.489  26.51   0
       311    473.6608     66.6671 300.3152967 +22.5569632     6347.534     72.17333      1.653     3.16     6.215678     20.35192      691.066        43     1.449     1.233  69.80   0
       312    359.4568     66.5531 300.2797664 +22.5227690     746.7412     72.17333      1.780     3.98     6.513089     20.35192     78.63109        12     1.090     0.802 -66.58   0
       313    531.1575     61.3453 300.3349337 +22.5726276     406.0767      72.1366      1.505     4.37     6.352039     20.35192     48.30921         8     1.212     0.507 -57.61   0
       314    726.1766     57.0151 300.3971284 +22.6296909     962.9961      72.1366      1.891     4.31      6.90201     20.35192       81.733        18     1.378     0.897  61.53   0
       315    818.7600     55.6738 300.4264412 +22.6569784     453.7488     72.11822      1.471     3.80     6.904158     20.35192     57.82677        10     1.020     0.900  35.95   0
       316    525.1601     49.6884 300.3368409 +22.5674794     464.3505     72.11822      1.611     3.89     6.252061     20.35192     45.64333         8     1.020     0.579 -23.37   0
       317    166.8138     50.6638 300.2249570 +22.4605577     545.8814     72.09984      1.814     4.47     7.014571     20.35192     43.69507         8     1.415     0.402 -10.54   0
       318    602.0643     46.8074 300.3617401 +22.5896467     6337.752     72.11822      1.600     3.11     6.734843     20.35192     619.0602        39     1.338     1.232  87.65   0
       319    377.0547     45.6454 300.2920180 +22.5220186     1455.537     72.17333      1.653     3.59     6.440109     20.35192     147.8097        24     1.247     1.149  83.77   0
       320    643.3240     44.7734 300.3752602 +22.6013975     824.2077     72.15497      1.393     2.71     6.787846     20.35192     95.26809        11     0.950     0.688 -10.27   0
       321    659.1195     40.6837 300.3815092 +22.6049426     640.0404     72.28344      1.719     3.34     6.775126     20.35192     52.21352         9     0.880     0.705  67.68   0
       322    929.2925     38.4182 300.4665227 +22.6850400     436.3044     72.06306      1.585     3.37     6.982855     20.35192     44.24807         9     0.913     0.721  20.47   0
       323    125.7495     38.3707 300.2161645 +22.4447335     794.0353     72.15497      1.845     3.91     7.035753     20.35192     66.34805        14     1.205     0.881 -20.28   0
       324    967.2416     38.2742 300.4784153 +22.6963371     286.2806     72.11822      1.524     4.83     7.000357     20.35192     30.30075         7     1.030     0.641  15.20   0
       325    697.4557     36.1452 300.3949321 +22.6150967     473.5541     72.17333      1.438     3.50     6.798313     20.35192     55.10925         9     1.042     0.602  26.34   0
       326    646.2718     31.6871 300.3804178 +22.5985117     2740.047     72.28344      1.592     3.32     6.744848     20.35192     265.8194        30     1.383     1.126  71.47   0
       327    287.3295     32.7949 300.2682465 +22.4914798      360.384     72.09984      1.232     4.18     7.050432     20.35192     41.01021         6     0.779     0.639   7.73   0
       328    661.5806     30.5809 300.3855487 +22.6027700      1059.79      72.1366      1.975     4.45     6.741402     20.35192     88.24741        20     1.375     1.105  46.65   0
       329    732.8166     23.3468 300.4101043 +22.6219820      1596.53     72.11822      1.746     3.07     6.825089     20.35192     164.2645        25     1.437     1.086  57.05   0
       330    670.6803     16.7278 300.3928724 +22.6015022     665.2916      72.2651      1.395     2.92     6.693486     20.35192     89.43052        12     0.942     0.867 -82.08   0
       331    275.8949   1012.1017 299.9468671 +22.7694332     285.5674      72.3201      1.406     5.45     19.25085     20.35192     53.79735        11     1.478     0.567  65.25   0
       332     49.1349     16.1821 300.1995239 +22.4154234     501.5653     72.11822      1.529     4.90     7.731754     20.35192     47.51534         8     1.093     0.622 -33.26   0
       333    108.1674   1009.8763 299.8954154 +22.7185008     1083.707      72.1366      2.657     8.54     90.81794     20.35192     39.73669        18     1.647     1.239  76.94   3
       334    112.0716   1007.2245 299.8974917 +22.7189109     1457.891     72.17333      2.962     9.37     88.44332     20.35192     55.54117        22     1.914     1.285 -84.88   3
       335    762.7141     12.7069 300.4228748 +22.6278546     415.5629      72.3201      1.433     2.27     6.813874     20.35192     55.67622         6     0.661     0.644  72.71   0
       336    178.9059   1002.8088 299.9197136 +22.7376861     2396.354     72.06306      4.769    22.48       80.367     20.35192     74.33475       120     4.262     3.294  22.99  19
       337    179.8092    985.7224 299.9255506 +22.7330540     4067.354     72.09984      8.842    23.85     65.46411     20.35192     79.77019       295     5.362     4.662 -56.45   3
