#   1 NUMBER                 Running object number                                     
#   2 X_IMAGE                Object position along x                                    [pixel]
#   3 Y_IMAGE                Object position along y                                    [pixel]
#   4 ALPHA_J2000            Right ascension of barycenter (J2000)                      [deg]
#   5 DELTA_J2000            Declination of barycenter (J2000)                          [deg]
#   6 FLUX_APER              Flux vector within fixed circular aperture(s)              [count]
#   7 FLUXERR_APER           RMS error vector for aperture flux(es)                     [count]
#   8 FLUX_RADIUS            Fraction-of-light radii                                    [pixel]
#   9 FWHM_IMAGE             FWHM assuming a gaussian core                              [pixel]
#  10 BACKGROUND             Background at centroid position                            [count]
#  11 THRESHOLD              Detection threshold above background                       [count]
#  12 FLUX_MAX               Peak flux above background                                 [count]
#  13 ISOAREA_IMAGE          Isophotal area above Analysis threshold                    [pixel**2]
#  14 A_IMAGE                Profile RMS along major axis                               [pixel]
#  15 B_IMAGE                Profile RMS along minor axis                               [pixel]
#  16 THETA_IMAGE            Position angle (CCW/x)                                     [deg]
#  17 FLAGS                  Extraction flags                                          
         1    202.1705      8.4754 300.2354590 +22.4424141     3804.919      72.4768      1.525     2.74     5.381407     20.44791     474.0244        32     1.297     1.130  59.56  16
         2    770.2993      9.3224 300.4120754 +22.6127018     398.9961     72.62434      1.145     2.89     5.490836     20.44791      83.5635        10     1.007     0.651  15.99   0
         3    527.9589      6.0274 300.3376354 +22.5392437     292.3481     72.51371      1.240     2.33      5.26709     20.44791      43.5981         5     0.604     0.591   4.17   0
         4    763.5004      1.6218 300.4124513 +22.6084519     718.6925      58.0202      1.026     2.31     5.467863     20.44791     122.9225        10     0.918     0.608  -5.95  24
         5    318.3903      1.3272 300.2739256 +22.4751598     778.6093     56.26408      0.983     2.26     5.429686     20.44791     153.5443         8     0.911     0.469  -1.64  24
         6    211.2211   1003.4020 299.9152260 +22.7307784     1186.607     72.40292      4.080    11.04     79.06047     20.44791     48.61765        26     2.574     1.319  55.09   3
         7    279.1434   1019.1248 299.9312317 +22.7556698     2941.595     72.51371      7.068    39.57      31.7831     20.44791      70.0287       231     8.350     5.203  43.18  27
         8    231.9852    990.9793 299.9257241 +22.7334466     4725.135     72.45834      9.431    40.15     60.80721     20.44791     93.97312       486     9.031     4.953 -86.58  19
         9    250.0764    989.4983 299.9318317 +22.7384505     6410.804     72.62434     12.448    49.19     45.78589     20.44791     113.2651       663    11.373     6.034 -76.07  19
        10    269.3879    979.5007 299.9410901 +22.7413774     9224.004     72.38444     12.653    44.33     28.22719     20.44791     184.7957      1142    13.558     6.386  74.56  19
        11    957.2731    975.5397 300.1566383 +22.9464936     798.4901     72.51371      2.051     7.60     3.790105     20.44791     45.54344        18     1.377     1.172 -41.35   0
        12    178.0892    961.0140 299.9187156 +22.7086795     1108.824     72.42139      5.941    14.65     50.82164     20.44791     52.93967        23     3.306     1.806   8.98   2
        13    175.2472    959.8118 299.9182232 +22.7074819     1067.863     72.49525      3.012     7.06     50.53504     20.44791     47.87867        15     1.940     0.719 -53.67   3
        14    107.7332    921.1767 299.9098049 +22.6761413     4060.438     72.45834     19.830    55.06     11.57749     20.44791     85.14199      1010    11.769     7.584 -23.25   3
        15    764.1782    992.4941 300.0909119 +22.8934944     616.7734     72.40292      1.749     6.88     3.753662     20.44791     46.94923        14     1.489     0.892  58.25   0
        16   1016.9911    961.1902 300.1799385 +22.9602627     278.6092     72.36595      1.480     3.75     3.922703     20.44791     25.54136         5     1.439     0.281 -11.18  16
        17    682.5530    958.7308 300.0764607 +22.8593315     6878.494     72.45834      1.862     4.18     3.473357     20.44791     402.5879        47     1.503     1.397  27.54   0
        18    205.5003    994.5131 299.9163394 +22.7265124     1696.955     72.64275      5.449    12.70     73.58674     20.44791     68.69548        32     2.473     1.903 -69.49   3
        19    834.5457    952.3546 300.1259077 +22.9030580     444.4349     72.51371      1.974     8.28     3.862834     20.44791      38.9185        11     1.659     1.155  53.22   0
        20    562.7473    952.8298 300.0410622 +22.8217176     488.1123      72.4768      2.168     4.83     3.349226     20.44791     33.22823         6     1.698     0.390  60.35   0
        21    120.0633   1013.0676 299.8837438 +22.7061913     2891.405     72.53216     14.087    79.88      90.6687     20.44791     115.5691      1327    22.310     7.936  45.38  27
        22    197.8185    980.1179 299.9186344 +22.7200788     1662.481     72.43987      4.259    13.46     62.85531     20.44791     51.61481        34     2.596     1.943  55.31   2
        23    591.0606    949.4819 300.0509689 +22.8292461     1463.271     72.56905      1.766     3.94     3.411932     20.44791     122.9801        24     1.307     1.159 -27.23   0
        24    158.3868    955.6060 299.9143501 +22.7012160     1079.827     72.34746      3.614     3.49       48.976     20.44791     39.94073         5     1.139     0.309  20.22   0
        25     11.8316    978.3657 299.8614039 +22.6637538     1865.347     72.49525     10.318    26.44    -10.18612     20.44791     59.21103       103     5.857     3.315  20.46  19
        26    415.5101    943.8258 299.9981553 +22.7749779      6529.94     72.40292      1.838     4.07      4.02927     20.44791     466.4416        45     1.470     1.395   8.21   0
        27    484.9926    945.6823 300.0191781 +22.7963495     1107.341     72.40292      1.857     4.64     3.934144     20.44791     79.95129        21     1.249     1.154  35.89   0
        28      2.9566    943.3657 299.8700322 +22.6510557     558.5765     64.81696      2.879     4.29     -3.20993     20.44791     23.91288         5     1.608     0.326  27.99  24
        29    448.4462    931.1379 300.0125333 +22.7812152     481.4797     72.49525      1.633     5.26     4.104876     20.44791     60.57607         9     1.066     0.734 -13.48   0
        30      5.2737   1014.9116 299.8474767 +22.6722613     3206.991     72.40292     14.541    51.30    -29.04024     20.44791     88.92683       524    11.906     6.133 -81.66  27
        31    149.1847    922.6386 299.9222131 +22.6889998     1289.708     72.49525      5.049     4.94     21.75229     20.44791     49.07248         8     1.379     0.500  -4.55   2
        32    961.9305    922.8060 300.1752478 +22.9327393     2242.214     72.43987      2.000     5.22     4.018139     20.44791     125.8962        30     1.441     1.332  -9.86   0
        33    612.6501    919.8446 300.0673343 +22.8272110      494.908     72.51371      2.623     4.54     3.603554     20.44791     29.74915         6     1.036     0.880  72.07   0
        34    644.2493    917.0172 300.0780972 +22.8358724     358.8806     72.51371      1.441     4.79     3.690963     20.44791     37.09758         8     1.068     0.677  -1.40   0
        35    750.8393    911.7311 300.1130295 +22.8663045     818.8167     72.43987      2.069     6.86     3.879756     20.44791     48.62908        19     1.382     1.112  57.12   0
        36      2.1313    995.2838 299.8528866 +22.6656916     1797.972     60.87847      4.814    12.46     -24.6936     20.44791     72.93927        44     2.639     1.638  89.33  27
        37    577.7242    996.3095 300.0315800 +22.8386884     2340.754     72.62434      1.867     4.56     2.994919     20.44791     159.3403        30     1.406     1.265  -0.43   0
        38    785.6497    905.6362 300.1258622 +22.8749867     1060.442     72.49526      1.855     5.02     3.915808     20.44791     85.78196        19     1.249     1.133  61.35   0
        39    563.8235    906.7002 300.0564030 +22.8087987     336.1585     72.42139      1.528     4.29     3.643958     20.44791     37.85787         6     1.098     0.504 -66.94   0
        40    241.8555    906.0904 299.9564074 +22.7120590     726.6208     72.53216      4.331     4.87     10.98458     20.44791     32.18028         5     1.442     0.465 -18.68   0
        41    807.7563    899.4709 300.1347590 +22.8798409     11496.83     72.43987      1.817     4.16     3.951726     20.44791     697.8148        52     1.451     1.424  26.86   0
        42    998.0308    899.4239 300.1941164 +22.9368356     446.5615      72.4768      1.879     5.73     4.079188     20.44791     33.46952         8     1.329     0.696 -48.89   0
        43    853.2198    899.5439 300.1489097 +22.8934852     403.4333     72.45834      1.574     5.50     4.004851     20.44791     38.41338         6     1.257     0.678  39.76   0
        44    204.0402   1004.2328 299.9127230 +22.7288617     2443.095     72.51371      5.727    19.65     81.45934     20.44791     56.56786       103     4.366     2.456  47.39  18
        45    118.8995    891.2643 299.9230037 +22.6709137     1124.622     72.56905      4.579     5.87     9.714359     20.44791       66.805        19     1.528     1.087 -18.58   0
        46    512.8184    887.2947 300.0468327 +22.7879352     410.4192     72.40292      1.588     5.62     3.913405     20.44791     56.53141         9     1.218     0.730  51.33   0
        47     89.5594    884.3665 299.9161284 +22.6601309     661.1272     72.53216      4.108     6.22      5.94965     20.44791     40.77891         9     1.350     0.806  23.88   0
        48    816.3658    881.5393 300.1432753 +22.8772702     1408.778     72.49526      1.696     4.40     4.021279     20.44791     113.4264        24     1.356     1.178 -67.34   0
        49    664.3146    991.6177 300.0600783 +22.8633052     8955.819     72.42139      1.991     4.40     3.134572     20.44791       507.66        49     1.537     1.455  15.95   3
        50    668.0865    878.5414 300.0980379 +22.8319702     445.3309     72.58748      2.172     4.75     3.985744     20.44791     34.62573         7     1.293     0.495   2.65   0
        51    854.4005    875.1445 300.1572138 +22.8868300     788.2651     72.40292      2.048     4.88     4.106736     20.44791     52.77161        16     1.171     1.024  22.24   0
        52    962.8311    872.2050 300.1919879 +22.9184702     384.8599     72.45834      1.595     5.84     4.106678     20.44791     29.00132         7     1.306     0.734 -39.52   0
        53    903.0401    866.3667 300.1752367 +22.8988810     532.4229     72.51371      1.669     4.41     4.162333     20.44791     46.06004        13     0.995     0.971 -10.32   0
        54    754.0600    865.4219 300.1290954 +22.8539698     832.9823     72.43987      1.825     4.22     4.086274     20.44791     56.91581        15     1.199     0.866  -3.82   0
        55    466.7469    861.5225 300.0408714 +22.7667230     4177.324     72.51371      1.679     3.52     4.146922     20.44791     344.8413        35     1.315     1.267   6.95   0
        56    765.1766    863.4003 300.1332177 +22.8567206     1319.662     72.40292      0.973     0.50     4.078076     20.44791     678.2196        13     1.028     0.642 -61.84   0
        57    244.5593    850.9027 299.9751953 +22.6970376     498.5435      72.4768      2.296     5.73      5.73938     20.44791     32.65686         9     1.445     0.639 -34.59   0
        58    510.4691    849.6876 300.0583313 +22.7764352     364.4522     72.62434      1.439     4.48     3.992086     20.44791     39.16884         7     0.997     0.716 -45.21   0
        59    669.7824    989.4175 300.0624977 +22.8643129     9324.719      72.4768      1.898     4.42     3.160721     20.44791     574.3578        50     1.535     1.426  57.35   3
        60    192.1821    846.9232 299.9602030 +22.6801830      883.038      72.4768      1.822     4.70     6.663613     20.44791     86.22671        17     1.272     1.189 -88.01   0
        61    101.2865    845.6504 299.9323623 +22.6525461     377.9819      72.4768      1.425     2.63     4.719202     20.44791     54.11364         6     0.810     0.518  49.62   0
        62    169.1530    843.9382 299.9540139 +22.6724177     1550.912     72.49525      1.883     4.32     6.854251     20.44791     139.1573        31     1.514     1.310  31.31   0
        63     44.0521    833.8875 299.9184016 +22.6319979     443.6656     72.51371      2.096     4.49     4.036893     20.44791     39.56316         5     1.186     0.483 -20.22   0
        64    995.3039    832.1391 300.2151487 +22.9166835     2146.079     72.56905      1.828     4.33     4.161832     20.44791     136.9958        28     1.488     1.178 -13.22   0
        65    700.7315    832.6331 300.1231388 +22.8285707     583.5441      72.4768      2.163     5.39      4.04364     20.44791     34.06081        10     1.192     0.687 -34.14   0
        66    778.8840    825.7007 300.1497498 +22.8499993     703.6426     72.64275      1.963     5.81     4.060308     20.44791     56.16021        12     1.459     0.729  51.43   0
        67    200.6709    825.4100 299.9698370 +22.6765578      523.743     72.45834      1.722     6.47     5.599802     20.44791     58.67947        12     1.164     1.010 -55.84   0
        68    525.6871    824.1452 300.0713749 +22.7736648     292.4181     72.51371      1.287     4.51     3.965497     20.44791     24.86157         6     1.010     0.573 -26.84   0
        69    646.8272    819.7006 300.1105490 +22.8087012     4729.677     72.42139      1.574     3.24     3.992251     20.44791     440.9702        35     1.296     1.174  39.41   0
        70    136.3611    820.1099 299.9515678 +22.6557440      557.305     72.45834      1.666     3.77     5.220838     20.44791     57.84789         7     1.158     0.568 -18.14   0
        71    449.0032    816.7443 300.0499085 +22.7485492     701.8262     72.43987      1.449     4.34     4.255869     20.44791     79.95528        11     1.052     0.792  50.05   0
        72    196.8972    813.2597 299.9726140 +22.6719399     1367.965     72.55061      1.700     3.89     5.125356     20.44791     143.5567        24     1.311     1.174  43.66   0
        73    667.4874    812.3497 300.1193757 +22.8127821     731.8922      72.4768      1.532     4.05     3.973351     20.44791     71.71261        11     0.942     0.835  34.45   0
        74    822.8262    799.5161 300.1719623 +22.8556429     4013.883     72.45834      1.630     3.49     4.108331     20.44791     304.6305        33     1.317     1.197  17.89   0
        75    231.6889    794.0452 299.9896788 +22.6768633     359.3168     72.49525      1.472     2.49     4.365397     20.44791     60.75764         7     0.810     0.616 -24.56   0
        76    539.8322    791.9127 300.0862590 +22.7686508      678.166     72.43987      1.555     5.58     3.922338     20.44791     59.70415        11     0.995     0.882  56.64   0
        77    186.1083    789.8246 299.9768782 +22.6619798     1012.478     72.42139      1.769     3.96      4.55515     20.44791     83.64021        19     1.210     1.062  -2.92   0
        78    601.1614    785.2575 300.1075223 +22.7851229     385.1842      72.4768      1.465     4.37     4.017292     20.44791     52.70713        10     0.940     0.812  58.67   0
        79    335.8212    781.9111 300.0260124 +22.7046122     53755.22     72.40292      1.615     3.50     4.255962     20.44791     5091.398        86     1.415     1.372  53.41   0
        80    593.7231    781.1641 300.1065363 +22.7817180     1555.206     72.43987      1.461     3.03     3.985793     20.44791     167.2735        20     1.075     1.009  42.24   0
        81   1006.6677    780.3502 300.2355336 +22.9052023     964.5231      72.4768      1.777     4.73     4.157504     20.44791     89.80986        19     1.265     1.116  49.63   0
        82    264.3574    780.0995 300.0043717 +22.6826601     523.4609     72.45834      1.566     4.75     4.241246     20.44791     45.47544         9     1.010     0.716 -20.15   0
        83    622.7762    776.7461 300.1170221 +22.7891569     1064.567     72.49525      1.728     4.96     3.990702     20.44791     107.5493        19     1.432     0.986 -68.15   0
        84     22.4499    776.6837 299.9302862 +22.6091094     808.7814      72.4768      2.194     4.50     3.849343     20.44791      73.9655        13     1.148     1.007  73.76   0
        85    633.6238    775.1488 300.1209205 +22.7919492     684.6845     72.49525      1.689     4.64     3.973771     20.44791     70.20419        17     1.330     0.993  76.29   0
        86    953.5360    773.3584 300.2212302 +22.8872805     154.5217     72.43987      1.320     3.84     4.274371     20.44791     42.56678         6     0.915     0.712  70.94   0
        87    739.0756    771.9211 300.1548273 +22.8226224     459.9088     72.58748      1.729     4.40     4.006328     20.44791     47.62667         8     1.004     0.686  79.25   0
        88    385.5403    759.1736 300.0488733 +22.7129946     31897.39      72.4768      1.564     3.12     4.038242     20.44791     3311.306        69     1.355     1.294  36.98   0
        89    776.6069    761.9925 300.1697529 +22.8310151     722.2137     72.32896      1.419     3.25     4.096517     20.44791     84.97493        12     0.926     0.878  21.17   0
        90    399.9148    759.6630 300.0531874 +22.7174451     1989.179     72.58748      1.569     3.33     4.040553     20.44791     189.5626        24     1.145     1.140   6.98   0
        91    908.7831    755.3138 300.2131369 +22.8686907     2850.552     72.43987      1.658     3.46     4.355105     20.44791     227.0091        28     1.288     1.181  69.10   0
        92    396.6588    753.4396 300.0541970 +22.7146823      801.001      72.4768      1.940     4.26     3.985461     20.44791     60.85542        14     1.295     0.863  69.96   1
        93    666.6129    751.1934 300.1389851 +22.7949550     984.1365     72.36595      1.527     3.16     3.929249     20.44791     95.26989        15     1.085     0.879  19.73   0
        94    268.2217    750.9052 300.0150632 +22.6754410     882.4091     72.38444      1.915     3.79     3.985029     20.44791     69.89979        18     1.210     1.003 -13.42   0
        95    502.8920    751.1464 300.0880092 +22.7458722     546.3478     72.53216      2.062     3.96     3.839114     20.44791     52.67833         8     0.983     0.667  29.57   0
        96    513.6947    745.9501 300.0930617 +22.7476183     821.4803     72.53216      1.426     2.86     3.798688     20.44791     115.2583        15     0.985     0.923 -65.10   0
        97     72.8890    746.1443 299.9558846 +22.6154831      600.379     72.51371      1.810     6.06      3.96594     20.44791     52.59529        12     1.317     1.028  83.79   0
        98    914.6197    742.9865 300.2189645 +22.8668961     536.9426     72.43987      1.569     5.41     4.410501     20.44791     47.64207        10     1.004     0.822  64.66   0
        99    415.5778    742.7709 300.0635524 +22.7172918     326.8111      72.4768      1.344     4.51     3.902833     20.44791     44.67313         8     1.013     0.570 -15.38   0
       100    371.8419    741.5396 300.0503425 +22.7038254     346.7637     72.45834      1.474     4.02     3.899193     20.44791     44.89494         6     1.029     0.449  58.90   0
       101    668.0537    740.6408 300.1428641 +22.7923556     354.7295     72.43987      1.622     6.35     3.925285     20.44791      35.8347        11     1.103     1.028 -20.35   0
       102    459.5625    740.6038 300.0779471 +22.7298561     423.7371     72.51371      1.438     4.20     3.829044     20.44791     44.55103        10     0.985     0.768  89.75   0
       103    101.6988    740.6063 299.9666377 +22.6225375      578.835     72.36595      1.980     3.66     4.001679     20.44791     58.47945         9     1.132     0.824 -16.12   0
       104    892.6718    738.2600 300.2136556 +22.8589641     448.0208     72.51371      1.743     5.36     4.341523     20.44791     39.24322         8     1.019     0.796 -24.19   0
       105    265.8994    735.3837 300.0193857 +22.6702900     586.3727     72.38444      1.613     4.58     3.874944     20.44791     56.34744        10     1.058     0.763   2.96   0
       106    588.9193    725.6624 300.1230812 +22.7643388     564.0117     72.58748      1.484     3.54      3.83643     20.44791     65.10162        10     0.917     0.813  17.75   0
       107    558.8004    724.0485 300.1142256 +22.7548485     703.8224      72.4768      1.503     3.47       3.7964     20.44791     69.95908        10     0.920     0.796  47.72   0
       108    467.8067    723.3207 300.0861307 +22.7273652     277.5673     72.40292      1.155     3.50     3.912242     20.44791     39.81773         6     0.730     0.640  73.30   0
       109    975.1730    720.6593 300.2451110 +22.8786133     4530.746      72.4768      1.654     3.70     4.256137     20.44791       346.22        33     1.266     1.233  16.95   0
       110    580.6847    721.4330 300.1218911 +22.7606562     1204.317     72.43987      1.346     2.65      3.83428     20.44791     161.6022        19     1.086     0.955  21.05   0
       111    500.4316    721.2458 300.0969617 +22.7365489     327.7203     72.53216      1.243     3.18      3.87781     20.44791     60.92306         8     0.930     0.750  14.18   0
       112    662.2633    716.2860 300.1489759 +22.7836246      282.167     72.56905      1.284     3.76     3.923288     20.44791     38.46495         5     0.926     0.438  45.44   0
       113    963.5106    712.0106 300.2442837 +22.8726349     1731.938     72.42139      1.705     3.72     4.346934     20.44791     144.3042        25     1.470     1.086  -6.02   0
       114    326.4636    705.6932 300.0478739 +22.6799293     827.0085     72.58748      1.549     3.53     4.111615     20.44791     109.5892        16     1.091     0.970  52.80   0
       115    789.8937    703.2187 300.1929984 +22.8181086     2542.034     72.40292      1.533     3.05     4.171856     20.44791     236.5742        24     1.198     1.071 -40.01   0
       116    994.6833    702.1872 300.2572020 +22.8791455     1758.033     72.43987      1.728     3.56     4.265996     20.44791     142.5772        25     1.300     1.076 -28.30   0
       117     12.3719    693.3645 299.9542332 +22.5821863     771.0799     72.49526      1.812     4.24     3.949548     20.44791     84.35902        16     1.294     1.262   4.77   0
       118    175.2915    689.6691 300.0060668 +22.6299967     665.5377     72.60591      1.619     4.31     4.121766     20.44791     73.74562        12     1.187     0.886 -20.05   0
       119    872.2292    688.9045 300.2233218 +22.8386568     634.5033     72.42139      1.833     4.37     4.472113     20.44791     51.82754        11     0.934     0.877 -56.84   0
       120    908.3962    680.1736 300.2374386 +22.8469788     148878.9     72.43987      1.572     3.17     4.526984     20.44791     13666.36       156     1.468     1.435  29.81   0
       121    670.6892    684.3021 300.1619955 +22.7769612     417.0468     72.66117      1.455     2.45     3.936684     20.44791     68.35397         8     0.888     0.616   1.49   0
       122    761.0087    680.5507 300.1913612 +22.8029423     801.4174      72.4768      1.512     3.15     4.006473     20.44791     85.49751        15     1.036     0.915  -2.53   0
       123    940.9698    673.2687 300.2498428 +22.8547485     538.1968     72.45834      1.750     5.87     4.524078     20.44791     51.72135        10     1.068     0.910   1.23   0
       124    594.5628    668.9647 300.1432645 +22.7497450     1594.081     72.55061      1.381     2.95      3.98427     20.44791     190.8488        18     1.024     0.978  68.82   0
       125    775.8655    666.2554 300.2006375 +22.8032849     9588.436     72.53216      1.442     2.84     4.115132     20.44791     1001.643        40     1.232     1.149  39.66   0
       126    277.3194    661.1818 300.0470503 +22.6524168     4930.901      72.4768      1.517     3.10     4.361852     20.44791     523.0724        30     1.248     1.093  42.11   0
       127    359.3243    659.1224 300.0732305 +22.6764120     1175.716     72.58748      1.436     3.34     4.396853     20.44791     149.5907        19     1.359     0.908  77.10   0
       128    235.0762    657.2716 300.0351828 +22.6386276     422.6992     72.56905      1.292     3.45     4.129816     20.44791     54.61394         8     0.912     0.680  81.58   0
       129    567.7142    654.9286 300.1394632 +22.7376678      742.246     72.58748      1.276     2.68     4.166257     20.44791     113.4714        12     0.929     0.778  26.28   0
       130    559.3516    647.0413 300.1394215 +22.7328963     3229.028     72.51371      1.368     2.75      4.26678     20.44791     385.5176        25     1.086     1.001  27.54   0
       131     85.3377    644.0767 299.9929192 +22.5899338     262.8832     72.53216      1.340     3.43     4.128657     20.44791     34.66309         5     0.977     0.348 -45.50   0
       132    549.5634    640.6804 300.1384400 +22.7281360     1377.353     72.43987      1.364     2.49      4.33882     20.44791     205.0775        17     1.069     0.886  53.69   0
       133    943.4469    638.5496 300.2618972 +22.8455094     445.0504     72.51371      1.451     4.06      4.56988     20.44791     53.18429        10     1.022     0.846 -40.46   0
       134    461.6921    638.6220 300.1117500 +22.7012106     521.3395     72.40292      0.691     3.40     4.542264     20.44791     311.8808         5     0.885     0.379  46.85   0
       135    212.6473    636.8892 300.0348301 +22.6260517     758.8138     72.43987      1.708     4.32      4.17066     20.44791      66.0061        12     1.118     0.873 -89.62   0
       136    227.1147    635.3684 300.0398230 +22.6299534     494.0749      72.4768      1.475     4.35     4.170192     20.44791     69.46302        12     1.098     1.044  81.07   0
       137    284.8031    632.8194 300.0585927 +22.6465188     376.2818     72.42139      1.484     3.58     4.424016     20.44791       45.798         6     0.902     0.471  58.44   0
       138    252.9490    632.0692 300.0489289 +22.6367526     546.4783     72.45834      1.402     3.46     4.290642     20.44791     76.09171         9     1.066     0.710  76.11   0
       139    996.6824    631.7448 300.2807167 +22.8594920     595.1215     72.53216      1.842     7.88     4.434216     20.44791     48.81814        14     1.743     0.996 -10.21   0
       140    474.3464    630.5034 300.1183269 +22.7026716     1773.199     72.55061      1.349     2.43     4.594248     20.44791     243.5521        19     1.022     0.973  21.08   0
       141    573.8246    631.2627 300.1490553 +22.7327008     326.8262     72.45834      1.415     2.78     4.487036     20.44791     53.73454         7     0.812     0.604  24.54   0
       142    128.2909    625.3292 300.0123597 +22.5974367     19992.07     72.64275      1.644     3.12      4.22446     20.44791     2252.176        62     1.415     1.343  17.84   0
       143    559.2230    625.8500 300.1462664 +22.7267707     1030.342      72.4768      1.335     2.39     4.539217     20.44791     136.4486        13     0.939     0.784 -13.47   0
       144    594.5452    625.0229 300.1575361 +22.7371170     461.5058     72.49525      1.550     3.95     4.586985     20.44791     44.99313         5     0.742     0.635  -4.85   0
       145    931.0870    621.8196 300.2634773 +22.8369990       297.92     72.40292      1.473     4.11     4.630132     20.44791     33.62338         5     0.752     0.688  24.44   0
       146    614.0707    618.3120 300.1657983 +22.7410393     284.1983     72.64275      1.377     3.83     4.702091     20.44791     37.70437         5     0.843     0.500  55.04   0
       147    642.7216    613.7935 300.1761914 +22.7483250     392.6679     72.40292      1.678     4.76      4.78103     20.44791     35.73708         6     0.943     0.682  11.32   0
       148    977.4155    612.0997 300.2810880 +22.8480754     1116.805     72.38444      1.542     3.59      4.49738     20.44791     113.6297        16     1.161     0.936   8.01   0
       149     74.2299    609.5079 300.0006970 +22.5766826     1572.059     72.43987      2.064     5.46     4.314806     20.44791     114.2264        28     1.676     1.185 -81.19   0
       150    844.0864    610.1158 300.2401467 +22.8075828      559.611     72.60591      1.464     4.15     4.491778     20.44791     69.53816        10     1.046     0.737 -38.98   0
       151     49.1996    626.8286 299.9872925 +22.5741451     846.9955     72.43987      2.003     3.66     4.270314     20.44791     97.40631        15     1.166     0.968  64.37   0
       152    522.8282    606.5333 300.1412084 +22.7103161     334.2892     72.45834      1.178     3.51     4.739042     20.44791     54.13185         9     0.996     0.676  60.68   0
       153    917.7477    605.1739 300.2647244 +22.8282195     869.4262     72.49525      2.022     3.56     4.642647     20.44791     66.25502        11     1.013     0.838  59.77   2
       154    315.4650    605.1918 300.0771057 +22.6477795     323.7801     72.45834      1.425     4.39     4.503803     20.44791     35.57123         7     0.879     0.625   9.64   0
       155    479.4827    598.6090 300.1302871 +22.6950506     750.7665     72.42139      1.445     2.96     4.730992     20.44791     82.93858        14     1.013     0.868 -84.36   0
       156    627.4060    597.3916 300.1767485 +22.7390241     657.3271     72.32896      1.406     2.60     4.872385     20.44791      81.7593        11     0.943     0.739  45.98   0
       157    674.8136    596.1121 300.1919340 +22.7528586     415.2818     72.42139      1.234     2.84     4.922307     20.44791     80.81085         7     0.882     0.656  83.72   0
       158    644.9161    595.2451 300.1829007 +22.7436531     456.5815     72.43987      1.261     3.92     4.902707     20.44791     58.37302         8     0.826     0.681  42.67   0
       159    523.5649    594.6718 300.1452909 +22.7071297     980.8498      72.4768      1.374     2.69     4.751359     20.44791     131.4268        15     1.014     0.836  14.87   0
       160    957.4142    590.2759 300.2819378 +22.8358124     3254.539     72.49525      1.513     2.97     4.565946     20.44791     336.4733        31     1.240     1.141  22.39   0
       161    489.2049    590.0231 300.1361028 +22.6954980     1663.813     72.43987      1.296     2.40      4.74004     20.44791     223.6788        19     0.989     0.906  70.31   0
       162    839.2155    586.4194 300.2463259 +22.7993127     208.0178     72.45834      1.033     2.20     4.501433     20.44791     47.01393         5     0.697     0.447  22.94   1
       163     51.0921    583.4374 300.0019748 +22.5622618     5153.132      72.4768      1.701     3.14     4.528087     20.44791     612.5233        39     1.354     1.312  77.63   0
       164    464.6740    585.0272 300.1300888 +22.6867118     323.5972      72.4768      1.322     4.22     4.729854     20.44791     37.98173         7     0.745     0.681 -61.64   0
       165    518.3097    580.8721 300.1481371 +22.7015910     294.7045     72.64275      1.267     3.37     4.761923     20.44791     38.29475         5     0.940     0.351  45.12   0
       166    997.2536    580.2808 300.2976143 +22.8448651     223.2182     72.51371      1.293     3.91     4.431573     20.44791     43.42402         7     1.014     0.623 -18.56   0
       167    352.5386    576.6860 300.0978992 +22.6507079     9212.151     72.58748      1.437     2.61     4.643537     20.44791      1292.83        44     1.240     1.163  59.63   0
       168    475.0012    573.7390 300.1369702 +22.6865643     9021.165     72.43987      1.360     2.68     4.740829     20.44791     1158.539        39     1.177     1.085  49.68   0
       169    552.0503    571.3901 300.1617235 +22.7089769     239.8567      72.4768      1.200     4.81      4.80293     20.44791     25.17917         5     1.414     0.464  -6.40   0
       170    721.5355    570.2632 300.2148897 +22.7594255     245.0284     72.51371      1.336     3.58     4.767566     20.44791     40.59862         5     0.789     0.688 -55.37   0
       171    886.6536    567.9089 300.2671317 +22.8081960      1929.03     72.53216      1.452     2.94     4.634598     20.44791     214.9988        21     1.070     1.035  49.66   0
       172    971.3808    565.2613 300.2944207 +22.8328010     12601.26     72.43987      1.532     2.92     4.518916     20.44791     1331.514        49     1.298     1.264  59.26   0
       173    535.6055    563.3902 300.1592009 +22.7017514     11636.49     72.32896      1.337     2.40     4.793529     20.44791     1587.526        40     1.141     1.087  65.75   0
       174    705.2820    559.2206 300.2134112 +22.7513838     495.9088     72.43987      1.310     4.26     4.935559     20.44791     62.29942        10     1.021     0.851 -52.60   0
       175    262.8902    558.8140 300.0758155 +22.6187028     1468.375     72.42139      1.486     3.29     4.531438     20.44791     174.7331        17     1.036     0.965  43.03   0
       176    420.6570    557.9336 300.1251877 +22.6657388     387.1087     72.51371      1.490     2.48     4.739555     20.44791     43.58103         7     0.717     0.643  89.47   0
       177    510.1768    556.4313 300.1535431 +22.6921331     450.0997      72.4768      1.501     3.95     4.777681     20.44791     52.32534         8     0.899     0.661  16.55   0
       178    467.2951    551.5678 300.1417722 +22.6778866     4453.011     72.45834      1.341     2.50     4.751286     20.44791     585.0394        29     1.137     1.020  67.73   0
       179    810.1769    551.6904 300.2485525 +22.7806340     849.8364     72.40292      1.299     2.92     4.409597     20.44791     122.5405        12     0.948     0.781  46.23   0
       180    445.6194    549.9288 300.1355571 +22.6709204     1165.021     72.51371      1.323     2.61      4.75111     20.44791     171.1569        14     0.972     0.861  67.83   0
       181    199.7068    549.4525 300.0592070 +22.5970727     725.4338     72.53216      1.354     2.75     4.375848     20.44791     99.39445        13     0.981     0.815  29.47   0
       182    887.1451    547.2254 300.2740031 +22.8023966     1520.786     72.49525      1.465     3.12     4.657798     20.44791     159.0202        24     1.213     1.061 -23.69   0
       183    133.6181    546.8998 300.0394894 +22.5765242      303.399     72.38444      1.573     4.32      4.30474     20.44791     37.72903         5     1.124     0.473  35.70   0
       184    987.2104    545.6505 300.3057292 +22.8319002     237.7323     72.49525      1.433     4.98     4.465166     20.44791     33.04412         5     1.004     0.700 -79.37   0
       185    767.5883    544.0591 300.2377544 +22.7656867     872.5673     72.45834      1.445     2.88     4.637659     20.44791     96.94597        15     1.005     0.903 -60.00   0
       186    583.9108    539.1179 300.1821277 +22.7092504     203875.6     72.58748      1.322     2.71     4.926517     20.44791     26097.55       186     1.416     1.338   3.27   0
       187    861.0969    542.6992 300.2673498 +22.7932963     211.3768     72.67958      1.307     3.68     4.652285     20.44791     38.70533         6     0.902     0.618  66.19   0
       188    836.9348    539.9198 300.2607182 +22.7852626     342.9067     72.58748      1.340     3.56     4.571493     20.44791     34.68426         5     1.016     0.360  34.57   0
       189    269.9188    538.9923 300.0844388 +22.6151186     3460.923     72.40292      1.411     3.04      4.62778     20.44791     399.2942        27     1.145     1.072  47.57   0
       190    835.7128    535.4174 300.2617995 +22.7836024     491.9884     72.42139      1.326     3.40      4.60611     20.44791     49.52664         8     0.917     0.613 -18.11   0
       191    474.5112    523.6888 300.1530725 +22.6720405     241.0614     72.64275      1.137     3.55     4.816858     20.44791     38.69414         5     0.796     0.457 -71.60   3
       192    474.5157    519.3741 300.1544750 +22.6708024     2582.743     72.45834      1.308     2.40     4.831443     20.44791     343.4019        21     1.043     0.973 -74.88   2
       193    318.5407    521.3354 300.1052974 +22.6246229     378.7003     72.51371      1.418     3.29      4.76256     20.44791     56.73289         7     0.972     0.654  50.33   0
       194    924.2158    519.4932 300.2945721 +22.8055210     224.5973     72.40292      1.389     4.79     4.819014     20.44791     33.39666         6     0.990     0.657 -86.81   0
       195    892.1717    517.9738 300.2850708 +22.7954911     286.8176     72.45834      1.249     3.87     4.805533     20.44791     31.45166         5     0.844     0.509 -29.01   0
       196    631.4169    516.4586 300.2042842 +22.7169702     407.0925     72.42139      1.823     4.12     5.066795     20.44791     45.70819         6     1.092     0.443 -35.41   0
       197    791.8131    508.2774 300.2569264 +22.7626553     437.9137     72.49525      1.328     5.06     4.800743     20.44791     62.10148         9     1.166     0.693 -50.14   0
       198    871.4219    505.6483 300.2826022 +22.7857350     1629.695     72.49526      1.400     2.76     4.851635     20.44791     211.6086        20     1.185     0.912  62.40   0
       199      1.8168    504.1806 300.0124023 +22.5247390     702.2477     59.16198      1.404     3.03     5.179045     20.44791     86.54469        10     0.998     0.683  79.97  24
       200    742.6333    503.2287 300.2432358 +22.7464771     2559.994     72.49525      1.332     2.63     4.874843     20.44791     329.3647        24     1.155     0.985  63.36   0
       201    987.1667    500.7849 300.3202862 +22.8189844     523.2175     72.45834      1.542     4.10     4.841268     20.44791     53.96604         8     0.916     0.706  43.71   3
       202    985.7880    496.4028 300.3212790 +22.8173114     864.9484     72.29195      1.828     2.94     4.885407     20.44791     91.03827        13     1.020     0.878  83.74   2
       203    952.0511    500.1124 300.3095489 +22.8082801     356.1292     72.51371      1.506     4.02     4.904427     20.44791     36.21453         8     0.992     0.676 -77.62   0
       204    647.7902    500.1838 300.2146699 +22.7171974     478.4769     72.40292      1.387     2.57     5.128239     20.44791     59.67977         6     0.717     0.559 -58.71   0
       205    530.0850    499.0833 300.1783654 +22.6816222     720.3251     72.60591      1.293     2.73     5.073725     20.44791     108.2793        11     0.849     0.829 -50.60   0
       206   1000.0108    497.4366 300.3253811 +22.8218656     1237.588     72.45834      1.462     2.91     4.856734     20.44791      158.788        19     1.059     1.033  82.90   0
       207    871.7466    495.8011 300.2859011 +22.7830009     2285.382     72.43987      1.602     3.54     4.901882     20.44791     216.1556        29     1.590     1.001  69.37   0
       208    625.2386    493.8115 300.2097134 +22.7086114     847.5983      72.4768      1.952     6.06     5.082011     20.44791     65.41421        13     1.188     1.112 -64.24   2
       209    411.1189    493.7197 300.1430716 +22.6444364       251.99     72.60591      1.226     3.45     4.796966     20.44791     43.25096         7     0.739     0.670  -9.88   0
       210    464.1370    492.6228 300.1599305 +22.6600077     400.6322     72.45834      1.414     3.95     4.886471     20.44791     67.30233         9     1.265     0.553  25.56   0
       211    910.0089    490.9253 300.2994176 +22.7930532     4341.944     72.45834      1.426     2.89     4.973104     20.44791     538.3712        28     1.131     1.097  69.80   0
       212    550.7529    490.5267 300.1875799 +22.6853553     305.7425      72.4768      1.304     3.43     5.167568     20.44791     49.41648         6     0.999     0.430  56.16   0
       213    647.8354    488.0249 300.2186321 +22.7137165     185.5141     72.49525      1.165     3.80     5.139781     20.44791     32.60812         5     0.827     0.500 -31.92   0
       214    570.1784    486.9295 300.1947976 +22.6901409     431.4583     72.49525      1.328     2.76     5.148205     20.44791     64.52039         7     0.857     0.545 -37.52   0
       215    141.9988    481.1554 300.0634419 +22.5601644      1012.35      72.4768      1.410     3.45     4.464097     20.44791     143.9453        15     1.084     0.925 -48.52   0
       216   1001.6147    481.4163 300.3310836 +22.8177379     752.1515     72.42139      1.350     2.99     5.000213     20.44791     102.7305        13     1.030     0.822  77.72   0
       217    802.7626    474.8382 300.2711979 +22.7563203     269.2068     72.55061      1.061     2.61     5.077298     20.44791     47.18285         6     0.752     0.531  38.22   0
       218    998.0742    470.4337 300.3335449 +22.8135194     374.6823     72.45834      1.521     4.95     4.861945     20.44791     36.58814        10     1.091     0.636 -63.37   0
       219    134.4171    471.2081 300.0643145 +22.5550356     431.4379     72.42139      1.434     3.14      4.55458     20.44791     61.46586         8     0.996     0.584 -20.46   0
       220    742.3299    465.5373 300.2553795 +22.7355515     450.0968     72.51371      1.410     3.41     4.841683     20.44791     64.72556        10     1.033     0.758 -88.32   0
       221    631.1785    462.9177 300.2215945 +22.7015119     344.3416     72.43987      1.367     3.30     5.081289     20.44791     44.68004         7     0.904     0.769 -58.11   0
       222    350.5056    463.3063 300.1340836 +22.6175369     336.9289     72.64275      1.531     4.23      4.81834     20.44791     37.34208         6     1.066     0.479  34.46   0
       223    683.4547    461.4469 300.2383595 +22.7167452      801.546     72.51371      1.176     2.29     5.083745     20.44791     99.04066        12     0.840     0.789  28.90   0
       224    998.1996    453.7625 300.3389968 +22.8087618     619.5582      72.4768      1.494     4.05     4.656169     20.44791      64.8728        12     1.118     0.877 -69.28   0
       225    744.2299    453.4915 300.2598825 +22.7326575     781.7974     72.43987      1.281     2.80      4.80387     20.44791     93.90236        12     0.977     0.764  53.21   0
       226    901.5026    449.9445 300.3100704 +22.7787220      1001.35     72.56905      1.349     2.51     5.018695     20.44791     120.2611        13     0.930     0.806  23.32   0
       227    859.4695    447.5058 300.2977533 +22.7654384     191.2525     72.60591      1.119     3.81     4.971532     20.44791     37.25438         6     0.953     0.437  73.50   0
       228    885.8046    445.9406 300.3064742 +22.7728716     608.6131     72.43987      1.340     3.19     4.995749     20.44791     75.70522        13     1.001     0.879 -59.56   0
       229    866.2600    446.6349 300.3001536 +22.7672207     289.5332     72.49526      1.315     3.41     4.967192     20.44791     30.77106         5     0.752     0.448 -17.10   0
       230    629.9930    444.0315 300.2273566 +22.6957287     3273.993      72.4768      1.299     2.45     5.047416     20.44791     474.5945        23     1.060     0.923  55.99   0
       231    990.0740    443.1370 300.3399111 +22.8032737       587.94     72.51371      1.397     3.02     4.577576     20.44791      72.5126         9     1.014     0.603  71.40   0
       232    106.1086    435.2398 300.0671911 +22.5362225     389.1375      72.4768      1.558     4.80     4.878855     20.44791     40.45464         8     0.856     0.764  12.69   0
       233    469.9234    431.2191 300.1816666 +22.6440999     371.2843      72.4768      1.272     4.86     4.834232     20.44791     43.72696         9     1.062     0.730 -38.16   0
       234    999.6913    422.0648 300.3497528 +22.8000903     943.2327     72.58748      1.423     3.21     4.221097     20.44791      106.705        15     1.078     0.877  25.25   0
       235    912.8735    422.8692 300.3224068 +22.7743389     600.9655     72.55061      1.529     3.50     5.033554     20.44791     67.58449        11     1.037     0.725  40.25   0
       236    740.6985    418.0676 300.2702815 +22.7214161     1117.438     72.56905      1.336     2.51     4.666816     20.44791     148.5445        15     0.986     0.850  34.72   0
       237    536.3040    418.3712 300.2065052 +22.6602929     370.5959     72.40292      1.291     3.46      5.03461     20.44791     81.74322         9     1.070     0.702  48.90   0
       238    244.4714    415.9881 300.1164587 +22.5721693     695.7328     72.49525      1.444     3.16     4.906609     20.44791     85.22129        13     1.003     0.845  -9.01   0
       239    306.9040    411.8068 300.1372355 +22.5896785     3791.801     72.36595      1.368     2.58     4.881593     20.44791     522.6226        28     1.164     1.008  64.41   0
       240    254.1062    406.5563 300.1225165 +22.5723480     7591.182      72.4768      1.418     2.70     4.906609     20.44791     965.2558        37     1.227     1.108  67.98   0
       241    632.8032    406.4625 300.2404273 +22.6857719     378.0811      72.4768      1.182     3.47     4.992347     20.44791     47.13569         6     0.786     0.498   2.11   0
       242   1020.1343    401.4770 300.3628150 +22.8002850     1979.655     71.60389      1.561     2.89      3.89725     20.44791     223.3968        26     1.198     1.145  38.91  16
       243    394.9198    400.8227 300.1681870 +22.6128960     4999.409     72.42139      1.350     2.62     4.818347     20.44791     720.7961        30     1.159     1.007  59.90   0
       244    639.1629    397.6175 300.2452795 +22.6851339     18595.86      72.4768      1.305     2.35     4.985184     20.44791     2796.134        48     1.191     1.079  69.59   0
       245    656.6522    397.7443 300.2506873 +22.6904076      762.617     72.51371      1.733     6.13     4.983265     20.44791      62.7877        15     1.481     0.714 -43.19   0
       246    486.6005    399.2010 300.1972513 +22.6398957     271.2708     72.25493      1.008     3.35     4.837975     20.44791     37.46535         5     0.784     0.414 -66.88   0
       247    266.1971    395.4989 300.1298659 +22.5727957     246.9732     72.36595      1.361     4.43     4.906609     20.44791      36.1244         6     0.959     0.582 -65.91   0
       248    883.0759    394.3318 300.3223763 +22.7572126     218.8657     72.55061      1.145     3.37     5.027658     20.44791      42.3546         5     0.784     0.419  18.89   0
       249    836.3662    387.6407 300.3099819 +22.7413072     466.7761     72.53216      1.684     3.83      5.01575     20.44791     49.62609        11     1.101     0.811 -81.49   0
       250    972.5767    380.5059 300.3547824 +22.7800212     746.7175     72.38444      1.485     2.49     4.504041     20.44791     97.26026        13     0.907     0.885 -29.15   0
       251    193.8191    377.5899 300.1131692 +22.5459608     2066.175     72.43987      1.480     2.74     4.973717     20.44791     252.7222        24     1.182     1.029  41.38   0
       252    682.6682    378.5096 300.2650364 +22.6926681     259.4078     72.62434      1.443     3.66     4.937925     20.44791     49.36452         5     1.060     0.443 -37.03   0
       253    579.8076    367.0053 300.2367252 +22.6585597     6715.052     72.32896      1.309     2.44     4.973951     20.44791     979.8636        33     1.183     0.975  58.37   0
       254    993.5854    367.5933 300.3655282 +22.7825929     1327.422     72.38444      1.510     2.65      4.23063     20.44791     165.5241        17     1.044     0.934  -2.44   0
       255    294.6211    366.3842 300.1481560 +22.5729505     737.7997     72.43987      1.440     2.68     4.900133     20.44791     87.24911        12     0.987     0.740 -89.30   0
       256    152.5814    359.5585 300.1061992 +22.5284229     530.0433     72.49526      1.482     3.49     5.065886     20.44791     72.21396        12     1.149     0.746  71.08   0
       257    340.6440    358.9703 300.1648801 +22.5846105     1172.581     72.51371      0.698     1.13     4.852941     20.44791     521.1739         6     0.544     0.471 -71.13   0
       258    784.0152    356.2605 300.3038443 +22.7166123     1130.773     72.43987      1.357     2.57     5.013878     20.44791     148.4129        15     1.055     0.819  77.74   0
       259    693.3588    357.4868 300.2751903 +22.6898249     332.8144     72.45834      1.254     2.45     4.928337     20.44791     57.72442         5     0.672     0.484  15.47   0
       260    486.4362    353.3037 300.2120955 +22.6266570     6255.679      72.4768      1.265     2.29       4.8521     20.44791     851.0987        34     1.129     1.041  60.38   0
       261    878.4085    347.8285 300.3360132 +22.7424404     1368.302      72.4768      1.329     2.32     5.089922     20.44791     200.9008        17     1.007     0.926 -71.75   0
       262    975.8687    348.3149 300.3662569 +22.7717454     650.7385     72.56905      1.302     2.98     4.468523     20.44791     97.36642         7     0.829     0.581 -22.33   0
       263    471.0252    342.1203 300.2109265 +22.6188271     407.6216     72.45834      1.466     2.83     4.823498     20.44791     62.65817         7     0.860     0.514  39.27   0
       264    553.7419    339.9258 300.2373946 +22.6429700     521.1867     72.53216      1.250     2.32     4.939287     20.44791     67.76436         7     0.691     0.651 -22.92   0
       265    851.3003    335.2961 300.3316262 +22.7307226     488.0785     72.67958      1.333     3.23     5.070758     20.44791     92.42868        12     1.054     0.897  63.62   0
       266    373.9584    332.4796 300.1838423 +22.5869804     2489.131     72.45834      1.338     2.48     4.836704     20.44791     363.2118        22     1.056     0.998  67.35   0
       267     92.4982    329.6250 300.0972351 +22.5018182     1146.227     72.42139      1.722     3.26     5.253101     20.44791      139.444        16     1.312     0.850  61.28   0
       268    721.5005    327.5247 300.2936832 +22.6896350     243.5528     72.60591      1.099     3.24     4.924256     20.44791     40.88385         6     0.878     0.450 -16.66   0
       269    343.3294    321.8763 300.1777519 +22.5747579     30020.84     72.56905      1.370     2.49     4.846646     20.44791     4125.361        67     1.299     1.164  57.36   0
       270    878.0803    319.4794 300.3451100 +22.7341877      1508.84     72.60591      1.387     2.65     5.073195     20.44791     212.6081        19     1.139     0.972 -83.74   0
       271    833.0920    317.7999 300.3316258 +22.7202407     295.6208     72.34746      1.051     3.12     5.038205     20.44791     39.59674         6     0.878     0.473  34.74   0
       272     39.6050    309.6671 300.0872725 +22.4802327      4878.04     72.45834      1.601     3.08     5.453091     20.44791     604.6356        36     1.355     1.182  45.74   0
       273    793.3099    308.4795 300.3222464 +22.7056532      560.446     72.60591      1.257     3.31     4.980606     20.44791     83.92194        10     1.065     0.664  78.63   0
       274    217.8477    308.0522 300.1432043 +22.5331895     456.6059     72.51371      1.335     2.93     4.887817     20.44791     65.41517         9     0.913     0.661  72.44   0
       275    441.9043    307.3703 300.2131363 +22.6001181     521.4749     72.42139      1.143     2.34     4.784708     20.44791       77.609         7     0.700     0.648   1.00   0
       276    753.8298    301.7396 300.3121260 +22.6918978     1834.941     72.51371      1.332     2.50      4.93777     20.44791     285.7372        21     1.066     0.977  25.31   0
       277    562.1891    296.2898 300.2541835 +22.6329564     337.3681     72.42139      1.328     3.33     4.884028     20.44791     47.76623         8     0.897     0.634  -5.20   0
       278    968.7394    294.7679 300.3814077 +22.7542063     593.0085     72.51371      1.427     3.10     4.549607     20.44791     80.13086        12     0.973     0.823  65.70   0
       279    822.8074    288.1984 300.3380232 +22.7086484     89.46947     72.29195      1.141     4.38     4.993497     20.44791     27.79177         5     0.761     0.719  40.39   0
       280    415.4368    286.3266 300.2117250 +22.5861429     2152.798     72.42139      1.465     3.13      4.79492     20.44791      311.849        21     1.245     0.910  51.16   0
       281    628.1165    285.3127 300.2782806 +22.6495404     326.7414     72.58748      1.121     2.77     4.922732     20.44791     48.38062         7     0.810     0.598 -27.76   0
       282    854.8213    279.1116 300.3509538 +22.7156152     610.7244     72.40292      1.253     3.22     5.044086     20.44791     82.90808        10     1.021     0.768  60.30   0
       283    754.4476    277.0340 300.3203338 +22.6849774     251.9729     72.51371      1.135     3.17     4.934319     20.44791      41.2683         6     0.913     0.518 -16.82   0
       284    737.0393    276.8495 300.3149676 +22.6797138     355.6643      72.4768      1.308     2.98     4.924804     20.44791     77.05635         8     0.904     0.843  20.15   0
       285    491.3867    265.5146 300.2421194 +22.6029078     1256.345     72.42139      1.322     2.29      4.78192     20.44791     193.6548        18     1.154     0.878  60.27   0
       286    298.8320    266.1140 300.1819980 +22.5454056     276.6153     72.45834      1.339     2.58     4.840402     20.44791     40.29455         6     0.740     0.551 -47.41   0
       287     63.8654    265.3845 300.1091763 +22.4747886     217.9596     72.45834      1.383     4.29     5.472359     20.44791     36.37179         5     0.965     0.544  47.08   0
       288    344.2148    264.1701 300.1967481 +22.5584422     139.6659      72.4768      0.992     3.09     4.840955     20.44791     41.13298         5     0.859     0.437  43.56   0
       289    577.2281    263.6119 300.2694685 +22.6280651     293.9305      72.4768      1.206     2.98     4.890144     20.44791     32.41991         5     0.717     0.464 -15.95   0
       290    736.3140    257.7094 300.3209505 +22.6739921      2294.13     72.64275      1.324     2.20     4.928444     20.44791     334.2522        21     1.061     0.958  66.95   0
       291    997.6541    252.0485 300.4042885 +22.7505642     3275.565     72.51371      1.496     2.85     4.580644     20.44791     356.7775        29     1.236     1.145  81.30   0
       292    444.6747    241.4528 300.2353819 +22.5820026     605.9474      72.4768      1.138     2.31     4.832944     20.44791     100.8722         9     0.812     0.698  14.93   0
       293    150.3383    235.6154 300.1457101 +22.4921530     554.6242     72.42139      1.266     2.44     5.259318     20.44791     95.90546         8     0.864     0.601  -9.77   0
       294    119.4592    235.3681 300.1361909 +22.4828288     1258.915     72.49526      1.719     3.14     5.327781     20.44791     143.9269        25     1.333     1.109 -13.17   0
       295   1013.3701    232.4350 300.4155548 +22.7496210     523.3819     72.49526      1.418     3.10     4.736242     20.44791     82.02453        12     1.029     0.780  74.45   0
       296    203.5667    227.3530 300.1649399 +22.5057283     587.1279     72.51371      1.589     3.34     5.020173     20.44791     80.84097        12     1.050     0.839 -11.21   0
       297    998.5436    225.2368 300.4132630 +22.7431144     215.8136      72.4768      1.182     3.46     4.869784     20.44791     44.52057         6     0.746     0.633  49.90   0
       298     58.7242    224.7657 300.1207526 +22.4615826     254.9582      72.4768      1.282     3.86     5.604286     20.44791     39.06579         6     1.106     0.386 -77.45   0
       299    879.5112    221.3210 300.3773999 +22.7063772     436.1963     72.60591      1.369     3.36      5.07936     20.44791     52.87373         5     0.742     0.440  66.60   0
       300    807.8788    218.9519 300.3558311 +22.6842617     648.2937      72.4768      1.381     3.65     4.982562     20.44791     78.90575        11     1.056     0.815  53.66   0
       301    398.1997    218.4017 300.2283924 +22.5614587     389.1779     72.25493      1.190     2.73     4.908824     20.44791     56.99347         7     0.727     0.638  24.50   0
       302    906.2385    208.0950 300.3900257 +22.7105683     1975.486     72.45834      1.346     2.92     5.080443     20.44791     257.4783        22     1.188     0.942 -76.76   0
       303    324.5631    205.2864 300.2097317 +22.5356346     2068.896     72.45834      1.302     2.49     5.056814     20.44791     293.3768        21     1.077     0.942  46.84   0
       304    804.3689    199.8471 300.3609329 +22.6777153     502.6414     72.51371      1.342     3.82     5.006146     20.44791     82.59245        11     1.135     0.753  48.76   0
       305    402.3936    200.4093 300.2355327 +22.5575433     1074.732     72.32896      1.551     2.96     5.045907     20.44791     108.1363        17     1.075     0.923 -18.91   0
       306    560.7573    199.7085 300.2850651 +22.6047605     298.7697      72.4768      1.640     4.98     4.931802     20.44791     36.57307         6     0.893     0.786 -73.25   0
       307    154.1326    200.6372 300.1582332 +22.4832420     271.6279     72.45834      1.218     3.20     5.328022     20.44791      51.2445         6     0.807     0.480   2.67   0
       308    911.1467    196.7151 300.3952473 +22.7087621     322.7072     72.53216      1.397     4.81     5.081447     20.44791     37.37114         7     1.155     0.568  54.33   0
       309    219.2571    192.6407 300.1810762 +22.5004561      895.142     72.45834      1.455     3.03     5.230005     20.44791      106.406        12     0.916     0.903 -68.89   0
       310    757.2393    189.5132 300.3495917 +22.6606392     1677.735     72.45834      1.268     2.49     5.011266     20.44791     232.6592        17     0.963     0.927 -77.56   0
       311     71.7208    189.1655 300.1363361 +22.4552526      267.916     72.42139      1.951     5.33     5.671546     20.44791     32.44624         6     1.385     0.579  68.63   0
       312    822.1327    189.1224 300.3699495 +22.6799453     601.4178     72.56905      1.345     2.60     5.040115     20.44791     84.30727        10     0.874     0.707  11.42   0
       313    240.8423    185.6583 300.1900534 +22.5049162     683.1815     72.45834      1.549     2.76     5.280603     20.44791     78.05532        10     0.911     0.712 -87.04   0
       314    761.2802    180.9145 300.3536398 +22.6593749     839.4524     72.64275      1.369     2.75     5.029364     20.44791     117.5854        14     1.015     0.883  62.52   0
       315    530.3340    181.9014 300.2813651 +22.5905322     492.7055     72.56905      1.666     3.62     4.977816     20.44791     55.23674         8     1.072     0.664 -16.23   0
       316    681.8262    180.2700 300.3290856 +22.6354112      1240.57      72.4768      1.243     2.35     5.028415     20.44791     163.4471        16     0.991     0.819 -52.37   0
       317    502.8619    176.5552 300.2745441 +22.5807701     475.3197     72.49525      1.523     2.99     5.011222     20.44791     59.71869         8     0.869     0.671 -53.48   0
       318    877.1896    171.8544 300.3927183 +22.6914495     1362.529      72.4768      1.339     2.50     5.080339     20.44791     205.1307        18     1.045     0.905  27.70   0
       319    607.9528    171.9730 300.3087598 +22.6109134     1045.765     72.49525      1.379     2.50     5.004751     20.44791     141.2773        12     0.969     0.733  86.90   0
       320    889.2675    170.9529 300.3967775 +22.6948034     882.9991     72.45834      1.453     3.01      5.08146     20.44791     105.9525        13     0.982     0.881  80.82   0
       321     74.1500    170.1689 300.1432506 +22.4505240     171.6696     72.51371      1.247     3.97     5.727473     20.44791     33.74868         5     0.959     0.470  45.53   0
       322   1005.9252    161.1957 300.4363355 +22.7268905     1245.724     72.38444      1.408     2.96     5.086218     20.44791     154.7111        17     1.079     0.942  -0.78   0
       323     29.4668    157.3673 300.1335154 +22.4334572      488.239      72.4768      1.711     4.36     6.164068     20.44791     63.96526        10     1.180     0.949 -46.65   0
       324    239.9801    154.1173 300.2000121 +22.4955947      818.814     72.43987      1.374     2.96     5.530128     20.44791     109.5455        14     1.084     0.907  84.92   0
       325    101.8502    148.7444 300.1588063 +22.4526696      2246.76     72.51371      1.586     3.10     5.555754     20.44791     254.0927        29     1.272     1.159  65.09   0
       326    924.9924    146.1106 300.4159761 +22.6983413     739.5572     72.38444      1.373     2.61     5.160169     20.44791     93.60678        11     0.932     0.712  10.56   0
       327     51.5783    145.9919 300.1440744 +22.4368157     495.4233      72.4768      1.533     2.73     5.962931     20.44791     71.69472         9     1.103     0.695 -16.80   0
       328    259.2418    142.0789 300.2099061 +22.4979047     5802.574     72.45834      1.449     2.82     5.532741     20.44791     637.5219        39     1.346     1.142  58.89   0
       329     43.4389    136.4456 300.1446399 +22.4316347     1312.323     72.55061      1.576     3.46     6.043015     20.44791     169.6871        20     1.205     1.018  33.15   0
       330    242.6813    133.1130 300.2076620 +22.4903679     637.5081     72.60591      1.297     2.59     5.532055     20.44791     100.1151        12     0.984     0.736   2.30   0
       331    903.4428    123.8632 300.4164673 +22.6854926     3634.609      72.4768      1.452     2.75     5.251195     20.44791     436.0666        29     1.198     1.075  78.80   0
       332   1007.0228    122.5780 300.4491994 +22.7161028     2913.743      72.4768      1.509     2.91     5.277589     20.44791     392.5168        31     1.302     1.153  67.47   0
       333    205.8192    119.4093 300.2006405 +22.4753884      375.995     72.45834      1.473     5.27     5.501379     20.44791     45.40475         9     1.058     0.742 -25.85   0
       334    452.8799    118.9624 300.2776557 +22.5492469     539.9916     72.43987      1.406     2.77     5.342394     20.44791     76.28588         8     0.888     0.681 -61.65   0
       335    376.9729    110.7092 300.2567047 +22.5241465      668.853     72.43987      1.474     3.35     5.520212     20.44791      84.5206        12     0.944     0.929 -86.01   0
       336    142.7731    107.5570 300.1848796 +22.4530969     731.5109     72.49525      1.704     4.05     5.489234     20.44791     78.20354        14     1.149     0.921  36.86   0
       337    432.2511    106.8343 300.2751657 +22.5395838     517.9886     72.49525      1.327     2.87     5.451003     20.44791     70.98106         9     0.892     0.651  16.68   0
       338    565.2767    104.9019 300.3172123 +22.5788506       380.63     72.62434      1.754     4.65     5.190517     20.44791     56.77617         8     1.099     0.557  57.17   0
       339    247.5625    101.9346 300.2192873 +22.4828697     397.4168     72.45834      1.434     4.21     5.536177     20.44791     45.40532         8     0.879     0.698  32.52   0
       340   1010.9904    101.1889 300.4573718 +22.7111320     328.4642     72.36595      1.697     3.90     5.388383     20.44791     23.49869         5     0.843     0.518 -57.60   0
       341    792.7026     95.8241 300.3910239 +22.6442959     361.8993     72.38444      1.094     2.25     5.323341     20.44791     63.45759         6     0.723     0.534  28.32   0
       342    639.8098     91.6821 300.3447154 +22.5973555     163.0778     72.42139      1.242     4.28     5.259625     20.44791     34.63699         5     1.152     0.453  60.18   0
       343    938.5621     90.0413 300.4383870 +22.6862625     240.9927     72.56905      1.207     4.62     5.408527     20.44791     45.81509         7     0.994     0.611  71.42   0
       344    278.2457     86.0023 300.2339956 +22.4874800     6059.538     72.45834      1.443     2.78     5.521508     20.44791     661.2156        33     1.315     1.038  67.11   0
       345    504.2182    106.2402 300.2977637 +22.5609583     1707.194     72.49525      1.304     2.50      5.26899     20.44791     221.9631        19     1.064     0.914  82.40   0
       346    689.2199     87.4707 300.3614765 +22.6109300     178.0897     72.49525      1.070     3.07     5.300431     20.44791     44.24232         5     0.794     0.680 -73.87   0
       347    129.4463     85.3337 300.1879400 +22.4427192     747.4726      72.4768      1.856     3.04      5.51812     20.44791     79.45161        13     1.048     0.826  74.44   0
       348    907.4202     83.3757 300.4308332 +22.6750296      327.452      72.4768      1.592     3.97     5.382032     20.44791     45.12374         5     0.985     0.605  30.43   0
       349    249.7712     80.1900 300.2270224 +22.4772817     291.2042      72.4768      1.177     2.50     5.501786     20.44791     59.62334         6     0.713     0.616  25.79   0
       350    753.7547     77.6803 300.3847636 +22.6274228     225.8961     72.45834      1.289     2.85     5.326241     20.44791     39.48693         5     0.739     0.439  15.33   0
       351    293.7878     77.2433 300.2416695 +22.4896168     443.9926      72.4768      1.437     2.75     5.507364     20.44791     54.91445         8     0.840     0.648   2.87   0
       352     40.3547     75.9821 300.1632803 +22.4133416     191.5713     72.49525      1.274     4.00     5.919232     20.44791     39.14107         6     1.027     0.446  79.18   0
       353    524.4003     71.4484 300.3153258 +22.5569945     6462.757      72.4768      1.373     2.31     5.265448     20.44791     883.0938        37     1.214     1.092  84.37   0
       354    409.7481     71.4813 300.2796207 +22.5226820     650.3782     72.51371      1.189     2.49     5.540279     20.44791     92.78072        10     0.905     0.690  11.10   0
       355    581.0081     66.2245 300.3346491 +22.5724350     351.1569      72.4768      1.240     2.23     5.237976     20.44791      54.4482         7     0.689     0.659 -19.42   0
       356    717.9628     62.9999 300.3783660 +22.6124901     330.7467     72.45834      1.302     4.04     5.300431     20.44791      51.6031         8     0.947     0.820  44.48   0
       357    776.8400     61.2857 300.3972740 +22.6296119     825.6707     72.45834      1.480     2.70      5.40306     20.44791      94.3811        10     0.908     0.757 -77.93   0
       358    869.6374     60.4330 300.4264855 +22.6571254     496.0405     72.51371      1.382     3.33     5.350771     20.44791     67.78336         9     1.140     0.589 -12.32   0
       359    217.2512     55.0712 300.2250494 +22.4603229     483.2716      72.4768      1.256     3.41     5.445937     20.44791     53.83862        10     0.913     0.734  -6.61   0
       360    575.8693     53.9213 300.3370361 +22.5673582     483.7189     72.58748      1.381     3.16     5.242524     20.44791     62.10007         9     0.904     0.679  78.95   0
       361    652.7158     51.5046 300.3617592 +22.5896599     6244.493     72.66117      1.348     2.42     5.292467     20.44791     945.8225        31     1.196     1.022  83.24   0
       362    427.6350     50.4077 300.2920182 +22.5219777     1430.209      72.4768      1.372     2.71     5.517074     20.44791     202.3317        20     1.169     0.950  87.74   0
       363    693.8190     48.8566 300.3754255 +22.6011970     913.7731      72.4768      1.366     3.16     5.300431     20.44791     115.4081        14     1.009     0.903  58.10   0
       364    763.6847     46.7978 300.3978687 +22.6215073     416.2332     72.40292      1.478     4.32     5.392997     20.44791     39.66802         7     1.008     0.543 -65.20   0
       365    709.9826     45.1772 300.3816553 +22.6049745     526.6884     72.45834      1.229     2.79     5.300431     20.44791     67.58006         8     0.814     0.699   0.79   0
       366    176.3885     42.9964 300.2162557 +22.4446141     759.3726     72.31046      1.529     3.14     5.433918     20.44791     104.5212        14     1.155     0.845 -48.54   0
       367     23.4857     43.9423 300.1684219 +22.3990830     156.8967     72.58748      0.988     3.31     5.746102     20.44791     46.16083         5     0.757     0.600  -8.08   0
       368    979.9130     42.7736 300.4666092 +22.6850218     427.2534     72.45834      1.215     4.47     5.408527     20.44791     71.63977         8     1.143     0.593 -44.72   0
       369   1018.9460     41.6748 300.4791455 +22.6963769     307.9919     72.49525      1.525     6.19     5.408527     20.44791     41.75239         7     1.558     0.692 -58.45  16
       370    748.0545     40.6397 300.3949922 +22.6150593     557.3278      72.4768      1.386     2.88      5.34221     20.44791     75.98762        10     0.863     0.823 -22.49   0
       371    697.0143     36.3498 300.3804746 +22.5985546     2847.864     72.51371      1.422     2.70     5.300431     20.44791     405.4526        29     1.247     1.074 -89.82   0
       372    337.7948     37.4897 300.2682450 +22.4913663     387.4234     72.38444      1.404     3.46     5.517341     20.44791      54.6916         6     0.903     0.670 -66.80   0
       373    712.1608     35.3816 300.3855088 +22.6028077     895.1134     72.49525      1.739     3.39     5.300431     20.44791     114.6958        13     1.187     0.754  38.59   0
       374    783.3766     27.9821 300.4101054 +22.6219836      1614.64     72.45834      1.431     2.72      5.51199     20.44791     179.0858        21     1.179     0.995 -85.34   0
       375    943.5120     26.8065 300.4604270 +22.6695400      337.245     72.38444      2.064     2.08     5.408527     20.44791      48.5911         5     0.694     0.473 -71.30   0
       376    861.1395     22.7164 300.4360591 +22.6437280     268.5734     72.58748      1.290     3.83      5.38442     20.44791     38.59549         5     1.213     0.346  47.20   0
       377    721.3311     21.0321 300.3930171 +22.6014224     836.0954     72.45834      1.598     3.58     5.300431     20.44791     95.84851        11     1.075     0.768  81.64   0
       378    526.9124     20.4683 300.3326301 +22.5430842      1016.31     72.62434      1.376     2.83     5.267595     20.44791     134.6735        18     1.112     0.994 -62.45   0
       379     99.8906     20.4754 300.1997714 +22.4152291     672.7174     72.62434      1.631     3.71     5.413853     20.44791     58.73088        10     1.023     0.686 -35.87   0
       380    430.9074     18.3880 300.3034133 +22.5137500     678.6909     72.42139      1.449     3.51     5.520845     20.44791     115.1281        15     1.192     0.837 -81.59   0
       381    812.8348     17.4546 300.4227014 +22.6277656       385.71     72.49525      1.251     2.07     5.588408     20.44791     63.52929         5     0.680     0.468 -20.18   0
       382    763.7295   1019.2717 300.0820584 +22.9010484     369.7639     72.55061      1.906     5.54     3.727493     20.44791     34.28738         5     1.186     0.730  -9.79  16
       383    326.2717   1017.2842 299.9464898 +22.7692827     1165.946     72.58748      2.040     5.31      11.0266     20.44791     91.17903        22     1.441     1.261  -3.25  16
       384    164.0943   1010.1870 299.8983671 +22.7185808     856.2283     72.40292      2.337     8.55     95.64569     20.44791     37.43813        16     1.736     1.176  18.76   2
       385    110.1663    953.9278 299.8999081 +22.6862633     5219.992      72.4768     22.032    85.97     35.51712     20.44791     1126.165      2428    15.320    13.387   9.98  19
