#   1 NUMBER                 Running object number                                     
#   2 X_IMAGE                Object position along x                                    [pixel]
#   3 Y_IMAGE                Object position along y                                    [pixel]
#   4 ALPHA_J2000            Right ascension of barycenter (J2000)                      [deg]
#   5 DELTA_J2000            Declination of barycenter (J2000)                          [deg]
#   6 FLUX_APER              Flux vector within fixed circular aperture(s)              [count]
#   7 FLUXERR_APER           RMS error vector for aperture flux(es)                     [count]
#   8 FLUX_RADIUS            Fraction-of-light radii                                    [pixel]
#   9 FWHM_IMAGE             FWHM assuming a gaussian core                              [pixel]
#  10 BACKGROUND             Background at centroid position                            [count]
#  11 THRESHOLD              Detection threshold above background                       [count]
#  12 FLUX_MAX               Peak flux above background                                 [count]
#  13 ISOAREA_IMAGE          Isophotal area above Analysis threshold                    [pixel**2]
#  14 A_IMAGE                Profile RMS along major axis                               [pixel]
#  15 B_IMAGE                Profile RMS along minor axis                               [pixel]
#  16 THETA_IMAGE            Position angle (CCW/x)                                     [deg]
#  17 FLAGS                  Extraction flags                                          
         1    524.1274     19.3859 300.3326656 +22.5431334     1090.048     72.34933      1.389     3.03     5.736111     20.41194     147.5124        18     1.244     0.898  84.75   0
         2    427.7637     17.5761 300.3032510 +22.5137676     698.6317     72.36775      1.351     3.00     5.688004     20.41194     109.3715        12     1.022     0.774  49.44   0
         3    199.2606      7.5001 300.2354256 +22.4424502     3893.703     72.44141      1.586     2.72     5.398253     20.41194     440.0831        32     1.304     1.155  74.84  16
         4    767.4109      8.4047 300.4120208 +22.6127733     587.4297     72.20174      1.225     2.93     5.650277     20.41194     75.67744        11     0.935     0.780  -6.59   0
         5    621.6974      5.0389 300.3677032 +22.5682075     344.7513     71.77577      1.274     3.30     5.171762     20.41194     42.85346         5     0.802     0.395 -70.30  16
         6    760.6252      1.1150 300.4122674 +22.6086458     364.8886     54.98964      0.886     2.31     5.677931     20.41194     95.10804         5     0.868     0.315   3.79  24
         7    201.0601    995.5869 299.9152168 +22.7266309      2090.84     72.31245      5.935    20.26      74.8176     20.41194     55.44215        83     5.283     2.159 -43.00  19
         8    275.4248   1018.7826 299.9307942 +22.7555993     2825.066     72.34933      7.332    36.24     33.54286     20.41194       63.559       233     7.638     4.773  68.99  27
         9    228.6998    989.5764 299.9257656 +22.7332023     4547.588     72.29402      9.732    43.98     62.23044     20.41194     89.95196       534    10.665     5.032  85.79  19
        10    247.8823    988.7800 299.9319895 +22.7387303     6476.636     72.31245     11.946    46.62     46.41872     20.41194     119.8974       721    10.488     6.726  81.72  19
        11    266.4499    978.1570 299.9412191 +22.7412556     9341.762     72.38617     12.224    41.21     27.98867     20.41194     192.7602      1057    13.194     5.665  67.27  19
        12    105.5139    953.2530 299.8992880 +22.6858164     5256.737     72.38617     22.557    86.83     33.29963     20.41194     1265.457      2934    17.392    14.272  -2.41  19
        13    191.3206    972.2945 299.9197656 +22.7170290     626.2613     72.47821      1.964     3.64     56.79749     20.41194     38.98244         5     0.963     0.397  -6.54   2
        14    666.8768    988.3717 300.0625338 +22.8642944     9689.752     72.33089      2.016     5.24     4.411701     20.41194     537.4199        56     1.645     1.533   5.69   3
        15    137.5534    981.1373 299.9001759 +22.7034275     1071.037     72.36775      5.090     7.43     65.16409     20.41194     43.47948        13     1.997     0.775   5.94   3
        16    954.3741    974.6999 300.1566040 +22.9465431     790.2974     72.29402      2.131     7.15     3.660719     20.41194      42.7114        14     1.557     0.919  57.46   0
        17    202.5694   1002.5198 299.9134307 +22.7290717     2371.396     72.34933      5.309    16.39     80.26031     20.41194     67.63345        62     3.398     2.196   7.88   3
        18    384.0201   1002.5364 299.9698606 +22.7835237     420.6949     72.33089      1.584     4.94     4.365259     20.41194     39.22311        10     1.091     0.811 -34.84   0
        19    174.5154    959.8439 299.9185910 +22.7084155      1276.24     72.31245      4.814    13.81     49.92751     20.41194      52.4996        20     4.529     1.172  21.56   3
        20    171.6542    958.6620 299.9180860 +22.7072179     1090.912     72.40459      4.990     7.80      49.6773     20.41194     44.97192        12     1.590     1.069   5.84   3
        21    679.6923    957.7126 300.0764999 +22.8593362     6905.895     72.51499      1.914     4.17     4.213717     20.41194     389.6478        50     1.569     1.427  16.29   0
        22    184.5644   1022.2025 299.9014300 +22.7293113     186.4203     63.95684      1.644     4.18     99.19051     20.41194     29.35263         5     1.196     0.416  76.09  24
        23    558.7151    952.0366 300.0406651 +22.8214331     482.0695     72.33089      1.759     4.87     3.969274     20.41194     39.31104         7     1.038     0.648  70.36   0
        24    574.7920    995.3120 300.0315940 +22.8386735     2199.003     72.25713      1.844     4.41     4.464167     20.41194     151.0789        29     1.394     1.305  -1.49   0
        25    588.0546    948.3566 300.0509988 +22.8291749     1561.638     72.34933      1.856     4.11       3.9391     20.41194     114.1369        24     1.280     1.208  21.54   0
        26     21.4424    997.3987 299.8588071 +22.6732344     1387.927     72.34933      7.598    13.27    -5.966805     20.41194     43.04738        34     2.988     1.641  44.78   3
        27    116.8374   1012.2971 299.8836012 +22.7061426     3163.237     72.34933     14.161    76.59      88.5027     20.41194     131.2566      1400    19.545     8.328  43.70  27
        28    412.5652    942.7996 299.9981745 +22.7749499     6669.525     72.31245      1.873     4.24     3.722815     20.41194     433.9088        43     1.446     1.431 -24.95   0
        29    765.6300    945.6468 300.1072042 +22.8816341     266.7425     72.36775      1.441     4.07     4.028932     20.41194      29.7193         5     1.205     0.393 -13.80   0
        30    481.7342    944.6879 300.0190883 +22.7962380     1063.937     72.44141      1.839     4.74      3.58776     20.41194      98.3487        21     1.397     1.089   6.72   0
        31    832.0390    950.8759 300.1262042 +22.9030401     352.5124     72.31245      1.759     3.95     3.913881     20.41194     29.38592         6     0.934     0.479  35.10   0
        32    445.1346    929.6145 300.0125988 +22.7809358     461.9769     72.33089      1.725     5.86     3.630088     20.41194     39.75348        12     1.194     0.957 -54.74   0
        33    761.2798    991.3420 300.0909835 +22.8934495      527.143     72.38617      1.874     6.51     3.959466     20.41194     54.05833        15     1.210     1.055 -39.90   0
        34    958.9260    921.7238 300.1752565 +22.9326902      2099.74     72.44141      2.014     4.94     3.824972     20.41194     107.7926        31     1.554     1.260  11.38   0
        35      6.6860   1009.7065 299.8502195 +22.6723316     3001.815     72.53337     14.451    50.76    -24.58078     20.41194     66.29044       626    13.094     5.461  88.87  26
        36    609.2947    919.5705 300.0669765 +22.8272812     374.4402     72.25713      1.540     3.40     3.734099     20.41194     36.85313         5     0.757     0.443 -21.18   0
        37    748.2236    910.9463 300.1130656 +22.8664532     746.9047     72.36775      2.263     7.42     3.976282     20.41194      49.8979        13     1.599     0.965  45.09   0
        38    105.0488    920.2545 299.9098751 +22.6762156     4185.331     72.38617     19.784    51.53     10.38141     20.41194     93.37544       922    11.396     6.987 -28.58   3
        39    782.8475    904.8334 300.1258451 +22.8750754     1066.348     72.38617      1.787     6.19     3.952529     20.41194     72.76161        16     1.262     1.018  -1.22   0
        40    560.2131    905.1621 300.0563770 +22.8084291     434.2483     72.36775      1.628     4.59     3.694817     20.41194     36.08624         8     1.078     0.556  37.21   0
        41    804.8132    898.4882 300.1347557 +22.8798364     11372.61     72.29402      1.829     4.17     3.928137     20.41194       692.37        53     1.458     1.417  23.44   0
        42    995.9611    897.7482 300.1946079 +22.9368979     438.5789     72.33089      2.148     5.64     3.874962     20.41194       32.603         7     1.298     0.691  70.67   0
        43    850.0858    898.1557 300.1489781 +22.8933081     367.0895     72.33089      1.511     4.92     4.006943     20.41194     40.36905         7     1.101     0.623 -59.74   0
        44      7.5907    977.6544 299.8609266 +22.6634166     2042.485     72.34933     11.143    17.95     -13.1899     20.41194     48.79659        73     3.628     2.468 -19.41  27
        45    116.1813    890.1184 299.9231343 +22.6709155     1032.982     72.33089      5.580     6.57     9.086707     20.41194     51.91553        19     1.542     1.163 -38.40   0
        46    510.5540    886.6238 300.0469435 +22.7882179     531.9284     72.36775      1.927     4.31     3.656196     20.41194     39.68737         7     0.873     0.681 -17.53   0
        47    856.3557    885.8124 300.1549471 +22.8916417     424.6408     72.34933      1.753     5.11     4.009384     20.41194     34.62135         8     1.099     0.673  -5.38   0
        48    661.3392    990.6494 300.0600677 +22.8632878     8969.525     72.40459      2.009     4.48     4.430016     20.41194     497.9595        43     1.546     1.393  20.76   3
        49    813.2886    880.4316 300.1432698 +22.8771907     1428.049     72.31246      1.781     4.42     3.872235     20.41194     85.56304        23     1.277     1.190  44.51   0
        50    996.4241    879.9004 300.2005567 +22.9319088     349.7047     72.29402      1.772     6.51     3.912455     20.41194     33.01962         8     1.757     0.676  21.03   0
        51    664.9259    877.5978 300.0979553 +22.8319098     397.1302     72.25713      1.721     3.88     3.792691     20.41194     42.57619         6     1.039     0.758  43.63   0
        52    851.2094    873.9276 300.1572074 +22.8866861     749.9037     72.33089      2.314     7.26     3.983598     20.41194     46.98652        18     1.549     0.978  56.96   0
        53    899.7388    865.2819 300.1751516 +22.8987436      561.456     72.44141      1.915     6.57     3.984259     20.41194     41.54165        12     1.505     0.983  67.09   0
        54    750.9986    864.5676 300.1290125 +22.8539673     793.8956     72.31246      1.708     3.88     3.763381     20.41194     61.32188        13     0.973     0.946  12.29   0
        55    764.0052    862.9528 300.1335914 +22.8574016     1154.943     72.33089      1.650     6.65     3.763659     20.41194     660.1071        15     1.833     0.676  46.34   0
        56    463.8458    860.5963 300.0408665 +22.7667417     4280.988     72.33089      1.707     3.59     3.743384     20.41194     367.7369        35     1.315     1.278  17.75   0
        57    194.6707    979.9253 299.9183250 +22.7202225     1671.908       72.423      4.407    14.74     62.66761     20.41194     55.96877        45     3.504     1.724  58.52   3
        58    242.5267    849.2360 299.9757042 +22.6971001     305.8634     72.29402      1.410     4.86     5.517295     20.41194     44.24895         7     1.150     0.582  50.47   0
        59    125.8760    848.9506 299.9395322 +22.6620190     397.1951     72.34933      1.557     4.15     5.818576     20.41194      49.0453         6     0.993     0.796 -17.69   0
        60    506.8434    848.0565 300.0583285 +22.7760359     371.9412     72.34933      1.978     5.35     3.773318     20.41194     30.75809         6     1.145     0.705  25.42   0
        61    189.0443    846.2097 299.9600590 +22.6801865     958.7354     72.36775      2.268     4.83     6.502299     20.41194     73.12465        16     1.303     1.065  54.60   0
        62    166.2298    843.1724 299.9539539 +22.6724702     1627.405     72.34933      1.821     3.91      6.78331     20.41194     148.8559        23     1.247     1.167   2.37   0
        63     41.6067    832.8013 299.9185957 +22.6320997     422.8134      72.1648      1.589     5.97     4.495393     20.41194     42.70366         8     1.227     0.818  74.80   0
        64    992.1043    830.9798 300.2151162 +22.9165587     2324.478     72.25713      1.934     4.33     3.944442     20.41194     135.2804        31     1.435     1.282  46.49   0
        65    697.7175    831.5051 300.1231588 +22.8285041     577.1641     72.51499      2.209     5.25      3.75121     20.41194     34.51445         8     1.138     0.684 -36.52   0
        66    220.6322    825.2366 299.9766982 +22.6836473     145.2889     72.36775      1.674     4.20     5.278457     20.41194     24.62208         5     1.544     0.326  49.43   0
        67    198.2304    824.8265 299.9698663 +22.6768090     554.0185     72.34933      1.783     4.59     5.517677     20.41194     61.78978        11     1.177     0.935 -71.53   0
        68    775.6825    824.8148 300.1496311 +22.8499480     676.0095     72.33089      1.698     5.71     3.771421     20.41194      52.9389        11     1.000     0.919  73.54   0
        69    643.8443    818.6795 300.1105442 +22.8086740       4806.2     72.33089      1.599     3.33     3.713598     20.41194     426.8978        33     1.282     1.177  25.59   0
        70    133.2437    819.1850 299.9514984 +22.6556930     503.1912     72.36775      1.789     5.20     5.166317     20.41194     42.37858         8     1.203     0.635 -13.69   0
        71    446.0774    815.5157 300.0499920 +22.7484754     667.5488     72.45981      1.633     4.88     4.023126     20.41194     62.32404        12     1.185     0.832 -52.14   0
        72    193.9404    812.3273 299.9725956 +22.6719366     1304.388     72.38617      1.652     3.76     5.034246     20.41194     120.7548        23     1.352     1.095   9.34   0
        73    664.4136    811.1581 300.1193973 +22.8126796     803.1038     72.36775      1.659     3.55     3.734157     20.41194     90.37294        12     1.062     0.939  62.95   0
        74    819.8831    798.5477 300.1719488 +22.8556476     4374.105     72.38617      1.701     3.60     3.864997     20.41194     314.0901        36     1.325     1.257   7.73   0
        75    550.4492    795.5748 300.0889669 +22.7740442     198.0675     72.36775      1.271     4.17     4.258021     20.41194     30.07438         5     1.005     0.494  -0.71   0
        76    228.5697    792.6564 299.9897566 +22.6766820     434.8952     72.36775      1.676     4.58     4.539104     20.41194     50.09763         9     1.215     0.694 -19.55   0
        77    536.8158    791.1782 300.0861508 +22.7686949     591.8181     72.33089      1.454     3.91     4.266931     20.41194     61.12952        11     1.050     0.819  81.14   0
        78    183.2063    788.8541 299.9768881 +22.6619828      1018.12     72.33089      1.738     3.71     4.555865     20.41194     109.3992        19     1.225     1.037  -7.75   0
        79    266.8800    788.2453 300.0031039 +22.6869080     1457.558     72.33089      0.596     0.91     4.452958     20.41194      836.782         7     0.482     0.444  45.50   0
        80    598.4975    784.1899 300.1076308 +22.7851787     589.0844     72.23867      1.665     4.79     4.023324     20.41194      57.9066        11     1.073     0.985 -59.88   0
        81    332.8446    780.9227 300.0260020 +22.7045914     53809.64     72.33089      1.643     3.40      4.39678     20.41194     4924.562        97     1.504     1.386  37.98   0
        82   1003.8001    779.2053 300.2355969 +22.9051838     878.5779      72.1648      1.896     5.61     4.105189     20.41194      58.2658        19     1.294     1.194 -89.79   0
        83    590.8854    780.1836 300.1065623 +22.7817466     1636.683     72.31245      1.554     3.30     4.113827     20.41194     144.8394        22     1.175     1.068  13.31   0
        84    260.9939    778.6002 300.0044082 +22.6823751     410.8884      72.1648      1.721     5.29     4.449363     20.41194      52.8188         9     1.259     0.626  52.96   0
        85    619.5957    776.0035 300.1168632 +22.7891520     972.7805      72.1648      1.588     3.70     4.100096     20.41194     90.52562        16     1.085     0.976 -38.00   0
        86     19.6311    775.2145 299.9304860 +22.6089914     927.3197     72.34933      2.054     4.64     4.708739     20.41194     97.93379        16     1.412     0.900  37.95   2
        87    630.5840    774.4538 300.1207897 +22.7920004     762.7383     72.31246      1.622     3.62     4.139526     20.41194     64.02908        11     0.970     0.776   6.42   0
        88    950.3728    771.7917 300.2213389 +22.8870514     315.2751     72.34933      1.697     5.32     4.118538     20.41194     26.63701         5     1.430     0.560  50.83   0
        89    737.0000    770.2285 300.1553194 +22.8226784       515.97     72.29402      1.778     4.55     4.039745     20.41194     55.97996         7     1.253     0.469 -86.97   2
        90    530.9114    768.7559 300.0916005 +22.7604876     219.7059     72.34933      1.390     5.04     4.315177     20.41194     38.40845         6     1.011     0.711  -4.05   0
        91    773.7508    760.9068 300.1698033 +22.8310129     850.0804     72.38617      1.644     4.24     4.029801     20.41194     77.30846        16     1.269     0.861 -57.64   0
        92    382.6186    758.1800 300.0488796 +22.7129908     31553.98     72.34933      1.600     3.19     4.396991     20.41194     3108.991        66     1.364     1.316  33.44   0
        93    396.8529    758.6212 300.0531656 +22.7173857     2070.073     72.34933      1.632     3.47     4.390857     20.41194      197.257        25     1.286     1.109  51.96   2
        94    393.9976    752.5837 300.0542392 +22.7147967     649.9552     72.23867      1.724     3.16     4.401927     20.41194     72.44168        11     1.062     0.693  51.05   3
        95    272.7636    757.3348 300.0149799 +22.6798036      224.429     72.34933      1.100     3.44     4.403959     20.41194     35.64004         5     1.132     0.302  54.31   0
        96    172.2254    758.0394 299.9834892 +22.6498488      842.444     72.38617      0.506     0.85     4.452853     20.41194     536.5817         5     0.431     0.327  21.86   0
        97    905.8283    754.2045 300.2131617 +22.8686553     2675.263     72.31245      1.658     3.58     4.114625     20.41194     208.5551        27     1.239     1.202  19.69   0
        98    663.6176    750.2910 300.1389338 +22.7949618     906.3621     72.27557      1.441     3.18     4.536898     20.41194     96.25313        15     1.052     0.885   2.84   0
        99    265.3944    750.2484 300.0149910 +22.6755600     933.4151     72.33089      1.757     3.91     4.399288     20.41194     98.04755        17     1.177     1.078   4.28   0
       100    499.9214    750.2997 300.0879503 +22.7458988      369.537     72.47821      1.541     4.49     4.344134     20.41194     35.11901         7     0.926     0.619  32.06   0
       101    510.6531    744.8288 300.0930694 +22.7475453     826.6395     72.36775      1.604     3.54      4.38777     20.41194     91.32561        16     1.134     0.974  79.39   0
       102     69.6866    745.8257 299.9555888 +22.6155826     469.6698     72.29402      1.716     5.29      4.64723     20.41194     40.69382         9     1.153     0.685 -13.85   0
       103    911.9183    742.1986 300.2189631 +22.8670297     711.2291     72.23867      1.845     5.30     4.145175     20.41194     69.98561        10     1.158     0.684  62.45   0
       104    456.3683    739.8685 300.0777825 +22.7298473     448.1674     72.33089      1.492     4.42     4.415103     20.41194     58.27568        12     1.195     0.817 -34.43   0
       105    412.8712    741.1858 300.0638166 +22.7171842     337.8448     72.34933      1.485     3.04     4.424407     20.41194     39.66872         6     0.889     0.581  68.71   0
       106    665.3339    739.0424 300.1431242 +22.7922457     370.3945     72.33089      1.792     5.81      4.71007     20.41194     48.42021         8     1.396     0.681  55.89   0
       107    889.2717    736.7557 300.2136693 +22.8586823     442.1065     72.31246      1.608     4.50     4.114063     20.41194     38.58112         7     1.304     0.441  24.16   0
       108    262.8607    734.2694 300.0193956 +22.6702150     652.0617     72.38617      1.524     5.38     4.379614     20.41194     60.00484        13     1.436     0.831  14.45   0
       109    586.3672    724.8765 300.1231300 +22.7645114     405.5471     72.34933      1.408     4.49     4.630996     20.41194     43.07238         9     0.943     0.660  13.67   0
       110    555.5339    722.9280 300.1141610 +22.7547104     719.2587     72.38617      1.503     3.50     4.486837     20.41194     86.52335        13     1.072     0.875  11.74   0
       111    465.4022    722.2589 300.0863169 +22.7275004     119.3492     72.31246      1.242     3.95     4.433979     20.41194     43.35199         6     1.123     0.399  37.98   0
       112    972.2336    719.5331 300.2451432 +22.8785807     4456.091     72.34933      1.704     3.70      4.50595     20.41194     346.5243        34     1.323     1.271  48.56   0
       113    577.6251    720.4475 300.1218466 +22.7606195     1459.026     72.36775      1.556     3.20     4.592554     20.41194     141.3286        18     1.109     0.950  40.99   0
       114    497.7410    720.0508 300.0971015 +22.7365608       334.01     72.40459      1.322     3.36     4.433979     20.41194      50.8649         9     0.971     0.648  34.09   0
       115     98.1824    739.3673 299.9665427 +22.6222796     536.3297     72.33089      1.814     6.40     4.606274     20.41194      52.2389        11     1.193     0.965  72.02   0
       116    960.8338    710.9966 300.2443610 +22.8727133      1732.51     72.34933      1.711     4.22     4.572728     20.41194     135.7126        23     1.298     1.096 -23.40   0
       117    323.4631    704.4984 300.0479192 +22.6798454     936.8129     72.44141      1.672     4.15     4.400733     20.41194     95.67543        17     1.275     0.977  21.15   0
       118    787.0576    702.2295 300.1930203 +22.8181431     2716.178     72.34933      1.599     3.21     4.254251     20.41194     211.8979        28     1.353     1.087  14.01   0
       119    991.7401    701.0372 300.2572394 +22.8791062     1564.106     72.36775      1.696     4.54     4.735891     20.41194     115.1077        26     1.449     1.153  47.51   0
       120      9.4224    691.9604 299.9543669 +22.5820515     664.5992     72.38617      1.570     4.08     4.730657     20.41194      85.4352        13     1.362     0.708  52.32   0
       121    172.5372    688.7242 300.0061091 +22.6300559     705.4901     72.40459      1.918     3.95     4.439438     20.41194     75.64815        13     1.260     0.976 -12.97   0
       122    869.4115    687.8490 300.2233689 +22.8386803     620.7956     72.36775      1.742     5.47     4.383031     20.41194     45.59703        15     1.375     0.927  25.20   0
       123    905.4626    679.1646 300.2374333 +22.8469821     149452.5     72.34933      1.620     3.29     4.708653     20.41194     13002.81       149     1.486     1.440  53.13   0
       124    667.6190    682.8486 300.1620963 +22.7767906     277.4811     72.36775      1.458     3.63     4.741518     20.41194     52.35138         7     1.166     0.498 -16.47   0
       125    757.7563    679.5421 300.1912589 +22.8028470     818.4548     72.34933      1.679     3.95     4.390288     20.41194     91.67589        10     1.048     0.777  61.31   0
       126     69.6171    678.6623 299.9773894 +22.5962964     348.5391     72.33089      2.041     5.00     4.721378     20.41194     37.88593         5     1.006     0.723  -8.78   0
       127    938.1682    672.5574 300.2497811 +22.8548779     304.8098     72.38617      1.429     4.22     4.966233     20.41194     39.18237         6     0.754     0.675  56.11   0
       128    591.6601    667.8245 300.1433160 +22.7497136     1628.246     72.33089      1.391     2.76     4.679077     20.41194     221.6672        19     1.079     0.951  49.57   0
       129    772.8885    665.2299 300.2006256 +22.8032682     9414.955     72.33089      1.463     2.89     4.391098     20.41194     922.3931        41     1.254     1.163  36.73   0
       130    255.3869    666.3427 300.0391413 +22.6484808     343.2061     72.31246      1.762     4.10     4.448354     20.41194     39.15973         6     1.088     0.441 -34.41   0
       131    274.3618    660.1402 300.0470575 +22.6523907     4933.381     72.36775      1.554     3.06     4.520117     20.41194     512.3173        37     1.277     1.205  38.03   0
       132    356.4231    658.2435 300.0732010 +22.6764514      1233.57     72.40459      1.538     3.05     4.500017     20.41194     130.1315        16     1.095     0.884  61.55   0
       133    232.3736    655.9149 300.0353721 +22.6385869     562.3445     72.33089      1.534     2.93       4.5267     20.41194     65.39439        11     0.891     0.836 -57.20   0
       134    564.8276    653.9288 300.1394738 +22.7376816     725.6764     72.33089      1.434     3.06     4.591384     20.41194     93.51964        14     1.066     0.839   5.97   0
       135    556.3543    646.0283 300.1394017 +22.7328733     3401.274     72.38617      1.427     2.77     4.568334     20.41194     399.3334        29     1.166     1.103  66.53   0
       136    546.7394    639.6086 300.1384931 +22.7281482     1600.638     72.31246      1.569     2.85     4.536337     20.41194     191.7597        22     1.194     1.083 -31.77   0
       137    475.1981    638.9761 300.1164245 +22.7065250     445.0124     72.29402      1.670     4.80     4.454833     20.41194     46.17579        10     0.948     0.936 -62.32   0
       138    940.3347    637.5591 300.2618274 +22.8454673     496.4748     72.31246      1.804     5.89     4.967679     20.41194     57.39783        11     1.453     1.076  89.15   0
       139    224.1342    634.3906 300.0398018 +22.6299389     716.6281     72.31245      1.732     4.30     4.706093     20.41194     75.51993        15     1.137     1.107  67.69   0
       140    210.0262    635.8698 300.0349346 +22.6261327     627.3867     72.34933      1.537     3.76     4.728502     20.41194     71.72729        12     0.979     0.867  25.28   0
       141    993.3776    630.8902 300.2805414 +22.8594327     442.7531     72.27557      1.489     4.03     4.998895     20.41194     61.04008        10     1.001     0.809  63.77   0
       142    471.3349    629.4490 300.1183167 +22.7026314     1827.234     72.36775      1.439     2.57     4.460966     20.41194     226.1652        24     1.178     1.048  45.54   0
       143    281.0900    630.8725 300.0586574 +22.6460078      448.069     72.51499      1.448     3.27     4.849042     20.41194     40.35369         6     0.901     0.459  31.78   0
       144    250.0125    630.9183 300.0489771 +22.6367024     483.1131     72.33089      1.416     4.56     4.782115     20.41194      64.8471        10     0.971     0.853  50.68   0
       145    570.3726    629.9976 300.1489747 +22.7324702     475.0126     72.29402      1.475     4.13     4.697807     20.41194     61.65755        10     0.929     0.855 -59.37   0
       146    125.3099    624.3086 300.0123534 +22.5974080     19989.38     72.51499      1.699     3.26     4.869529     20.41194      2084.14        68     1.525     1.340  35.50   0
       147     46.2838    625.6013 299.9873750 +22.5740749     665.3036     72.23867      1.660     4.45     4.737951     20.41194     61.26573        12     1.075     0.943  38.92   0
       148    591.7933    624.4252 300.1574561 +22.7372886     373.0905     72.34933      1.336     2.84     4.848474     20.41194     68.47369         9     0.958     0.678  34.64   0
       149    556.3574    624.7917 300.1463012 +22.7267752     1056.834     72.36775      1.407     2.51     4.631721     20.41194      126.808        15     0.959     0.867  38.39   0
       150    927.4630    620.6780 300.2632963 +22.8367607      140.073       72.423      1.086     3.40     4.946115     20.41194     39.30183         5     1.009     0.332  67.04   0
       151    309.8309    616.1674 300.0723736 +22.6504041     297.7064     72.36775      1.358     3.48     4.940512     20.41194      49.0519         5     0.780     0.531  34.82   0
       152    974.3299    611.1866 300.2809993 +22.8480654     982.8034     72.34933      1.552     4.92     4.988536     20.41194     87.46573        15     1.129     0.905  37.77   0
       153    639.5035    612.6036 300.1761572 +22.7481884      253.386     72.25713      1.019     3.85     4.936874     20.41194     43.10868         5     0.967     0.440 -14.38   0
       154     71.4408    608.3898 300.0007820 +22.5766831     1552.856     72.34933      2.020     4.85     4.767822     20.41194     127.2391        27     1.606     1.122 -81.97   0
       155    841.1800    609.1644 300.2401285 +22.8076127     414.9924     72.36775      1.434     3.91     4.468491     20.41194     71.10553        12     1.263     0.881  27.38   0
       156    138.0266    608.5753 300.0214161 +22.5967075      414.787     72.31245      1.566     3.57     5.019054     20.41194      45.4737         8     0.876     0.672  47.29   0
       157    519.7665    604.9564 300.1413501 +22.7101130     398.9561     72.40459      1.453     3.76     4.577418     20.41194      57.3195         8     0.904     0.839  80.62   0
       158    914.1249    603.6483 300.2646678 +22.8278716     1092.578     72.34933      2.245     6.38     4.859083     20.41194     69.49873        18     1.675     0.811  33.63   2
       159    379.2643    603.3763 300.0981302 +22.6675474     118.5937     72.33089      1.028     3.53     4.664921     20.41194     39.91848         5     0.771     0.466  12.29   0
       160    476.3382    597.7309 300.1301764 +22.6950228     774.2476     72.38617      1.499     2.80     4.500335     20.41194     93.95965        14     1.006     0.867 -16.98   0
       161    671.8289    595.0805 300.1919195 +22.7528390     509.9598     72.36775      1.414     3.66     4.945638     20.41194     57.51455        10     1.058     0.647  68.08   0
       162    624.1595    596.0924 300.1767402 +22.7388481     467.7121     72.34933      1.350     3.14      5.04561     20.41194     54.42905         9     0.814     0.735 -56.31   0
       163    642.1127    594.5925 300.1828200 +22.7437961     548.1613     72.25713      1.358     4.09     5.011155     20.41194     61.63994        10     1.058     0.770  14.74   0
       164    520.6467    593.5442 300.1453307 +22.7070992     956.9581     72.38617      1.550     2.74      4.63639     20.41194     111.8021        12     0.983     0.734  54.16   0
       165    954.5511    589.1912 300.2819735 +22.8358203     3228.922     72.36775      1.559     3.03     4.983141     20.41194     319.1215        31     1.271     1.163  37.43   0
       166    486.1456    588.9220 300.1360904 +22.6954323     1706.935     72.38617      1.474     2.88     4.539958     20.41194     192.8964        23     1.152     0.998  68.50   0
       167    851.4069    586.5543 300.2506612 +22.8041772     437.7396     72.36775      1.445     2.87     4.618079     20.41194     54.22133         6     0.831     0.497  -0.74   0
       168    836.5786    585.1940 300.2464795 +22.7993455     266.3707     72.33089      1.617     3.74     4.620745     20.41194     29.44365         5     1.041     0.386   5.04   0
       169     48.1039    582.4123 300.0019668 +22.5622300     5161.537     72.25713      1.794     3.52     4.791229     20.41194     537.3446        43     1.429     1.374  35.20   0
       170    515.2937    580.1075 300.1480279 +22.7016359     252.9253     72.51499      1.242     4.37     4.683814     20.41194     46.67324         6     0.962     0.564 -59.57   0
       171    993.3127    579.2474 300.2972959 +22.8445664     402.9958     72.33089      1.327     3.47     4.998435     20.41194     41.20498         5     0.844     0.451  43.38   0
       172    349.5916    575.7034 300.0978848 +22.6507075     9267.825     72.23867      1.465     2.60     4.845271     20.41194      1263.77        41     1.246     1.161  63.82   0
       173    472.0575    572.7308 300.1369630 +22.6865603     9091.058     72.36775      1.416     2.66     4.561931     20.41194     1112.152        40     1.252     1.097  51.02   0
       174    718.3851    569.0951 300.2148657 +22.7593193     308.6599     72.27557      1.346     2.73     4.757167     20.41194     41.30155         5     0.720     0.453  71.40   0
       175    883.8077    566.8721 300.2671571 +22.8082223     1923.091     72.33089      1.548     3.24     4.826715     20.41194     196.3483        23     1.137     1.075 -81.01   0
       176    968.4352    564.2761 300.2943967 +22.8328142     12574.53     72.31246      1.562     2.97     4.993066     20.41194     1279.612        48     1.295     1.271 -64.27   0
       177    532.6276    562.3759 300.1591834 +22.7017373     11640.98     72.33089      1.356     2.49     4.864468     20.41194     1474.387        40     1.181     1.105  63.52   0
       178    702.1247    558.3304 300.2132945 +22.7513555     502.0474       72.423      1.231     3.59      4.90987     20.41194     82.11359        10     0.954     0.732  69.78   0
       179    259.9399    557.6235 300.0758681 +22.6186407      1435.44     72.33089      1.546     3.49     5.050248     20.41194     164.0281        22     1.262     1.043  19.77   0
       180    506.9073    555.3922 300.1534429 +22.6920242     352.4063     72.25713      1.350     3.83     4.756179     20.41194     58.58614         8     1.025     0.537 -20.45   0
       181    464.3192    550.4464 300.1417906 +22.6778414     4430.183     72.33089      1.354     2.48       4.6186     20.41194      561.319        31     1.168     1.030  60.16   0
       182    807.2986    550.8072 300.2485184 +22.7806939     714.4681     72.23867      1.306     2.61     4.812416     20.41194     102.8387        13     0.924     0.858  59.23   0
       183    442.5814    549.0242 300.1354861 +22.6709184     1253.412     72.36775      1.404     2.55     4.621064     20.41194     164.6502        16     0.984     0.882  76.63   0
       184    196.8686    548.2647 300.0592940 +22.5970440     569.6245     72.40459      1.315     4.22     5.104864     20.41194     72.38335        10     0.991     0.709  39.96   0
       185    884.2184    546.1417 300.2740174 +22.8023863     1562.846     72.31245      1.501     3.13     4.927476     20.41194      153.131        24     1.218     1.109  33.86   0
       186    130.8009    545.6583 300.0396014 +22.5764851     228.8737     72.31245      1.483     3.52     5.113626     20.41194     45.91037         7     0.979     0.685   5.35   0
       187    580.9555    538.0997 300.1821164 +22.7092441     203756.5     72.36775      1.376     2.75      5.22333     20.41194     25485.52       183     1.405     1.367  -0.18   0
       188    404.9322    544.4227 300.1252626 +22.6583134     322.9212     72.34933      1.185     4.79     4.680766     20.41194     40.03185         6     1.014     0.641 -55.70   0
       189    764.6821    542.9722 300.2377780 +22.7656791     803.9068     72.34933      1.409     3.02     4.779084     20.41194     97.11604        14     1.137     0.765  54.61   0
       190    858.1016    541.5673 300.2673586 +22.7932512     135.6695     72.33089      1.048     4.50     4.880914     20.41194     32.83481         7     0.911     0.631 -78.65   0
       191    832.9553    534.4108 300.2618417 +22.7836643     622.2827     72.34933      1.629     4.43     4.838563     20.41194     56.91476        10     1.015     0.769  40.52   0
       192    266.9669    538.0005 300.0844252 +22.6151141     3568.533     72.31245      1.467     2.91     5.029039     20.41194     405.2337        26     1.177     1.049  37.56   0
       193    612.5167    524.8807 300.1962389 +22.7149018     173.4975      72.4966      1.049     4.69     5.323036     20.41194     38.70798         7     0.912     0.684 -26.08   0
       194    471.5989    518.3777 300.1544694 +22.6708125     2722.798     72.27557      1.401     2.44     4.732968     20.41194     328.4983        23     1.181     0.944  76.31   2
       195    315.6110    520.7914 300.1051435 +22.6247554      347.769     72.23867      1.388     3.42     4.933977     20.41194     49.06959         9     0.874     0.765 -67.05   0
       196    921.6123    518.9157 300.2945208 +22.8057551     168.7184     72.29402      1.158     4.09     4.934709     20.41194     35.07624         6     0.752     0.636 -36.00   0
       197    883.1793    515.1904 300.2837437 +22.7931775     444.7002     72.33089      1.426     2.95     4.776671     20.41194     39.89204         6     0.721     0.581  35.99   0
       198    702.5337    514.2399 300.2277387 +22.7388084     404.8439     72.31246      1.587     3.96     4.957876     20.41194     47.26546         6     1.063     0.423  33.80   0
       199    788.9035    507.3824 300.2568842 +22.7627040     508.2603     72.25713      1.299     2.69     4.822677     20.41194     60.71009         7     0.815     0.580  25.72   0
       200    868.5345    504.7659 300.2825615 +22.7857959     1809.017     72.34933      1.432     2.49      4.66011     20.41194     221.2337        18     1.018     0.931  83.59   0
       201    739.8256    502.3326 300.2432263 +22.7465553     2598.291     72.33089      1.308     2.39     4.733676     20.41194     346.8519        23     1.030     0.981  43.05   0
       202     99.5723    502.2357 300.0439928 +22.5546585     240.2416     72.36775      1.310     3.46     4.641782     20.41194     32.52658         5     0.770     0.449 -70.65   0
       203    982.9803    495.5234 300.3212598 +22.8173999     1020.296     72.34933      2.566     3.40     4.987933     20.41194     80.46687        13     1.134     0.749  74.38   2
       204    949.1614    499.8293 300.3093113 +22.8085147     372.0668     72.38617      1.509     2.86     4.953147     20.41194     36.58904         6     0.732     0.568 -39.38   0
       205    644.3945    499.2705 300.2144842 +22.7170926     501.9374     72.31246      1.415     2.49     5.239063     20.41194     67.15316         8     0.853     0.607  -7.62   0
       206    527.1324    498.1042 300.1783410 +22.6816286     679.4004      72.4966      1.272     2.65     5.165804     20.41194       96.831        11     0.849     0.816 -24.93   0
       207    997.0110    496.4643 300.3253320 +22.8218702     1214.264     72.27557      1.453     3.39     5.003842     20.41194     140.8254        19     1.161     0.985  34.47   0
       208    868.9208    494.6603 300.2859629 +22.7830064     2288.953     72.40459      1.809     4.02     4.597419     20.41194     218.5135        26     1.654     0.958  72.16   0
       209    621.9663    492.8815 300.2095716 +22.7085385     861.8212     72.31245      1.902     3.01     5.298657     20.41194     82.64777        10     0.893     0.802  43.46   0
       210    460.5167    491.6187 300.1597071 +22.6598057     407.1329     72.31246      1.061     2.72     4.815091     20.41194      57.3736         6     0.815     0.485   1.46   0
       211    907.0561    489.8715 300.2994108 +22.7930468     4376.419     72.36775      1.422     2.90     4.788964     20.41194     514.6904        30     1.148     1.108  64.80   0
       212    567.6442    485.5690 300.1950260 +22.6901645     304.7989     72.40459      1.221     3.78     5.355065     20.41194     56.64045         7     0.941     0.531  60.66   0
       213    998.8935    480.5980 300.3310705 +22.8178710     724.5321     72.25713      1.505     2.95     5.009064     20.41194     100.0889        13     1.132     0.762  32.65   0
       214    799.6575    474.1665 300.2710204 +22.7563766     221.1491     72.36775      1.034     1.82     4.810913     20.41194     64.65785         5     0.703     0.417 -66.41   0
       215    404.9598    473.5041 300.1482956 +22.6379548     306.9668     72.34933      1.441     4.30     4.783314     20.41194     36.36911         5     0.993     0.616 -88.12   0
       216    131.9971    469.9707 300.0645445 +22.5551203     522.5165     72.29401      1.809     5.99     4.722778     20.41194     57.12028        15     1.566     0.835 -52.01   0
       217    138.9629    480.0276 300.0634453 +22.5600956     958.5799     72.36775      1.711     3.65     4.732306     20.41194     100.1951        20     1.254     1.072  14.02   0
       218    739.2571    464.4587 300.2553446 +22.7354995     465.9116       72.423      1.264     3.08     4.684199     20.41194     60.50845         8     0.967     0.555  22.70   0
       219    627.8901    461.8461 300.2214919 +22.7013950      322.765     72.33089      1.301     4.46     5.221038     20.41194     41.45709         7     1.160     0.595  -0.04   0
       220    347.8710    462.4013 300.1341352 +22.6176577     295.6394     72.27557      1.203     4.02     4.755914     20.41194     40.69183         7     0.964     0.632 -26.47   0
       221    680.5044    460.3751 300.2383614 +22.7167308     686.4808     72.25713      1.135     2.14     4.991064     20.41194     100.1565        11     0.817     0.739  32.04   0
       222    995.0758    452.9695 300.3388484 +22.8087828     486.9376     72.34933      1.294     3.00     4.991971     20.41194     78.84271        10     0.888     0.747  87.83   0
       223    741.2281    452.5557 300.2598228 +22.7326685     910.4724     72.38617      1.370     2.82     4.655404     20.41194     108.8258        12     0.961     0.762  49.55   0
       224    898.5812    448.7361 300.3101214 +22.7786823     978.5115     72.31246      1.449     2.83     4.709162     20.41194     136.6275        17     1.087     0.990 -30.69   0
       225    882.8051    445.2253 300.3063409 +22.7729501     569.4781     72.31245      1.303     2.77     4.589192     20.41194     73.95679        11     0.879     0.802  13.76   0
       226    626.9969    442.9946 300.2273328 +22.6957102     3327.918      72.1648      1.335     2.62     5.164627     20.41194     459.2677        24     1.108     0.956  64.21   0
       227    987.5966    442.2719 300.3399874 +22.8034677     472.9699     72.29402      1.463     3.57     4.982245     20.41194     55.55134         9     0.956     0.662  52.88   0
       228    102.9306    434.5717 300.0669993 +22.5362444     416.9145     72.34933      1.566     4.23     4.851858     20.41194     45.56113        10     1.290     0.709 -18.49   0
       229    467.2397    430.0833 300.1817741 +22.6441438     395.3983     72.31245      1.250     2.01     4.979581     20.41194     79.30002         7     0.718     0.608  60.78   0
       230    398.7797    430.1387 300.1604479 +22.6236474     331.5301     72.31245      1.516     2.76     4.817412     20.41194     34.81576         5     0.897     0.727 -81.54   0
       231    996.7096    420.8427 300.3497863 +22.8000319     893.6787     72.34933      1.525     3.04     4.979974     20.41194     107.7456        18     1.130     0.951  50.32   0
       232    910.4252    422.0681 300.3224715 +22.7745594     413.0094     72.33089      1.185     3.36     4.799737     20.41194     74.04837         9     0.934     0.673  56.26   0
       233    646.6528    419.0893 300.2412149 +22.6947273     320.9132     72.36775      1.438     4.19     4.961096     20.41194     43.04158         7     0.980     0.619  39.96   0
       234    737.5145    416.8206 300.2702641 +22.7212846     1196.803     72.27557      1.504     2.66     4.552433     20.41194     154.2702        15     1.074     0.824  55.71   0
       235    533.2032    417.5951 300.2063644 +22.6603172     331.0811      72.1648      1.081     2.13     5.267072     20.41194     65.06931         6     0.737     0.489   4.09   0
       236    241.6422    415.1134 300.1164390 +22.5722403     718.1578     72.33089      1.464     2.78     4.705153     20.41194     88.55136        11     0.924     0.787  44.14   0
       237     80.6927    413.6867 300.0668657 +22.5235821     289.5396     72.51499      1.666     4.25     5.020374     20.41194     31.06325         6     0.959     0.847 -36.13   0
       238    303.9503    410.7443 300.1372368 +22.5896600     3761.019     72.38617      1.443     2.55     4.757549     20.41194     493.0225        28     1.202     1.041  50.27   0
       239    251.1832    405.5452 300.1225113 +22.5723525     7578.328     72.33089      1.437     2.62     4.743567     20.41194     931.4125        38     1.250     1.135  31.40   0
       240   1017.0754    400.5811 300.3627171 +22.8002989     1902.948     72.34933      1.497     2.90      5.05135     20.41194     224.5383        21     1.170     1.010  59.22  16
       241    391.9807    399.7856 300.1681825 +22.6128915     4928.055     72.31245      1.380     2.67     4.785664     20.41194     656.7411        29     1.167     1.023  66.98   0
       242    636.1919    396.5919 300.2452572 +22.6851286     18890.36     72.20174      1.324     2.42     4.949887     20.41194     2669.585        60     1.312     1.109  56.37   0
       243    653.6436    396.7573 300.2506404 +22.6904025     856.5079     72.44141      1.887     6.35     4.869017     20.41194     73.14536        16     1.696     0.668 -30.81   0
       244    833.1494    387.0971 300.3097227 +22.7413717      374.347       72.423      1.259     3.23     4.531893     20.41194      63.2545         9     0.942     0.651  10.51   0
       245    256.3845    383.4527 300.1312978 +22.5675671     454.7598     72.33089      1.413     2.45     4.811017     20.41194     65.84617         6     0.679     0.641  31.09   0
       246    969.7940    379.2341 300.3548923 +22.7800095     707.0174     72.34933      1.654     3.48     5.044331     20.41194     76.58875        12     1.076     0.839  69.49   0
       247    506.3687    378.7730 300.2106072 +22.6411241     215.1714     72.34933      1.063     3.86     5.031251     20.41194     56.19104         5     0.894     0.477 -42.12   0
       248    679.5445    377.7890 300.2648657 +22.6927066     318.3994     72.34933      1.334     4.20       4.7651     20.41194     34.52467         6     1.014     0.496  86.78   0
       249    190.9440    376.5723 300.1131803 +22.5459778     2117.997     72.34933      1.477     2.75     4.867128     20.41194     268.5586        25     1.180     1.095 -75.03   0
       250    990.3758    366.5929 300.3654158 +22.7825326     1260.719     72.33089      1.566     2.85      5.12145     20.41194     151.1023        23     1.237     1.145  50.40   0
       251    576.8271    365.9869 300.2366969 +22.6585537     6719.923     72.34933      1.322     2.49     5.048149     20.41194     968.1047        35     1.173     1.022  56.87   0
       252    291.8390    365.4893 300.1481541 +22.5730333     742.6136     72.33089      1.374     2.83     4.861269     20.41194     93.17195        13     0.919     0.877 -66.25   0
       253    149.2467    358.4463 300.1060978 +22.5282749     497.3952     72.36775      1.334     3.71     4.925697     20.41194     65.45353        13     1.037     0.977   5.08   0
       254    836.7870    357.9966 300.3202999 +22.7340929     409.3227     72.18328      1.260     2.10     4.541018     20.41194     60.43518         5     0.748     0.460  28.88   0
       255    690.5486    356.5314 300.2751923 +22.6898910     538.2449     72.33089      1.359     3.32     4.745268     20.41194     77.40083        10     1.015     0.736  87.87   0
       256    781.1412    355.1662 300.3038699 +22.7166214     1162.477     72.36775      1.358     2.82     4.767382     20.41194     123.7408        18     1.040     0.991   7.11   0
       257    483.5061    352.2890 300.2120824 +22.6266659     6270.574     72.53337      1.337     2.43     4.810979     20.41194     789.7657        30     1.124     1.029  40.70   0
       258    875.4111    346.5503 300.3360580 +22.7423621     1500.221     72.36775      1.495     2.75       4.4676     20.41194     182.3179        20     1.162     0.954  62.71   0
       259    973.0186    346.7838 300.3664281 +22.7716405     633.5523     72.33089      1.626     3.96     5.097905     20.41194      52.0483        13     1.051     0.902 -36.60   0
       260    468.1697    340.9634 300.2109825 +22.6188176      484.505     72.36775      1.185     1.98     4.829506     20.41194     87.37231         8     0.757     0.623  31.54   0
       261    550.8021    338.9003 300.2373803 +22.6429749     459.4998     72.22021      1.256     2.84     5.108689     20.41194     65.53501         8     0.828     0.765  40.91   0
       262    829.1667    337.7862 300.3244814 +22.7260001     405.1378     72.34933      1.432     4.10      4.67013     20.41194     33.85979         6     1.193     0.403  59.75   0
       263    531.3934    336.9742 300.2319613 +22.6366085     273.8985     72.34933      1.318     4.14     5.065674     20.41194     37.24907         7     0.854     0.705  15.21   0
       264    848.2300    334.7505 300.3314104 +22.7308332     500.0128     72.36775      1.300     1.98     4.574885     20.41194     91.89366         6     0.698     0.527 -37.43   0
       265    129.7523    333.3143 300.1081912 +22.5152155     288.1136     72.33089      1.474     4.32     4.955066     20.41194     30.34466         7     1.630     0.326  79.81   0
       266    370.9993    331.3739 300.1838505 +22.5869529     2615.349     72.29402      1.408     2.74     4.903089     20.41194     310.6348        22     1.130     0.981  58.76   0
       267     89.5876    328.6667 300.0972150 +22.5018416     1079.001     72.33089      1.609     3.32     4.935828     20.41194     133.5438        19     1.172     1.027  23.14   0
       268    340.3884    320.8586 300.1777371 +22.5747609     29974.58     72.29402      1.415     2.57     4.985865     20.41194     3955.578        65     1.333     1.157  52.58   0
       269    874.9700    318.5655 300.3449999 +22.7341817     1419.624     72.36775      1.390     2.45     4.670115     20.41194      216.361        20     1.095     1.034  60.89   0
       270    830.6281    315.9798 300.3320118 +22.7201666     375.7379     72.34933      1.665     4.38     4.753424     20.41194     38.48095         5     1.137     0.481 -87.20   0
       271     36.6652    308.5910 300.0872813 +22.4802134     4973.633     72.33089      1.669     3.06     4.906203     20.41194     588.7094        34     1.355     1.203  58.44   0
       272    790.3143    307.7547 300.3221115 +22.7057346     370.1206     72.33089      1.310     4.69     4.838754     20.41194      70.8007        10     1.158     0.680  71.34   0
       273    214.6265    307.4920 300.1429553 +22.5332379     520.8417     72.29402      1.365     3.30     4.904811     20.41194     50.61149         6     0.896     0.425 -19.47   0
       274    438.9824    306.3445 300.2131277 +22.6001274     452.9255     72.33089      1.411     3.48     5.104398     20.41194     58.03195        10     1.034     0.678  12.10   0
       275    750.8155    300.7049 300.3120861 +22.6918838     1973.557     72.27557      1.345     2.40     4.781882     20.41194      288.369        21     1.036     0.983 -70.25   0
       276    879.9855    296.8405 300.3536118 +22.7294344    -1175.459     72.36775      1.467     2.19     4.842696     20.41194     47.09748         5     0.763     0.465  56.84   0
       277    559.1479    295.4045 300.2540897 +22.6329734      362.952     72.34933      1.274     3.23     4.923917     20.41194     49.54668         7     0.763     0.644  25.11   0
       278    965.6200    293.6465 300.3813592 +22.7541410     606.5413     72.40459      1.416     3.90      5.02442     20.41194     91.29461        12     1.252     0.768  60.99   0
       279    819.8252    287.1690 300.3379897 +22.7086477     284.3107     72.34933      0.869     3.31     4.875526     20.41194      38.9045         5     0.947     0.336  44.54   0
       280    412.6418    285.3404 300.2117423 +22.5862020     2052.608     72.33089      1.468     2.91     5.372941     20.41194     268.6776        22     1.254     0.918  68.13   0
       281    624.8609    284.2809 300.2781658 +22.6494531     307.1714     72.44141      1.360     2.66      4.80068     20.41194     52.37172         7     0.831     0.570  31.12   0
       282    851.8368    278.1067 300.3509107 +22.7156220     628.8635     72.31245      1.356     3.31     4.898401     20.41194      74.1685        10     0.942     0.722  28.05   0
       283    733.9689    275.8267 300.3149052 +22.6796873     464.1754     72.34933      1.316     3.28     4.804195     20.41194     72.73936         9     0.943     0.689  68.55   0
       284    702.2749    275.5249 300.3051258 +22.6701128     385.4707     72.44141      1.314     3.13     4.817422     20.41194     47.08021         5     0.725     0.479 -15.10   0
       285    488.5439    264.6584 300.2420774 +22.6029926     1235.863       72.423      1.303     2.34     4.925841     20.41194     170.2434        14     0.976     0.800  40.83   0
       286    296.0512    264.6528 300.1821746 +22.5453309     196.1195     72.38617      1.161     4.25      5.36659     20.41194     31.67173         6     0.894     0.577  87.81   0
       287    999.9397    260.5112 300.4028152 +22.7548761      212.836       72.423      1.393     4.15     5.113278     20.41194     33.96583         5     0.751     0.655 -76.98   0
       288    733.3547    256.5792 300.3209567 +22.6739688     2143.677     72.40459      1.306     2.39     4.835234     20.41194     305.5164        20     1.065     0.941  61.83   0
       289    994.7281    250.9763 300.4042816 +22.7505736     3241.899     72.38617      1.459     2.94     5.125653     20.41194     376.1876        28     1.250     1.125 -85.94   0
       290    441.7379    240.2907 300.2354093 +22.5819714     744.7849     72.44141      1.435     2.61     5.209618     20.41194     92.50999        10     0.880     0.724  54.28   0
       291    147.5459    234.5878 300.1457432 +22.4921976     613.1314     72.36775      1.359     2.98     5.398596     20.41194     68.20616        11     1.053     0.729 -16.07   0
       292    116.5912    234.4162 300.1361766 +22.4828718     1289.171     72.27557      1.577     2.99     5.514279     20.41194      164.342        20     1.132     1.090  67.34   0
       293   1010.4676    231.5317 300.4154992 +22.7496873     434.2889     72.40459      1.319     3.22     5.185511     20.41194     58.96104         6     0.889     0.433  71.38   0
       294    200.7068    226.6128 300.1648576 +22.5058367     486.7214     72.27557      1.353     2.44     5.400134     20.41194     79.30679         8     0.848     0.643  53.20   0
       295    995.6972    224.1035 300.4132993 +22.7431313     375.3317     72.53337      1.591     5.65     5.177848     20.41194     34.82552         8     1.091     0.823  41.31   0
       296     56.0080    224.3797 300.1206023 +22.4618328     171.5506     72.31245      1.423     3.84     5.673857     20.41194     33.43989         5     0.894     0.474  -7.95   0
       297    876.5021    220.2569 300.3773647 +22.7063629     485.1584     72.44141      1.563     3.21      5.05424     20.41194     64.74714         7     0.791     0.722  29.12   0
       298    804.9922    218.3002 300.3557014 +22.6844012     496.4177     72.25713      1.206     2.90     5.059763     20.41194     99.54596        10     0.994     0.647  51.92   0
       299    395.4196    217.7978 300.2282871 +22.5616349     369.4234     72.27557      1.226     1.95     5.450791     20.41194     58.09055         5     0.677     0.452 -66.78   0
       300    940.6700    210.7679 300.4004562 +22.7228321     279.0086     72.34933      2.189     4.62     5.118821     20.41194      41.7499         5     1.297     0.467  48.00   0
       301    895.3392    210.8557 300.3862882 +22.7092947     314.2899       72.423      1.285     2.92     5.088354     20.41194     42.23198         6     0.737     0.605  28.96   0
       302    903.2050    207.1219 300.3899522 +22.7105740     2038.924     72.25713      1.370     2.83     5.102726     20.41194     256.2258        21     1.117     0.950  67.02   0
       303    321.6010    204.2750 300.2097023 +22.5356382     2081.657     72.23867      1.383     2.50     5.565614     20.41194     268.2593        20     1.137     0.911  58.84   0
       304    399.5156    199.4019 300.2355267 +22.5575751     980.2776     72.27557      1.439     3.10     5.451535     20.41194     122.1256        17     1.042     1.016  -3.91   0
       305    801.6136    198.8298 300.3609617 +22.6777898     624.3483     72.34933      1.452     2.45     5.133171     20.41194     89.31522        11     0.865     0.834   6.13   0
       306    151.6937    199.6374 300.1583653 +22.4834023     328.4748     72.33089      1.357     3.41     5.469401     20.41194     46.21582         5     1.006     0.335 -21.31   0
       307    840.8240    198.5721 300.3732707 +22.6894491     242.4812     72.33089      1.254     3.43     5.119206     20.41194     28.32691         5     0.788     0.433  21.36   0
       308    908.4509    195.7384 300.3952797 +22.7088685     382.1044     72.40459      1.475     4.90     5.134026     20.41194     50.25242         8     1.173     0.625  58.20   0
       309    216.4707    191.4787 300.1811514 +22.5004674     686.8442     72.45981      1.352     3.00     5.414917     20.41194     92.13974        15     1.036     0.895 -21.16   0
       310    754.1824    188.4175 300.3495522 +22.6606004     1644.433     72.34933      1.304     2.63     5.126441     20.41194     214.9318        18     1.091     0.865  53.81   0
       311    819.2400    187.8721 300.3700102 +22.6799125     677.0315     72.33089      1.502     3.05     5.166841     20.41194     87.84632        12     1.012     0.803  11.14   0
       312    237.5708    184.6635 300.1899228 +22.5048310     468.2037     72.36775      1.372     3.89     5.449389     20.41194     73.29158        12     1.187     0.876  86.96   0
       313    758.3712    180.0215 300.3535801 +22.6594391     766.3096     72.33089      1.309     2.80     5.174187     20.41194     106.3306        11     1.053     0.709  68.40   0
       314    678.8221    179.4003 300.3289900 +22.6354519     1163.063     72.27557      1.201     2.23     5.200256     20.41194     176.7099        15     0.956     0.828  16.33   0
       315    499.8201    175.1922 300.2745995 +22.5806540     494.6035     72.31245      1.501     4.50     5.267603     20.41194     63.83537         8     1.392     0.413  52.72   0
       316    605.0606    170.8931 300.3087680 +22.6109260     1016.597     72.44141      1.339     2.36     5.221658     20.41194     148.4808        15     1.072     0.804  78.96   0
       317    874.3463    170.7081 300.3927588 +22.6914634      1361.77     72.40459      1.340     2.66     5.195395     20.41194     188.6272        17     1.001     0.938 -88.55   0
       318    886.1807    169.8035 300.3967429 +22.6947439     777.6575     72.31245      1.622     2.97     5.199979     20.41194     96.52987        14     1.082     0.927 -50.48   0
       319    932.4493    169.2286 300.4113609 +22.7084207     330.1842     72.36775      1.291     2.92      5.20907     20.41194     39.30601         5     0.719     0.460  69.93   0
       320   1003.0789    160.2628 300.4363033 +22.7269682     984.7962     72.44141      1.342     2.71      5.23205     20.41194      125.746        15     1.041     0.824   0.51   0
       321     26.9131    156.7315 300.1334935 +22.4336869     510.6992     72.47821      1.580     2.98      5.84358     20.41194      72.6279         9     0.976     0.856  89.47   0
       322    237.1055    153.1568 300.1999922 +22.4956397     730.1357     72.36775      1.269     3.06     5.467982     20.41194     85.21883        11     0.946     0.795  11.05   0
       323    160.6182    152.6111 300.1763855 +22.4725682     195.0538     72.31246      1.803     3.88     5.414887     20.41194     28.68945         5     1.111     0.389  16.40   0
       324     98.8015    147.6725 300.1587703 +22.4526277     2314.542     72.23867      1.617     3.52     5.957321     20.41194     239.7275        29     1.302     1.190  41.81   0
       325    921.8633    145.0110 300.4159102 +22.6982855      698.819     72.29402      1.284     3.84     5.275504     20.41194      91.7511        10     1.013     0.697  44.31   0
       326     48.5100    145.0041 300.1440057 +22.4367911     489.1871     72.25713      1.504     3.58     5.884429     20.41194     58.55074         7     1.040     0.524 -25.83   0
       327    256.3091    141.0769 300.2098805 +22.4979214     5580.761      72.4966      1.486     2.74     5.606924     20.41194     593.1404        35     1.348     1.092  59.64   0
       328    237.8178    142.5581 300.2036493 +22.4928079     427.9447     72.36775      1.566     3.64     5.496135     20.41194     39.81205         6     0.872     0.658  86.11   0
       329     40.4949    135.3871 300.1446323 +22.4316272     1292.952     72.27557      1.605     3.40      5.86625     20.41194     161.2558        20     1.195     1.047  57.30   0
       330    239.5049    131.6484 300.2077104 +22.4901787     547.3034     72.38617      1.588     3.68     5.537031     20.41194     77.48264        12     1.161     0.777  30.59   0
       331    900.5087    122.8389 300.4164370 +22.6855173      3610.04     72.34933      1.520     2.71     5.340313     20.41194     430.5132        31     1.237     1.102  66.82   0
       332   1004.1220    121.7057 300.4491284 +22.7161834     2771.687     72.45981      1.524     2.71     5.370111     20.41194     363.6618        29     1.276     1.152  69.92   0
       333    203.0824    118.6751 300.2005887 +22.4755406     370.8137     72.45981      1.372     3.73     5.428001     20.41194     47.66985         6     0.865     0.582 -39.91   0
       334    449.9228    117.9011 300.2776373 +22.5492446     502.3215      72.4966      1.325     2.76     5.476713     20.41194     89.84037        12     1.006     0.763  34.94   0
       335    564.1848    115.8904 300.3138665 +22.5828745     312.9374     72.27557      1.366     4.29      5.35478     20.41194     36.85223         5     0.763     0.687  51.43   0
       336    374.2896    109.6255 300.2567796 +22.5242183     1012.055     72.27557      2.156     4.73     5.590072     20.41194     81.02122        13     1.174     0.844 -58.64   2
       337    140.4006    106.8665 300.1849273 +22.4533699     697.3711     72.33089      1.932     4.45     5.567435     20.41194     66.59125        13     1.193     0.970   6.10   0
       338    501.2539    105.2396 300.2977219 +22.5609729     1725.851     72.34933      1.317     2.46     5.468259     20.41194     219.1933        19     1.115     0.886  58.98   0
       339    429.5195    105.9529 300.2751589 +22.5397007     530.0848     72.36775      1.540     2.83      5.49595     20.41194     63.06821         7     0.796     0.682 -21.95   0
       340    563.5305    104.7802 300.3172639 +22.5794839     430.3902     72.33089      1.817     4.50     5.373012     20.41194     39.25758         7     0.936     0.616   9.53   0
       341    244.9280    101.2283 300.2192567 +22.4830623     430.4818     72.34933      1.283     3.56     5.679882     20.41194     55.13779         7     0.826     0.687  69.70   0
       342    789.6761     95.0344 300.3908891 +22.6443593     425.9666     72.34933      1.360     2.14     5.405289     20.41194     60.50243         7     0.704     0.618  66.15   0
       343    275.2729     84.9300 300.2339770 +22.4874675     5986.015       72.423      1.489     2.84     5.949821     20.41194     645.2933        36     1.294     1.105  53.67   0
       344    126.6150     84.4761 300.1878982 +22.4428075     775.3001     72.36775      1.723     3.88     5.589407     20.41194     79.36274        14     1.180     0.916  43.99   0
       345    904.5683     82.2490 300.4308595 +22.6750514     419.8487     72.38617      1.646     5.11     5.411636     20.41194      45.7078         9     1.232     0.600  62.16   0
       346    247.3858     79.0328 300.2272142 +22.4774204     319.8383     72.34933      1.208     3.16     5.641723     20.41194     43.29757         6     0.801     0.630  57.06   0
       347    290.9586     76.4152 300.2416157 +22.4897182     451.7399     72.36775      1.411     3.26     5.966975     20.41194      50.0295         7     0.744     0.672   3.77   0
       348     36.8465     75.4495 300.1629238 +22.4133190     519.7413     72.38617      1.768     4.23     5.710762     20.41194     49.77843         7     1.006     0.589 -88.85   0
       349    521.4410     70.4165 300.3152935 +22.5570037     6292.697     72.36775      1.376     2.41     5.554905     20.41194     838.8849        36     1.238     1.061  65.62   0
       350    406.8418     70.2580 300.2796688 +22.5226496      602.573     72.34933      1.304     2.56     5.565912     20.41194     89.64037         9     0.878     0.705   1.46   0
       351    578.2712     65.3025 300.3346493 +22.5725438       339.09     72.47821      1.248     3.20     5.395908     20.41194     45.49191         6     0.766     0.520  46.19   0
       352    774.0692     60.4388 300.3972358 +22.6297366     895.6846     72.31245      1.685     3.17     5.486671     20.41194     88.45258        12     0.954     0.884  32.14   2
       353    715.2617     61.9663 300.3784110 +22.6125806     264.6887     72.36775      1.196     2.98     5.379624     20.41194     51.29007         5     0.795     0.491  23.88   0
       354    866.5723     58.9846 300.4265489 +22.6569911     470.0231     72.36775      1.414     3.53     5.401529     20.41194     57.48357         8     0.936     0.814  66.95   0
       355    176.3943     55.8174 300.2126608 +22.4494857     268.8141     72.31245      1.672     5.42     5.391885     20.41194     36.86572         6     1.290     0.641   6.67   0
       356    214.6152     54.2131 300.2250654 +22.4604729     521.7799     72.29402      1.492     3.58     5.434129     20.41194     60.85583        11     1.108     0.744  65.26   0
       357    572.7100     53.1554 300.3368535 +22.5673860     437.2959     72.34933      1.433     3.83     5.441136     20.41194     48.93264         9     0.949     0.634  24.68   0
       358    649.7791     50.4870 300.3617261 +22.5896837     6400.594     72.27557      1.380     2.55      5.22562     20.41194     935.0099        37     1.255     1.064  77.06   0
       359    424.6380     49.3112 300.2919955 +22.5219559     1393.879     72.33089      1.444     2.75     5.615932     20.41194     189.0849        19     1.156     0.931  75.83   0
       360    690.9232     47.7999 300.3754170 +22.6012228      818.491     72.22021      1.366     2.80     5.303603     20.41194      116.329        14     1.038     0.907  40.49   0
       361    760.9474     45.1221 300.3981089 +22.6214040     320.8294     72.38617      1.610     5.75     5.528519     20.41194     42.24019         8     1.135     0.819 -52.18   0
       362    706.7289     43.9591 300.3815871 +22.6048473     667.9727     72.31245      1.472     3.12     5.381341     20.41194     74.31687        10     0.959     0.732  43.02   0
       363    976.8814     42.1239 300.4664215 +22.6851306        584.2     72.45981      1.543     2.94     5.439518     20.41194     64.41516         9     0.863     0.748  71.20   0
       364    173.4251     41.7186 300.2163059 +22.4445452     720.1908     72.33089      1.586     3.30     5.377691     20.41194     93.00949        14     1.049     0.963  65.79   0
       365     20.8665     42.4147 300.1686626 +22.3990421     285.0353     72.33089      1.523     2.13     5.510053     20.41194     41.87836         5     0.687     0.459 -20.55   0
       366   1015.8654     41.5013 300.4787875 +22.6966091     336.0974     72.44141      1.331     3.47     5.476455     20.41194     49.79607         5     0.800     0.435  21.60   0
       367    745.3631     39.7740 300.3949842 +22.6152027     501.4664     72.36775      1.418     3.10     5.542598     20.41194     66.45096         9     0.873     0.724  -7.02   0
       368    694.0300     35.4792 300.3803775 +22.5986081     2698.546     72.34933      1.380     2.38     5.323681     20.41194     399.2883        28     1.211     1.030 -87.78   0
       369    335.0618     36.0127 300.2684285 +22.4913128      497.225     72.31245      1.635     5.19     5.463204     20.41194     56.57813         8     1.207     0.851 -56.02   0
       370    708.9742     34.4665 300.3853628 +22.6027883     972.3271     72.33089      1.830     4.81     5.408285     20.41194     80.44938        17     1.497     0.873  54.78   0
       371    780.5678     27.0473 300.4100819 +22.6220734     1649.623     72.38617      1.438     2.63     5.586535     20.41194     182.7196        21     1.183     0.951  64.16   0
       372    940.7712     25.3826 300.4605806 +22.6695129     349.4178     72.34933      1.995     4.19     5.399353     20.41194     29.75903         5     0.912     0.548  52.44   0
       373    718.5988     20.3077 300.3929499 +22.6015946     738.9843     72.25713      1.354     2.72     5.500054     20.41194     89.56239        10     0.890     0.761 -19.88   0
       374    323.3106   1016.0784 299.9465678 +22.7691929      1367.08     72.47821      2.249     4.89     10.93041     20.41194     100.0492        26     1.531     1.401 -27.61  16
       375    389.3347     20.8721 300.2902226 +22.5032104     819.0341     72.38617      0.637     1.18     5.557319     20.41194     422.6954         5     0.532     0.334  -1.16   0
       376     97.1326     19.2658 300.1998635 +22.4152407     424.5822     72.40459      1.291     4.78     5.243369     20.41194     53.35065         9     1.183     0.720 -25.98   0
       377    760.0899   1016.8378 300.0823175 +22.9004120     469.9605     72.33089      1.875     5.87     3.922356     20.41194     36.31149         9     1.564     0.620 -19.36  16
       378    809.9007     16.6137 300.4226074 +22.6278461     507.2218     72.25713      1.316     4.03     5.575534     20.41194     56.01043         8     0.974     0.627  35.40   0
       379    723.7485     14.6242 300.3963964 +22.6015002     371.2816     72.36775      2.037     3.49     5.548577     20.41194     33.10453         5     0.763     0.461  14.18   0
       380    158.3601   1010.0845 299.8972266 +22.7179719     1026.122     72.31245      2.979     9.93     93.11166     20.41194     42.44018        20     2.545     1.081 -26.33  18
       381    201.5979   1009.4456 299.9108756 +22.7307660     1161.712     72.34933      3.009    11.18     85.41686     20.41194     50.04894        21     2.208     1.577  12.12   3
       382    209.3392   1008.4164 299.9136172 +22.7327943     485.9467     72.29402      2.422     9.98     83.33225     20.41194      39.8399        14     2.917     0.952 -58.04  19
