#   1 NUMBER                 Running object number                                     
#   2 X_IMAGE                Object position along x                                    [pixel]
#   3 Y_IMAGE                Object position along y                                    [pixel]
#   4 ALPHA_J2000            Right ascension of barycenter (J2000)                      [deg]
#   5 DELTA_J2000            Declination of barycenter (J2000)                          [deg]
#   6 FLUX_APER              Flux vector within fixed circular aperture(s)              [count]
#   7 FLUXERR_APER           RMS error vector for aperture flux(es)                     [count]
#   8 FLUX_RADIUS            Fraction-of-light radii                                    [pixel]
#   9 FWHM_IMAGE             FWHM assuming a gaussian core                              [pixel]
#  10 BACKGROUND             Background at centroid position                            [count]
#  11 THRESHOLD              Detection threshold above background                       [count]
#  12 FLUX_MAX               Peak flux above background                                 [count]
#  13 ISOAREA_IMAGE          Isophotal area above Analysis threshold                    [pixel**2]
#  14 A_IMAGE                Profile RMS along major axis                               [pixel]
#  15 B_IMAGE                Profile RMS along minor axis                               [pixel]
#  16 THETA_IMAGE            Position angle (CCW/x)                                     [deg]
#  17 FLAGS                  Extraction flags                                          
         1    695.2956     16.1789 300.3929075 +22.6014454     672.8671      71.9482      1.417     3.36     6.699994     20.32468     87.22409        12     1.034     0.842  41.76   0
         2    501.1472     15.5189 300.3326265 +22.5431848     1103.397     72.07671      1.537     3.14     5.853603     20.32468     146.5421        17     1.100     0.950  73.44   0
         3     74.3786     15.3674 300.1998776 +22.4154137     666.9625     72.04002      2.163     3.77     5.743644     20.32468     43.44907         7     1.023     0.638 -23.39   2
         4    404.9251     13.4974 300.3033183 +22.5138147     826.4075     72.18666      1.341     3.13     5.361839     20.32468     116.3888        13     1.073     0.806  61.25   0
         5    176.4118      3.5664 300.2354277 +22.4425694     3780.115     66.92222      1.647     2.98     5.857701     20.32468     411.2675        34     1.372     1.201  33.87  24
         6    744.5092      4.6390 300.4119885 +22.6128413     536.3393     70.57552      1.350     2.65     6.793245     20.32468     66.91547         8     0.828     0.679 -33.30  16
         7    502.2701      1.3611 300.3375626 +22.5394489     234.9223     56.18441      1.104     3.40     5.916693     20.32468     39.30113         5     0.749     0.447  17.01  24
         8    203.8295   1002.6002 299.9196654 +22.7375922     1876.317      72.0033      3.610    23.79     82.65672     20.32468     66.84864        92     4.764     3.298  15.64  19
         9     91.3968   1011.3938 299.8818477 +22.7063841     5015.647     71.85629     16.304   107.46     80.52767     20.32468       682.35      2245    18.676    17.157  87.14  27
        10     81.9027    945.4427 299.9003464 +22.6846271     5653.489     72.04002     29.972   116.88     23.94661     20.32468     1285.428      4760    22.251    17.033 -59.30  19
        11    178.4840    990.3412 299.9157710 +22.7264741     1831.548     72.15002     10.397    13.22     73.61289     20.32468     79.87637        44     2.474     1.965 -64.76   3
        12    360.6525    998.0831 299.9699228 +22.7833300     429.2522     72.07671      1.456     5.72      3.90359     20.32468      47.9037         8     1.314     0.701 -68.61   0
        13    551.7496    991.3766 300.0316010 +22.8386977      2270.37     72.04002      1.991     5.06     3.409658     20.32468     112.1435        33     1.531     1.364 -15.06   0
        14    638.3361    986.6821 300.0601026 +22.8633019     9177.613     72.15002      2.145     5.22     3.507842     20.32468     474.1814        50     1.636     1.529 -14.97   3
        15    643.6833    984.3978 300.0625118 +22.8642486     9651.421      71.9482      2.083     4.96     3.547184     20.32468     518.5767        51     1.590     1.537  36.08   3
        16    738.3502    987.5034 300.0910059 +22.8935078     696.1644     72.11337      2.165     7.91      3.70233     20.32468     34.03403        17     1.491     1.173 -84.57   0
        17     14.5578   1018.0725 299.8557947 +22.6852425      1094.81     72.02166      5.328    16.05    -3.328656     20.32468     32.57972        23     4.890     1.464 -43.75  19
        18      3.9908    989.0381 299.8619551 +22.6737491      1306.12     68.56137     13.444    16.99    -10.21167     20.32468     38.35432        35     2.972     2.699  87.32  27
        19      5.4653    998.8478 299.8592227 +22.6770035     1463.489     72.07671     12.068    15.43    -11.35286     20.32468     38.15103        41     3.181     2.080  43.89  19
        20    171.0332    972.9927 299.9190967 +22.7192643      1866.54     72.04002      8.590    19.32      59.3265     20.32468     57.70242        67     4.739     2.189  76.69   3
        21      1.9744    977.4266 299.8651051 +22.6698156     862.2926     59.56483      6.898     7.88    -9.088575     20.32468     36.34723        11     2.204     0.787 -80.85  25
        22    660.4355    979.0323 300.0694773 +22.8677287     2793.319     72.07671      0.642     1.29     3.617023     20.32468     1242.427         8     0.531     0.409   9.94   0
        23      3.6525   1020.2790 299.8516884 +22.6826024     1698.431     65.94724      7.392    13.30    -16.70936     20.32468     47.46682        39     2.438     2.019 -58.43  27
        24    931.2232    970.7506 300.1566052 +22.9464748     870.7423     72.04002      2.080     7.41     3.610307     20.32468     40.89037        19     1.400     1.153 -30.43   0
        25      2.1915   1014.0403 299.8532638 +22.6803758     1420.152     60.72964      6.541    12.71    -17.71428     20.32468     51.39498        43     3.798     1.184 -89.71  27
        26    127.3642    969.0176 299.9068119 +22.7050249     1265.762     72.04002      4.375     4.52     53.31115     20.32468     34.82227         5     1.199     0.484 -60.70   3
        27    148.3500    955.4226 299.9177578 +22.7074217     2048.246     72.04002     10.667    18.20     43.36119     20.32468     56.69599        68     3.658     2.516  32.47   3
        28    656.4816    953.7701 300.0764620 +22.8592917     6812.628     72.05836      1.990     4.50     3.878933     20.32468     352.3073        46     1.536     1.471  16.51   0
        29    807.9968    948.3770 300.1254469 +22.9031388     359.7665      72.0033      1.941     5.02     3.723318     20.32468     28.12014         6     1.075     0.663 -57.56   0
        30      4.6257   1006.8118 299.8563714 +22.6790343     1415.835     70.51931      8.127    11.92    -12.93559     20.32468     47.19761        36     3.406     1.161  61.36  19
        31    536.6317    948.1909 300.0409388 +22.8217721     346.2624     72.04002      1.613     5.18     3.625543     20.32468     32.04395         5     1.063     0.713  -8.30   0
        32    247.8844    947.5858 299.9512607 +22.7350278     281.3758      72.0033      1.692     6.71     20.50563     20.32468     54.18096        10     1.348     0.936  52.11   0
        33    564.9506    944.5423 300.0509460 +22.8292126     1623.539     72.09504      1.941     4.75     3.732246     20.32468     107.0134        29     1.395     1.352  30.40   0
        34    458.7132    941.0494 300.0189973 +22.7963666     898.0677     72.04002      1.814     5.61     3.813443     20.32468     69.53282        21     1.406     1.083 -36.39   0
        35    389.4330    938.8293 299.9981523 +22.7749599     6727.762     72.05836      1.944     4.40     4.166587     20.32468     431.5487        45     1.532     1.420  -4.18   0
        36    421.8663    925.8174 300.0124795 +22.7809497     652.4476     72.02166      1.967     6.67     3.961986     20.32468     58.75881        12     1.537     0.813 -28.46   0
        37    154.3559   1007.8908 299.9025601 +22.7242683     656.2921     72.04002      2.195     6.83     90.53871     20.32468     38.43753        11     1.555     0.840 -84.70   0
        38    935.7764    917.7883 300.1752516 +22.9326245     2171.257     72.04002      2.145     5.22     3.929591     20.32468     97.07321        34     1.505     1.430  35.13   0
        39    235.7541    999.5469 299.9305877 +22.7462925     2003.385     72.07671      4.047    15.23      65.6673     20.32468     73.78331        61     3.490     1.849  11.29   3
        40    585.5242    914.9860 300.0669668 +22.8268943     379.2946     72.05836      1.510     3.06     4.013374     20.32468     34.93439         6     0.777     0.499  88.17   0
        41    204.6155    986.1357 299.9252652 +22.7331065      4080.06     72.02166      7.269    22.47     66.92051     20.32468      79.4519       243     5.045     4.252 -78.50   3
        42    724.7230    906.5803 300.1130774 +22.8661895     759.0391     72.04002      1.979     6.93     4.334174     20.32468     57.29062        17     1.645     0.890  42.56   0
        43    759.3737    900.8582 300.1257401 +22.8749267     1015.526     72.04002      1.918     5.39     4.324563     20.32468     66.79482        18     1.208     1.059 -12.87   0
        44    218.5751    899.9949 299.9576197 +22.7125873     990.0085     72.02166      8.083     8.28     9.119749     20.32468     33.58133        11     1.686     1.136 -61.56   1
        45    211.5293    897.6536 299.9561896 +22.7098028      798.958     72.05836      7.347     7.40     9.666999     20.32468     30.17744         9     1.906     0.805  80.65   1
        46    827.3578    894.8834 300.1488811 +22.8935747     504.2385      72.0033      1.830     6.28      4.17042     20.32468      36.9568        10     1.143     0.969 -67.17   0
        47    225.5115    984.1783 299.9324008 +22.7388128     4986.664     71.96658      9.267    30.92     61.85695     20.32468     88.77347       448     6.905     5.276 -52.74  19
        48    972.7390    894.2913 300.1944262 +22.9369421     508.2159     72.13171      1.975     4.69     4.148961     20.32468      34.0522         7     1.325     0.471  24.82   0
        49    781.7882    894.5407 300.1347828 +22.8798268     11437.45     72.02166      1.898     4.28     4.306149     20.32468     663.7555        57     1.524     1.490  13.88   0
        50    126.7583    890.1490 299.9322695 +22.6822264     871.5434     72.04002      4.353     3.39     11.29229     20.32468     32.56364         5     0.725     0.688  38.57   1
        51     93.0339    885.8463 299.9231844 +22.6708770     1172.435     72.07671      7.434     6.70      8.73508     20.32468     56.59891        23     1.614     1.310  60.56   0
        52    833.3664    882.7176 300.1547109 +22.8918799     434.6711      72.0033      1.598     5.71     4.263754     20.32468     37.01911        11     1.020     0.900 -48.42   0
        53    487.1362    882.6078 300.0468512 +22.7881138     467.0599     72.02166      1.894     6.17      3.96565     20.32468     34.14005         9     1.390     0.769  25.91   0
        54    790.1707    876.5765 300.1432377 +22.8771782     1332.242     72.04002      1.850     4.05     4.493779     20.32468     118.8031        23     1.289     1.186  32.34   0
        55    242.8123    973.5812 299.9412287 +22.7409625     7889.017      72.0033     10.022    37.20      40.1507     20.32468     171.9692       878    12.272     5.041  65.75  18
        56    182.1072   1002.2629 299.9130199 +22.7309795     1780.308     72.15002      3.664    13.56     83.93259     20.32468     57.70264        43     3.198     1.598 -83.46   3
        57    975.1932    876.0895 300.2011108 +22.9324472     428.0748      71.9482      1.522     5.43     4.267284     20.32468     39.76826         7     1.177     0.707 -46.21   0
        58    642.6619    874.0352 300.0980845 +22.8322588     361.4989     72.05836      1.687     4.43     4.212916     20.32468     36.98506         5     1.012     0.567 -17.17   0
        59    828.4279    870.0751 300.1572815 +22.8867694     721.9601     72.05836      2.110     6.40     4.413422     20.32468     45.57082        11     1.210     0.951 -66.61   0
        60    876.5807    861.1563 300.1751998 +22.8986283     667.7313     72.05836      1.877     5.74     4.252581     20.32468     52.02818        15     1.194     0.932  43.69   0
        61    727.6617    860.7972 300.1288800 +22.8539223     594.8652     72.02166      1.652     5.66     4.585951     20.32468     53.22559        14     1.287     0.859  -8.71   0
        62    440.7303    856.6008 300.0408576 +22.7667405     4265.605     71.98495      1.751     3.99      4.06778     20.32468     348.1735        37     1.373     1.316 -32.24   0
        63    739.7216    857.3247 300.1337684 +22.8565375     474.6405     72.15002      1.607     6.53     4.636169     20.32468     50.43811        12     1.435     0.834 -19.52   0
        64    484.7752    844.3912 300.0585406 +22.7764368     355.0451     72.04002      1.571     5.04     4.087319     20.32468     36.72005         5     1.258     0.571 -66.67   0
        65    219.7099    844.4397 299.9760339 +22.6969910     419.2028     72.04002      1.837     5.14     5.432353     20.32468     35.40042         8     1.211     0.618 -83.77   0
        66    176.7391    997.8837 299.9127751 +22.7281135     2919.764     72.15002      5.337    15.15     80.86242     20.32468     89.86523       101     3.495     2.858  27.80   3
        67    166.1831    842.2061 299.9601136 +22.6802993     854.3553     71.98495      2.246     4.94     6.771123     20.32468     73.35181        18     1.538     0.970 -72.72   0
        68    142.9013    839.1245 299.9538761 +22.6724334     1584.154     72.16834      2.066     4.71     6.505479     20.32468     123.9153        28     1.550     1.288 -25.98   0
        69    490.1640   1001.3555 300.0091752 +22.8231000     374.7449     72.09504      1.567     4.29     3.353768     20.32468     30.43087         5     1.114     0.472   4.60   0
        70    770.5847    835.6592 300.1504339 +22.8595594     186.4591      72.0033      1.411     4.18     4.677488     20.32468      30.9681         5     1.162     0.429  53.17   0
        71   1014.9498    828.6364 300.2289466 +22.9307136      2082.37     72.05836      1.978     4.55     4.447325     20.32468     128.4129        30     1.444     1.305 -22.39  16
        72    969.2285    827.0645 300.2151886 +22.9165742     2043.054     72.04002      2.033     4.70     4.441488     20.32468     131.5106        31     1.446     1.356 -46.86   0
        73    674.6412    827.5609 300.1231593 +22.8284944     526.1451     72.13171      2.081     6.16     4.300286     20.32468     37.52666         7     1.251     0.853  16.16   0
        74    752.4632    820.9624 300.1495618 +22.8499104     560.6812     72.04002      1.634     6.17     4.663486     20.32468     49.31027        12     1.156     0.925  32.51   0
        75    620.7330    814.7684 300.1105189 +22.8086710     4858.707     72.04002      1.670     3.60     4.221337     20.32468       379.08        37     1.308     1.290 -45.07   0
        76    422.9024    811.6708 300.0499127 +22.7485013     598.1962     72.16834      1.556     4.13     4.379167     20.32468     70.26955        14     1.087     0.958 -46.02   0
        77    170.8869    808.1428 299.9726482 +22.6719384     1322.954      72.1317      1.860     4.17     5.520749     20.32468      109.813        26     1.400     1.194 -14.72   0
        78    641.5078    807.2823 300.1194256 +22.8127452     769.5439     72.18666      1.680     4.24     4.253908     20.32468     71.85505        16     1.140     1.002  65.36   0
        79    558.2773    797.8612 300.0965572 +22.7851042     215.4183     72.09504      1.314     4.28     4.217535     20.32468     31.49355         6     0.797     0.654  36.25   0
        80   1013.8494    794.7233 300.2396273 +22.9206377     1124.899     72.04002      1.895     5.44     4.429169     20.32468     79.28916        23     1.373     1.205  55.33   0
        81    796.8358    794.5609 300.1719786 +22.8556158      4166.69     72.11337      1.741     3.70     4.805685     20.32468     307.7465        37     1.343     1.319  45.39   0
        82    205.4911    788.8488 299.9896802 +22.6767790     382.9089     72.05836      1.543     5.16     5.262825     20.32468     59.84877         7     1.388     0.542 -11.95   0
        83    514.0388    787.0121 300.0863046 +22.7687340     655.4264     72.04002      1.507     4.49     4.223911     20.32468     56.48897        11     1.054     0.739  71.95   0
        84    160.5432    784.4888 299.9771192 +22.6620510     977.3202     72.07671      1.679     3.82      5.25046     20.32468     124.7242        21     1.306     1.126 -30.94   0
        85    309.7881    776.8827 300.0260143 +22.7046127     53671.23      72.0033      1.744     3.56      4.99753     20.32468     4462.137       101     1.533     1.470  23.13   0
        86    575.3153    779.8973 300.1077032 +22.7850509     571.4619     72.20497      1.721     3.68     4.245216     20.32468     51.26173         9     1.074     0.734 -80.67   0
        87    567.9240    776.0858 300.1066394 +22.7817420     1530.026     72.15002      1.566     3.32     4.249196     20.32468     142.9244        22     1.140     1.096 -44.33   0
        88    980.7823    775.4247 300.2355799 +22.9051927     836.4994     72.04002      1.832     5.91     4.575671     20.32468     56.37802        20     1.375     1.075 -10.75   0
        89    238.9047    775.0664 300.0045521 +22.6828423     440.3535     72.16834      1.497     3.10     5.214852     20.32468     48.53381         8     0.812     0.683  51.58   0
        90    596.7896    772.2072 300.1168925 +22.7892761     852.1257     71.91145      1.577     4.56     4.262327     20.32468     80.57884        13     1.198     0.770 -26.86   0
        91    607.5331    770.6923 300.1207320 +22.7920596     635.2288     72.18666      1.677     4.36     4.266801     20.32468     62.50703        16     1.159     1.026  -0.89   0
        92    713.0626    766.9645 300.1548303 +22.8225993     354.1628     72.04002      1.431     4.15     4.548933     20.32468     43.98299         9     0.924     0.881  16.76   0
        93    750.5770    757.2509 300.1696817 +22.8310444     708.9167     72.04002      1.570     4.07     4.741158     20.32468     68.51869        15     1.120     0.950  46.29   0
        94    359.5572    754.1650 300.0488845 +22.7130102     31682.39     72.09504      1.682     3.38     4.716812     20.32468     2787.591        70     1.410     1.387  12.21   0
        95    373.7577    754.7546 300.0531126 +22.7174355     2052.105     72.11337      1.781     3.81     4.647989     20.32468     167.2594        26     1.305     1.172  21.96   0
        96    882.7353    750.3297 300.2131445 +22.8686286     2865.167     72.07671      1.783     3.82     4.920588     20.32468     228.1024        33     1.349     1.318  51.87   0
        97    370.4200    748.5468 300.0540910 +22.7146532     635.2992     72.02166      2.261     5.42     4.677913     20.32468     49.98998        13     1.285     1.007  -4.28   0
        98    640.6870    746.3568 300.1389708 +22.7950022      795.438     72.02166      1.552     4.44     4.312091     20.32468     77.02436        14     1.173     0.853  19.76   0
        99    242.0118    745.9971 300.0149648 +22.6754324     883.9281     71.85629      1.844     4.21     5.164361     20.32468     84.89667        18     1.300     1.037  28.54   0
       100    476.9073    746.1584 300.0880181 +22.7458787     480.5797     72.05836      1.662     4.59     4.227115     20.32468     36.70155         8     0.886     0.675  47.36   0
       101     47.4848    741.6257 299.9559004 +22.6158524     415.9516     72.02166      1.419     4.14     5.255075     20.32468     35.52202         7     1.015     0.481  81.23   0
       102    487.6886    740.8692 300.0930941 +22.7475906     869.3196     72.20497      1.520     3.72     4.220773     20.32468     88.99051        14     1.076     0.899  26.31   0
       103    888.8011    738.1347 300.2189997 +22.8669403     545.3348     72.02166      1.507     5.26     4.948576     20.32468     56.86903         9     0.995     0.785  24.78   0
       104    389.9826    737.3633 300.0638139 +22.7173058     344.3704     72.04002      1.405     4.83     4.585327     20.32468      43.1758         8     1.127     0.586 -22.84   0
       105     75.8594    735.8363 299.9666009 +22.6227007     265.0657     72.05836      1.403     4.66       5.2221     20.32468     51.64988         7     1.153     0.553 -82.85   0
       106    434.0858    735.5507 300.0781322 +22.7300019     433.7756     72.02166      1.728     4.26     4.378015     20.32468     53.49429         7     1.195     0.434  66.32   0
       107    642.1849    735.3992 300.1429983 +22.7923036     258.1858     71.89307      1.435     3.92     4.338615     20.32468     35.66862         5     0.898     0.489   1.31   0
       108    866.6373    733.2358 300.2136780 +22.8588970     466.0984     72.11337      1.705     4.59     4.957459     20.32468      31.3535         8     1.041     0.576  18.87   0
       109    239.8535    730.4229 300.0193539 +22.6703162     524.5633     72.05836      1.669     4.69     5.138795     20.32468     48.77866        10     1.105     0.652 -38.85   0
       110    563.4614    721.1431 300.1231035 +22.7646277     430.6314     72.11337      1.477     3.11     4.475383     20.32468     44.71986         8     0.974     0.853 -49.49   0
       111    532.6447    718.8669 300.1142441 +22.7547421     624.0883     72.04002      1.616     4.62     4.453388     20.32468      54.9022        12     1.173     0.723  30.18   0
       112    949.1772    715.6757 300.2451346 +22.8785596     4634.653     72.07671      1.797     3.83     4.886472     20.32468     326.7135        42     1.440     1.388   1.82   0
       113    554.6168    716.5722 300.1218336 +22.7606655     1387.362     72.05836      1.560     3.20     4.516776     20.32468     148.7288        19     1.103     1.027  13.99   0
       114    474.5551    716.7471 300.0968423 +22.7367295     414.9471     72.05836      1.336     4.60     4.318422     20.32468      35.0303         8     1.046     0.576 -15.97   0
       115    636.3142    711.5748 300.1489102 +22.7837023      431.229      72.0033      1.745     4.48     4.546623     20.32468     47.30854         7     0.960     0.593 -52.40   0
       116    937.5446    707.0609 300.2443042 +22.8726015     1707.439     72.11337      1.756     4.02     4.938086     20.32468     132.9504        26     1.319     1.159 -35.51   0
       117    316.7174    701.4105 300.0526937 +22.6850285      272.675      72.0033      1.983     4.67      5.03653     20.32468     28.86853         5     1.378     0.448 -31.47   0
       118    300.4615    700.7086 300.0478635 +22.6799550     946.8798     72.13171      1.739     4.53     5.095223     20.32468     73.05716        15     1.133     0.956  46.06   0
       119    764.0371    698.2170 300.1930608 +22.8181150     2541.927     72.04002      1.657     3.31     4.914642     20.32468     225.7299        32     1.457     1.171  -0.24   0
       120    968.8026    697.2210 300.2572550 +22.8791292     1674.071     71.98495      1.767     3.62     4.868114     20.32468     139.1074        26     1.350     1.174  35.80   0
       121    846.7707    684.8576 300.2232007 +22.8390469     525.2006     72.04002      1.663     6.06     5.022203     20.32468     43.65176        13     1.132     1.035  37.28   0
       122    149.4650    684.8934 300.0060345 +22.6301544     671.0991     72.15002      1.684     3.89     4.983588     20.32468     71.48708        11     1.046     0.828  -5.78   0
       123    882.4246    675.2595 300.2374401 +22.8469618     148974.4     72.04002      1.676     3.37     5.026458     20.32468     13129.73       158     1.533     1.492 -21.02   0
       124    644.6350    679.2246 300.1620134 +22.7769021     399.0254     72.05836      1.411     3.24     4.814752     20.32468      63.9933        10     1.075     0.657  -6.43   0
       125    734.8260    675.5994 300.1913020 +22.8028697     735.2576     71.98495      1.583     4.38     4.935955     20.32468     81.07561        13     1.185     0.940   5.44   0
       126    915.7697    667.9548 300.2502157 +22.8548436     533.2325     72.07671      1.803     5.22     4.998133     20.32468     35.65956        10     0.983     0.784  28.14   0
       127    568.6714    664.0300 300.1432816 +22.7497856     1608.273     72.04002      1.458     2.93     5.046509     20.32468     207.8809        22     1.116     1.034  63.60   0
       128    749.8973    661.2947 300.2006476 +22.8032724     9545.501     72.22327      1.543     3.06     4.976813     20.32468     908.4855        45     1.308     1.246 -20.71   0
       129    251.3518    656.1961 300.0470444 +22.6524599     5018.166     72.02166      1.659     3.24     5.044426     20.32468     492.1493        38     1.308     1.267   9.24   0
       130    333.3517    654.4876 300.0731128 +22.6765441     1131.459     72.04002      1.566     3.39      5.02384     20.32468     117.3447        19     1.192     0.956  -0.90   0
       131    209.1775    651.9993 300.0352890 +22.6386145     508.7075     71.96658      1.585     3.86     4.990921     20.32468     55.76431         8     0.936     0.667   0.97   0
       132    541.6570    650.0001 300.1394240 +22.7376643     733.9281      71.9482      1.501     3.33     5.102342     20.32468     80.34645        13     1.067     0.826  21.24   0
       133    533.3029    642.0399 300.1394076 +22.7328756     3249.001     72.02166      1.489     2.87     5.090923     20.32468     345.2821        29     1.182     1.135  27.70   0
       134    523.5616    635.8895 300.1383712 +22.7281913     1422.401     72.02166      1.581     2.90     5.075545     20.32468     166.8067        21     1.158     1.078 -40.08   0
       135    452.3224    635.4285 300.1163364 +22.7067183      220.286     72.04002      1.497     3.73     4.852286     20.32468      36.9564         5     0.789     0.708 -49.86   0
       136    916.8851    633.8116 300.2616550 +22.8453631     375.0357     71.98495      1.562     4.37     4.998342     20.32468     43.95967         9     0.987     0.832 -38.95   0
       137    186.8866    631.9941 300.0348538 +22.6261916     614.1891     71.96658      1.713     4.73      4.95207     20.32468     58.90644        13     1.267     0.856  45.81   0
       138    200.9886    629.7765 300.0399598 +22.6297820     518.8636     72.04002      1.587     7.25     4.977596     20.32468     59.08345        11     1.657     0.888  69.58   0
       139    970.6970    626.9390 300.2806783 +22.8594922     526.5983     72.13171      1.893     5.24     4.938216     20.32468     44.29387        10     1.375     0.879 -49.46   0
       140    227.1705    627.6066 300.0488081 +22.6370065     474.2395     72.04002      1.433     2.70     5.020128     20.32468     63.38142         7     0.777     0.634  26.77   0
       141    257.7670    627.4498 300.0583768 +22.6461313     427.1152     72.07671      1.737     5.05     5.008862     20.32468     37.94847         7     1.038     0.696  -3.05   0
       142    547.6865    626.1961 300.1490339 +22.7326333     419.3409     71.96658      1.513     2.44     5.249547     20.32468      71.8028         7     0.860     0.534 -35.64   0
       143    448.3899    625.4012 300.1183688 +22.7026608     1706.489     71.85629      1.586     3.03     4.910218     20.32468     193.7397        22     1.197     1.087 -40.68   0
       144    482.1777    625.0608 300.1290001 +22.7126848     259.6498      72.0033      1.206     3.74     4.936912     20.32468     37.11403         5     0.792     0.508 -27.10   0
       145   1023.2296    623.1648 300.2982998 +22.8741271     391.8402     58.55765      1.284     3.73     4.878895     20.32468     57.13318         8     1.100     0.534  77.01  24
       146    102.3075    620.2580 300.0123662 +22.5974702     20073.04     72.09504      1.795     3.57     5.034296     20.32468     1883.614        62     1.497     1.409  24.74   0
       147     23.4830    622.2345 299.9872234 +22.5744054     666.6733      72.0033      1.733     4.00     5.500437     20.32468     78.85109        14     1.227     0.975 -21.36   0
       148    636.2115    621.2846 300.1782092 +22.7577349     2369.252     71.98495      0.661     0.91       5.1389     20.32468     1248.063         7     0.487     0.455  55.79   0
       149    533.3383    620.8314 300.1463071 +22.7267948      1115.63     72.05836      1.481     2.86     5.218674     20.32468     131.5441        17     1.055     0.937 -17.78   0
       150    568.6443    620.2739 300.1574858 +22.7372093     287.6642     72.02166      1.361     4.59     5.281092     20.32468     35.60427         8     1.116     0.537  18.39   0
       151    905.0341    618.0280 300.2630844 +22.8372790     331.4586     72.05836      1.501     3.69     5.011621     20.32468     24.60193         5     1.014     0.387  58.24   0
       152    286.6714    612.7341 300.0721486 +22.6505691     393.4265     72.07671      1.904     5.66     4.960947     20.32468     31.86637         8     1.029     0.877  43.29   0
       153    951.2698    607.2244 300.2810193 +22.8480106     1042.609     72.04002      1.654     3.93     4.958629     20.32468     91.17685        20     1.275     1.043  22.10   0
       154     48.2807    604.2899 300.0007577 +22.5766915     1395.272     72.15002      2.037     4.60     5.372481     20.32468     125.7942        27     1.562     1.196 -81.05   0
       155    818.3570    605.0283 300.2402703 +22.8075984     509.6563     72.05836      1.491     5.75     5.047018     20.32468     52.65129        11     1.366     0.681 -68.49   0
       156    113.9919    605.4575 300.0208052 +22.5967257     416.5923     72.02166      1.861     5.26     4.984402     20.32468     36.85191         9     1.158     0.674 -37.67   0
       157    497.1331    601.8334 300.1412011 +22.7104937     419.5719     72.04002      1.261     3.42     5.155523     20.32468     78.00808         7     1.060     0.566  46.45   0
       158    289.2342    600.3823 300.0769572 +22.6477911     426.6973     72.04002      2.016     5.03     4.932511     20.32468     40.15192         7     1.302     0.751 -36.30   0
       159    890.4017    599.8948 300.2644090 +22.8276871     1071.158      71.9482      2.323     6.70     5.026613     20.32468     87.84534        19     2.190     0.825   4.63   0
       160    636.1056    598.5052 300.1855743 +22.7511588     187.6663     72.20497      1.186     3.73     5.213523     20.32468     35.27996         6     0.801     0.500   0.65   0
       161    453.3660    593.8315 300.1301709 +22.6950853     707.3887     72.05836      1.463     3.54      5.03094     20.32468     93.75668        11     0.956     0.881  46.28   0
       162    601.4822    592.2116 300.1768299 +22.7389824     489.0796      72.0033      1.407     3.44     5.355185     20.32468      54.9841        10     0.925     0.736   7.37   0
       163    648.5446    591.0043 300.1918866 +22.7527284     510.6258      72.0033      1.396     2.74     5.167485     20.32468     76.96644         7     0.814     0.666  19.94   0
       164    619.1182    590.3544 300.1829280 +22.7437301     449.2246     72.02166      1.338     3.47      5.31022     20.32468     60.67173        12     1.015     0.842   1.97   0
       165    497.6828    589.6227 300.1453376 +22.7071511       903.01      72.0033      1.492     2.98     5.173214     20.32468     104.0286        13     0.961     0.857  45.02   0
       166    931.4235    585.2049 300.2819780 +22.8357409     3293.202      72.0033      1.648     3.37     4.946466     20.32468     303.2928        34     1.286     1.276 -53.51   0
       167    463.2379    584.9751 300.1361207 +22.6954989     1663.466     72.05836      1.445     3.01     5.067404     20.32468     179.4317        19     1.068     0.989  30.94   0
       168    828.4131    583.2781 300.2504702 +22.8043570      246.119     72.05836      1.535     3.34     5.055981     20.32468     46.44482         5     0.959     0.405  12.75   0
       169    438.0992    580.2616 300.1298241 +22.6866148     286.6701     72.11337      1.288     4.65     5.010511     20.32468     41.03633         7     1.052     0.584 -17.81   0
       170     25.0907    578.3357 300.0019780 +22.5622920     5122.358     72.15002      1.884     3.57     5.547421     20.32468     499.6909        44     1.503     1.379  23.63   0
       171    492.0720    575.3469 300.1482261 +22.7013702     362.8366     72.02166      1.599     5.01     5.167352     20.32468     34.86815         8     1.165     0.611  12.90   0
       172    326.5262    571.7136 300.0978706 +22.6507343     9112.795     72.16834      1.562     2.95     4.954105     20.32468     1083.844        42     1.266     1.229  36.56   0
       173    449.0203    568.7521 300.1369617 +22.6865807     9079.163     72.07671      1.445     2.82     5.051985     20.32468     1003.932        40     1.205     1.169  11.88   0
       174    694.9564    565.8941 300.2145055 +22.7594096     356.6309     72.05836      1.169     3.71     5.134109     20.32468     46.21326         5     0.642     0.617 -81.61   0
       175     93.2496    564.7693 300.0275685 +22.5788314     347.8472     72.07671      2.273     4.33     4.978449     20.32468     28.52785         7     1.145     0.465 -58.40   0
       176    945.4306    560.3806 300.2944101 +22.8327952      12532.2     72.04002      1.636     3.09     4.903785     20.32468     1216.054        48     1.340     1.315 -79.49   0
       177    860.8215    563.0052 300.2671616 +22.8082295     1881.295     72.02166      1.507     3.39     5.083951     20.32468     164.2846        23     1.218     0.990 -46.02   0
       178    509.6012    558.3824 300.1591938 +22.7017475     11770.94     71.94821      1.481     2.73     5.254809     20.32468     1388.978        47     1.243     1.202  48.28   0
       179    679.2334    554.5297 300.2132951 +22.7514366     589.7549     72.04002      1.634     4.03     5.171539     20.32468     61.60774        11     1.057     0.805 -37.64   0
       180    236.9246    553.7213 300.0758346 +22.6187205     1407.028     72.15002      1.688     3.44     4.912369     20.32468      157.647        20     1.194     1.109  22.82   0
       181    395.5118    553.0633 300.1253973 +22.6660463     218.0147     72.15002      1.153     2.90     4.995008     20.32468     38.08358         6     0.769     0.500 -88.85   0
       182    484.0249    551.3337 300.1535173 +22.6920626     388.4167     72.02166      1.317     3.46     5.165787     20.32468     51.97444         7     0.799     0.700  48.06   0
       183    441.2725    546.5338 300.1417635 +22.6778786     4456.425     72.07671      1.446     2.65     5.059381     20.32468     565.8278        33     1.174     1.145  43.29   0
       184    784.1580    546.6447 300.2485651 +22.7805807     873.8575      72.1317      1.510     3.12     5.082889     20.32468     96.11678        16     1.012     0.998 -39.99   0
       185    419.5819    545.0094 300.1355054 +22.6709436     1275.721     71.98495      1.457     2.84     5.009318     20.32468     146.5306        17     1.044     0.937  80.11   0
       186    173.8748    544.5397 300.0592053 +22.5971902     701.4424     72.09504      1.506     2.74     4.819919     20.32468     93.06235        12     0.888     0.883  26.71   0
       187    861.2538    542.3422 300.2740060 +22.8024188      1600.82     72.09504      1.537     3.08      5.11814     20.32468      166.829        22     1.123     1.061  16.62   0
       188    108.1997    542.0825 300.0395819 +22.5768015     340.8129     71.91145      1.698     4.97     4.891959     20.32468     33.13857         7     1.119     0.625 -64.98   0
       189    961.1130    541.3055 300.3054976 +22.8320030     228.7383     72.22327      1.344     3.05     4.885603     20.32468     37.45555         5     0.921     0.720  16.90   0
       190    741.7212    539.3298 300.2377089 +22.7657754     769.8439     72.15002      1.427     3.30     5.195104     20.32468     96.56104        16     1.068     0.965  -2.70   0
       191    557.9208    534.1408 300.1821150 +22.7092542     206083.8     72.07671      1.432     2.78     5.477582     20.32468     21811.38       194     1.491     1.399 -19.11   0
       192    243.9286    533.9324 300.0844381 +22.6151380     3557.835     72.07671      1.559     3.17     4.894974     20.32468     345.3838        29     1.240     1.153  36.01   0
       193    809.9880    530.5114 300.2618581 +22.7836746      487.609     71.98495      1.565     3.74     5.130963     20.32468     53.80459        10     0.997     0.807 -47.87   0
       194    422.7192    531.3148 300.1409282 +22.6679501     272.0815     72.16834      1.727     4.90     5.039419     20.32468     35.72083         6     1.103     0.617 -21.78   0
       195    589.2980    520.8173 300.1962156 +22.7148218     305.1489     71.96658      1.640     4.62     5.503621     20.32468     33.31705         6     1.097     0.553  19.78   0
       196    448.5666    514.4343 300.1544559 +22.6708434     2764.547     72.11337      1.506     2.63     5.177446     20.32468     307.9716        29     1.229     1.112 -54.40   2
       197    292.9468    516.9939 300.1051873 +22.6249616     455.3585      72.0033      1.443     3.33     4.887779     20.32468     51.83236         9     0.803     0.766 -11.61   0
       198    679.5862    510.2616 300.2277776 +22.7388207     382.7929      72.0033      1.648     4.14     5.253958     20.32468      39.9277         7     0.889     0.640  18.12   0
       199    553.3652    509.9965 300.1885344 +22.7009533     233.4489     72.04002      1.468     4.25     5.667477     20.32468      28.4763         5     0.826     0.623  -0.43   0
       200    766.0681    502.8443 300.2571451 +22.7625762     438.0109      72.0033      1.544     4.50     5.263656     20.32468     50.28904         7     0.868     0.662 -71.73   0
       201    845.6208    500.8548 300.2825994 +22.7858131     1736.601     72.04002      1.525     2.94     5.391863     20.32468      183.069        22     1.183     1.045 -11.87   0
       202    716.8109    498.3534 300.2432465 +22.7465415     2691.656     72.05836      1.441     2.68     5.269671     20.32468     310.2452        25     1.127     1.085  15.57   0
       203     76.9156    498.3592 300.0440499 +22.5548757     340.1513      72.0033      1.453     3.42     5.185018     20.32468     31.95289         5     0.799     0.423 -19.50   0
       204    961.4426    496.1454 300.3202625 +22.8191154     459.0523     72.04002      1.425     3.59     4.901775     20.32468     51.47613         7     0.890     0.558  -8.17   0
       205    621.1250    494.9854 300.2145180 +22.7169286     452.0747     72.05836      1.532     4.78     5.479512     20.32468     41.91287        10     1.096     0.681  66.36   0
       206    504.1060    494.1847 300.1783243 +22.6816597     688.2166     71.96658      1.354     3.37     5.561106     20.32468     76.64448        12     1.000     0.824  59.03   0
       207    974.1141    492.6274 300.3253589 +22.8218948     1366.946     72.04002      1.710     3.20     4.895261     20.32468     129.1282        17     1.181     0.943  49.61   0
       208    959.5761    492.2270 300.3209521 +22.8174301     787.2349     72.02166      1.628     2.88     4.903808     20.32468       82.127        10     1.047     0.607  24.94   0
       209    845.8950    490.8581 300.2859301 +22.7830211     2128.471     72.11337      1.676     4.10     5.462156     20.32468     222.2585        28     1.495     1.101  68.57   0
       210    599.0974    489.0217 300.2095905 +22.7086199     530.4368     71.96658      1.289     2.63     5.593304     20.32468     76.75726         9     0.812     0.708 -20.49   0
       211    437.4686    487.3255 300.1598004 +22.6597327     418.1227     72.11337      1.479     3.03     5.191317     20.32468     54.95483         8     0.911     0.624  72.50   0
       212    385.1360    488.2420 300.1432111 +22.6443215     388.0716     72.04002      1.412     4.06     5.109482     20.32468     55.82242         7     0.991     0.674  67.53   0
       213    884.0517    485.9734 300.2994180 +22.7930346     4266.884     72.05836      1.472     3.02      5.36961     20.32468     437.2721        30     1.193     1.142  45.22   0
       214    598.8430    485.0729 300.2107930 +22.7074089      400.579     72.02166      1.561     3.20     5.607262     20.32468     49.41596         7     0.871     0.604 -31.80   0
       215    975.9761    476.7337 300.3310995 +22.8178810     818.9029     72.02166      1.587     3.85     4.895116     20.32468     75.27527        15     1.111     1.012 -67.41   0
       216    116.1021    476.2852 300.0633971 +22.5602839     993.2385     72.20497      1.532     2.87     4.945032     20.32468     97.82373        14     0.998     0.853   4.60   0
       217    916.0906    473.9898 300.3133035 +22.7991752     225.7119     71.98495      1.374     5.45     5.063963     20.32468      27.0159         6     1.427     0.586  24.25   0
       218    971.9428    466.1179 300.3332867 +22.8136212     364.9992     72.09504      1.326     3.91     4.894908     20.32468     51.50658         6     0.775     0.566 -35.55   0
       219    108.9264    466.0718 300.0644809 +22.5552016     391.7793     72.09504      1.437     3.70     5.027757     20.32468      45.3216         8     1.069     0.637  -3.63   0
       220    716.2476    460.2589 300.2554364 +22.7354233     524.6134     72.09504      1.645     3.67     5.348386     20.32468      61.5356        10     0.947     0.835  16.50   0
       221    605.3205    458.0161 300.2215935 +22.7015731     350.7913     72.05836      1.245     4.85     5.546104     20.32468     39.39377         7     1.049     0.636 -73.17   0
       222    657.3606    456.1361 300.2384201 +22.7166117     660.4999     72.02166      1.281     3.18     5.379317     20.32468     104.8137        11     0.905     0.821 -48.08   0
       223    972.1642    448.8806 300.3389507 +22.8087299     549.8103     71.98495      1.566     3.75     4.889978     20.32468     61.60089        10     0.997     0.792 -77.72   0
       224    718.1298    448.6955 300.2597762 +22.7326628     876.6104     72.15002      1.361     2.67     5.377894     20.32468     107.9962        12     0.911     0.815  44.07   0
       225    875.5923    444.8202 300.3101370 +22.7786701     1085.291      72.0033      1.539     3.12     5.452953     20.32468     124.8663        17     1.110     0.986 -32.75   0
       226    833.7083    442.6280 300.2977842 +22.7655073     319.6534     72.02166      1.465     4.06     5.505736     20.32468     38.86505         7     1.007     0.468  -7.71   0
       227    859.6772    441.3127 300.3063109 +22.7728996     583.2051     72.18666      1.544     3.16     5.549409     20.32468      65.9366         9     0.890     0.722   5.51   0
       228    603.9882    439.1230 300.2273102 +22.6957447     3305.504     72.04002      1.407     2.62      5.51512     20.32468     371.6093        27     1.155     1.043  79.86   0
       229    964.4214    437.9806 300.3400722 +22.8032787     538.7753     72.04002      1.477     2.87     4.894857     20.32468     70.18683        10     0.920     0.797  38.00   0
       230     80.4522    430.1903 300.0672731 +22.5363683      305.973     72.04002      1.323     2.28     5.466762     20.32468     40.86438         5     0.697     0.454  67.31   0
       231    608.8714    427.3737 300.2326447 +22.6938298     379.9415     72.04002      1.387     3.47     5.488599     20.32468     36.78158         5     0.755     0.460 -14.60   0
       232    376.3833    426.9676 300.1603734 +22.6240998     321.1663     72.02166      1.282     3.84      5.17573     20.32468     42.07933         6     1.025     0.413  74.13   0
       233    443.7429    425.8225 300.1817151 +22.6439434     472.9597     72.04002      1.578     4.02     5.288875     20.32468      46.8479         8     0.925     0.648 -81.80   0
       234   1015.4524    418.4369 300.3623418 +22.8129218     1401.466     72.05836      1.632     3.30     4.831808     20.32468     165.5808        20     1.182     1.078  74.75   0
       235    973.6945    416.9381 300.3497952 +22.8000003     1004.091     72.13171      1.493     3.22     4.878396     20.32468     113.4782        19     1.193     1.047  25.13   0
       236    887.2531    418.2999 300.3223817 +22.7745325     444.8711     72.13171      1.341     2.99     5.327703     20.32468     58.76962         8     0.766     0.705 -50.01   0
       237    714.6237    413.0368 300.2702558 +22.7213628     1028.655     72.05836      1.345     2.51     5.449207     20.32468      136.012        16     0.995     0.937  68.10   0
       238    510.5876    413.6316 300.2064870 +22.6604562     525.5688     72.02166      1.285     2.86     5.471001     20.32468       68.831         9     0.919     0.733 -82.27   0
       239    218.5734    411.1746 300.1163937 +22.5722936     757.5807      72.0033      1.779     4.23     4.937996     20.32468     70.92932        15     1.140     1.087  56.68   0
       240    280.9566    406.7694 300.1372304 +22.5897161     3820.119     72.07671      1.485     2.84     5.150498     20.32468     453.2638        28     1.193     1.087  56.56   0
       241   1014.1000    405.6706 300.3660626 +22.8088449     4364.132     72.16834      1.596     3.01     4.843693     20.32468     441.8064        33     1.306     1.166 -45.35   0
       242    228.1158    401.5220 300.1224940 +22.5723803     7556.947     72.15002      1.532     2.82     4.988825     20.32468     867.2616        45     1.316     1.267  55.39   0
       243    607.2924    401.5320 300.2405386 +22.6859301     293.6879     72.16834      1.122     3.35      5.43592     20.32468     48.64621         6     0.901     0.454 -88.22   0
       244    993.9983    396.7418 300.3626859 +22.8002640     1796.926     71.98495      1.522     3.20     4.871118     20.32468     190.0036        22     1.196     1.030 -48.55   0
       245    368.9899    395.8520 300.1681688 +22.6129472     4848.291     72.04002      1.420     2.79     5.284197     20.32468     610.1708        33     1.185     1.126  74.86   0
       246    613.1955    392.6362 300.2452645 +22.6851403     18656.19     72.05836      1.402     2.58     5.409206     20.32468     2361.919        55     1.267     1.184  83.90   0
       247    630.7979    392.7081 300.2507261 +22.6904298      809.048      71.9482      1.807     5.30     5.393082     20.32468     67.51343        16     1.522     0.821 -42.82   0
       248    472.4338    389.8086 300.2023350 +22.6421871     295.3092     72.04002      1.596     3.79     5.453401     20.32468     34.87141         6     1.067     0.663   3.24   0
       249    857.0073    389.5469 300.3222772 +22.7572148     306.4784     72.04002      1.382     3.94     5.510527     20.32468     38.92361         5     0.908     0.489  -7.02   0
       250    810.1790    382.9762 300.3098039 +22.7413145     277.5929     72.04002      1.253     4.62     5.446079     20.32468     42.63402         7     0.945     0.640  68.18   0
       251    233.9984    380.1655 300.1312532 +22.5680093     194.1856      72.0033      1.292     3.79     5.098868     20.32468     38.13738         5     0.824     0.500 -51.33   0
       252    946.8649    375.5846 300.3548419 +22.7800800     807.3729     72.02166      1.508     3.30     4.918387     20.32468     104.0072        15     1.087     0.933   1.55   0
       253    167.8790    372.5346 300.1131635 +22.5460105     1954.466     72.15002      1.538     3.19     5.111854     20.32468      236.146        23     1.196     1.102  -7.29   0
       254    181.6327    368.0714 300.1188889 +22.5488492     221.0329     72.04002      1.506     5.15      5.13473     20.32468     34.36115         5     1.002     0.747 -23.06   0
       255    553.8532    362.1017 300.2366832 +22.6586006     6665.796      72.1317      1.385     2.69     5.316582     20.32468     796.1191        35     1.185     1.098  63.69   0
       256    538.8030    363.9918 300.2313818 +22.6546385      131.279     71.85629      1.085     3.83     5.335043     20.32468     23.67346         5     0.828     0.508  32.19   0
       257    967.6429    362.6638 300.3655182 +22.7825781     1276.654     72.04002      1.537     2.83     4.910783     20.32468     144.5761        18     1.141     0.966 -34.14   0
       258    268.5256    361.1203 300.1481734 +22.5728814      752.896     72.15002      1.581     3.83     5.217978     20.32468     70.03655        17     1.144     1.015 -85.82   0
       259    813.7576    354.1701 300.3202662 +22.7341016     286.5249     72.07671      0.980     2.43     5.408098     20.32468     54.78595         5     0.862     0.348  46.13   0
       260    126.3062    354.1006 300.1062163 +22.5282623     538.9595     72.22327      1.777     3.96     5.375644     20.32468     58.16204         9     1.124     0.641  45.99   0
       261    757.8918    350.9755 300.3038821 +22.7164677     1217.489     71.98495      1.511     3.90     5.377011     20.32468     120.9711        17     1.224     0.910  84.41   0
       262    667.6348    352.1812 300.2753551 +22.6898052     479.0578     72.04002      1.413     3.57     5.309281     20.32468     52.39253         8     0.987     0.614  27.41   0
       263    460.4562    348.2829 300.2120778 +22.6266687     6377.497     72.13171      1.435     2.59     5.477496     20.32468     724.7586        37     1.218     1.148 -82.89   0
       264    949.8362    343.3869 300.3662155 +22.7717069     530.0494     72.02166      1.372     3.14     4.919744     20.32468     70.41254        12     1.024     0.780   0.35   0
       265    852.4910    342.9032 300.3360022 +22.7424492     1353.558     72.22327      1.384     2.64     5.389328     20.32468     169.1224        20     1.127     0.965  67.36   0
       266    445.1514    336.9173 300.2109992 +22.6188205     423.8516     72.04002      1.287     3.29     5.464851     20.32468     60.30859        11     0.978     0.736 -86.51   0
       267    527.6461    335.2831 300.2372202 +22.6430476     539.8494     72.02166      1.808     3.42     5.315011     20.32468     62.30129        10     0.998     0.771 -18.97   0
       268    508.5760    332.8038 300.2320847 +22.6366264     250.1529      72.0033      1.113     3.39     5.370676     20.32468     38.79074         5     0.741     0.448  69.31   0
       269    825.3411    330.6127 300.3315213 +22.7307923     538.6702     72.02166      1.385     2.67     5.248561     20.32468     76.44255         9     0.854     0.716 -32.42   0
       270    107.3125    329.9494 300.1081449 +22.5156369     278.8449     72.04002      1.379     3.59     5.490855     20.32468     33.53004         5     0.813     0.488 -33.43   0
       271    348.0653    327.4236 300.1838557 +22.5870226     2628.042     72.02166      1.471     2.64       5.4686     20.32468     304.2828        27     1.220     1.068  65.70   0
       272     66.5994    324.6722 300.0971996 +22.5019238     1020.098     71.92983      1.636     2.78     5.511119     20.32468     141.2501        18     1.080     1.043 -19.36   0
       273    695.7095    322.4933 300.2937366 +22.6896714       233.18     72.20497      1.392     4.06     5.326408     20.32468     44.18491         7     0.998     0.698  -4.45   0
       274    295.0161    320.5929 300.1695625 +22.5691739      206.678     71.96658      1.677     3.41     5.373408     20.32468     31.51632         5     0.759     0.602 -87.42   0
       275    317.3752    316.8393 300.1777377 +22.5747914     30231.53     72.07671      1.495     2.75     5.420664     20.32468     3679.962        68     1.346     1.263  74.91   0
       276    852.0897    314.6380 300.3450463 +22.7341997     1466.987     72.02166      1.433     2.56     5.148998     20.32468     194.2355        19     1.057     0.971  52.89   0
       277    807.7620    312.3157 300.3319742 +22.7202711     276.1252     72.02166      1.256     3.38     5.077092     20.32468     48.92346         5     0.776     0.642  67.69   0
       278     13.7107    304.6627 300.0872507 +22.4803320     4919.872     72.13171      1.732     3.33     5.402187     20.32468     521.8344        36     1.340     1.326  37.50   0
       279    767.5140    303.5589 300.3222640 +22.7057116     518.8723     72.02166      1.348     3.74     5.180358     20.32468     62.48782        11     1.051     0.793  75.97   0
       280    191.7583    303.1921 300.1430834 +22.5332495     438.6926     72.05836      1.480     3.09     5.460557     20.32468     57.92324         8     0.989     0.530 -36.31   0
       281    415.9244    301.9416 300.2132445 +22.6000195     454.6391     72.09504      1.246     3.25     5.430886     20.32468     80.80251        10     1.010     0.741  79.11   0
       282    727.9075    296.7131 300.3121360 +22.6918929     1941.497     72.20497      1.467     2.92     5.332062     20.32468     236.1306        25     1.199     1.041 -84.00   0
       283    536.1896    291.5325 300.2540725 +22.6330300     496.0166     72.04002      1.717     3.29     5.231212     20.32468     45.14465         8     0.981     0.773 -46.80   0
       284    943.1656    289.7472 300.3815342 +22.7542806     579.4013     72.05836      1.337     3.56     4.906396     20.32468     85.09751        14     1.148     0.857  78.11   0
       285    796.6139    283.1592 300.3379548 +22.7085505     162.0157     72.05836      1.162     3.56     4.908305     20.32468     39.35114         5     0.876     0.540  40.13   0
       286    389.4296    281.2493 300.2117074 +22.5861409     2115.834     72.05836      1.614     3.30      5.44975     20.32468     268.4605        24     1.352     1.013  53.40   0
       287    602.0108    280.3646 300.2782004 +22.6495194     344.1521     72.04002      1.057     3.58     5.299816     20.32468     45.19844         7     0.739     0.674   8.78   0
       288    829.0584    274.4848 300.3508866 +22.7157610     537.2891     72.15002      1.300     2.87     4.888478     20.32468     86.44794         9     1.022     0.544 -18.19   0
       289    727.8708    272.1677 300.3200855 +22.6848235     312.1447     72.04002      1.355     3.38     5.316754     20.32468     39.62571         5     0.740     0.686  27.64   0
       290    711.0239    272.2872 300.3147949 +22.6798174     341.3048      72.0033      1.136     3.10     5.314445     20.32468     71.79691         7     0.975     0.615  -7.79   0
       291    272.8136    261.2575 300.1818979 +22.5454789     285.8108      72.0033      1.391     3.59     5.531028     20.32468     34.64351         5     0.965     0.386  86.48   0
       292    465.4387    260.7102 300.2420335 +22.6029930     1199.524     72.02166      1.353     2.46     5.437492     20.32468     161.6773        15     1.068     0.840  45.73   0
       293     37.9625    261.1372 300.1089033 +22.4751010      453.745     72.05836      2.359     3.79      5.38101     20.32468     30.33123         5     0.805     0.512  61.48   0
       294    550.8714    258.8611 300.2692417 +22.6280327     155.3169     72.07671      1.109     3.85     5.280597     20.32468     40.49833         5     0.797     0.534 -39.63   0
       295    977.3756    257.1943 300.4027679 +22.7551449     314.5116     72.02166      1.406     3.27     5.085779     20.32468     42.83213         5     1.113     0.279 -33.66   0
       296    848.9415    254.2923 300.3636369 +22.7159000     299.7534     72.09504      1.430     2.18     4.887975     20.32468     53.94179         5     0.742     0.402 -19.94   0
       297    710.2603    252.5668 300.3209522 +22.6739179     2149.823     72.07671      1.412     2.55     5.307171     20.32468     284.9621        23     1.226     0.997  63.05   0
       298    971.6827    247.1269 300.4042561 +22.7505457     3259.363     72.16834      1.561     2.85     5.119267     20.32468     352.8803        29     1.220     1.151  62.84   0
       299    418.8062    236.4032 300.2353957 +22.5820477      560.544     71.85629      1.265     2.97      5.50867     20.32468     77.98855        10     0.958     0.719   5.22   0
       300    124.2880    230.6133 300.1456374 +22.4921944       567.48     71.98495      1.437     2.78     5.465184     20.32468     66.71592        10     0.882     0.737  44.33   0
       301     93.6483    230.4415 300.1361667 +22.4829675     1426.223     72.07671      1.871     4.31     5.385516     20.32468     135.1591        24     1.496     1.153 -19.91   0
       302    987.2086    227.7422 300.4153878 +22.7496101     416.0386     72.02166      1.133     2.26     5.314434     20.32468     78.13912         8     0.800     0.681 -74.27   0
       303    841.4575    227.8199 300.3698870 +22.7060462     318.4108     72.04002      1.367     3.29     4.843965     20.32468     39.88031         5     1.145     0.274  34.57   0
       304    831.3366    224.4240 300.3678315 +22.7020423     346.3504     72.02166      1.432     3.28     4.822997     20.32468     44.38296         8     0.901     0.673  -1.82   0
       305    177.5378    222.1502 300.1649407 +22.5057120     661.3986     72.09504      1.564     4.85      5.57978     20.32468     56.61087        10     1.112     0.861  49.28   0
       306    972.5712    220.8568 300.4130522 +22.7432521     363.5411     72.04002      1.167     2.95     5.243212     20.32468     44.84652         7     0.811     0.620  19.93   0
       307     32.6424    219.6862 300.1206898 +22.4616042     425.0896      72.0033      1.746     5.24     5.410832     20.32468     38.20391         7     1.412     0.548 -16.42   0
       308    854.0195    216.3136 300.3775363 +22.7064932     536.4491     71.96658      1.783     4.90     4.905109     20.32468      54.6651        10     0.959     0.886 -21.01   0
       309    782.1005    214.4059 300.3557249 +22.6844336     597.3549     71.92983      1.238     2.94     4.960522     20.32468      74.8768         8     0.877     0.616  15.74   0
       310    880.2288    203.1437 300.3899824 +22.7105424     2124.021     72.04002      1.447     2.75     4.983581     20.32468     260.1105        24     1.135     1.077  78.91   0
       311    298.6445    200.2749 300.2097083 +22.5356917     2106.009     72.02166      1.474     2.65     5.576263     20.32468     259.6203        23     1.128     1.072  49.76   0
       312    376.3926    195.6895 300.2353924 +22.5576499     1033.889      71.9482      1.632     3.73     5.505728     20.32468     104.5654        19     1.250     1.011 -30.50   0
       313    778.4537    195.1130 300.3608431 +22.6777932     501.1618     72.07671      1.365     2.68      5.06885     20.32468     66.86435         8     0.802     0.698 -58.15   0
       314    886.2155    191.6291 300.3955834 +22.7090197     500.8739     72.04002      1.669     3.34     5.030118     20.32468     57.76747         9     1.048     0.828 -32.58   0
       315    193.3889    187.2346 300.1811903 +22.5004285     724.7888     72.02166      1.560     3.76     5.619782     20.32468     99.94588        14     1.174     0.938  51.67   0
       316    311.9703    186.9932 300.2181609 +22.5358647     298.7019     72.04002      1.429     3.72     5.557099     20.32468     30.12076         5     0.633     0.629  -2.41   0
       317    731.3569    184.5595 300.3495800 +22.6606700     1626.678     72.13171      1.360     2.59     5.290644     20.32468     222.6767        18     1.041     0.947  88.95   0
       318    796.3620    184.2623 300.3699454 +22.6800282     548.2921     72.05836      1.397     3.31     5.038923     20.32468     69.97583         9     0.962     0.687 -21.89   0
       319    215.1106    181.1298 300.1899258 +22.5051791     406.9931     72.20497      1.279     3.66     5.566528     20.32468      56.5022         9     0.943     0.670   4.02   0
       320   1002.6905    177.3186 300.4365690 +22.7397276     831.1427     72.15002      1.520     3.44     5.412728     20.32468     89.39332        12     0.941     0.902 -54.75   0
       321    504.3966    177.1473 300.2812600 +22.5906326     418.9882     72.04002      1.445     4.07     5.427999     20.32468      49.3839         8     1.013     0.798 -54.84   0
       322    735.2629    176.1138 300.3535358 +22.6594091     725.0279     72.15002      1.374     2.85     5.288594     20.32468     83.36301        11     0.930     0.766   3.78   0
       323    655.9274    175.3460 300.3290547 +22.6354553     1228.046     72.02166      1.356     2.27     5.316075     20.32468     178.8751        18     1.022     0.917  68.51   0
       324    476.9925    172.0179 300.2743882 +22.5809567     285.9424      72.0033      1.012     2.88     5.439903     20.32468       68.486         7     0.944     0.518 -29.93   0
       325    851.4028    166.9067 300.3927385 +22.6914960      1333.52      71.9482      1.466     2.92     5.101481     20.32468     151.5396        18     1.083     0.967 -88.03   0
       326    582.0260    167.0428 300.3087179 +22.6109569     887.2201     72.05836      1.339     2.54     5.345098     20.32468     127.8984        14     0.930     0.881  68.88   0
       327    863.3250    166.0488 300.3967356 +22.6948144     864.2206     72.04002      1.486     3.06     5.098522     20.32468      93.0041        11     0.913     0.830  -2.37   0
       328   1023.4721    156.8641 300.4496869 +22.7400530     910.0904     57.23336      1.202     3.57     5.449119     20.32468     149.1625        11     1.168     0.570  82.18  24
       329    980.0305    156.3760 300.4362858 +22.7269258     1007.895     72.04002      1.323     2.45     5.344774     20.32468     137.4159        17     1.111     0.910  36.46   0
       330      3.9180    152.9669 300.1333904 +22.4338390     456.6758     68.23282      1.568     5.16     5.862891     20.32468     46.18446         7     1.090     0.691 -15.05  16
       331    213.8455    148.8440 300.1999976 +22.4955240     698.4146     72.07671      1.622     4.08     5.622133     20.32468     80.14017        13     1.306     0.861  42.63   0
       332     75.8646    143.7216 300.1587499 +22.4527330     2213.214     72.13171      1.669     3.26     5.809979     20.32468     235.1179        30     1.333     1.235  33.43   0
       333    899.1916    141.1341 300.4160012 +22.6983701     748.6606     72.04002      1.510     3.52     5.272838     20.32468     84.61686        16     1.176     0.958 -84.67   0
       334     26.1504    140.6739 300.1442844 +22.4369678     445.5291     72.04002      1.523     5.46     5.843788     20.32468     42.60752         9     1.318     0.638 -80.30   0
       335    233.3363    137.0510 300.2098831 +22.4979711       5581.6     72.09504      1.544     2.93      5.64009     20.32468     558.6492        35     1.286     1.205  59.17   0
       336     17.7528    131.6664 300.1445937 +22.4318654     1212.783     72.05836      1.681     3.44     5.846938     20.32468     139.4452        21     1.246     1.100  -2.71   0
       337    216.9246    128.2072 300.2076440 +22.4905161     685.1859     71.96658      1.466     3.05     5.703244     20.32468     63.66087         9     0.895     0.669 -20.56   0
       338    877.6379    118.8704 300.4164933 +22.6855188     3720.529      72.0033      1.606     3.05     5.442411     20.32468     362.3345        35     1.350     1.224 -70.94   0
       339    981.2197    117.7082 300.4491909 +22.7161519     2832.361     71.96658      1.598     3.13     5.365708     20.32468     291.7947        28     1.302     1.097 -64.47   0
       340    427.0185    114.1600 300.2775803 +22.5493676     517.5868     72.05836      1.203     2.73     5.505394     20.32468     80.49876         9     0.772     0.738 -61.75   0
       341    849.7550    111.8541 300.4100694 +22.6751626     628.0967     72.07671      0.587     0.91     5.493531     20.32468      411.975         5     0.510     0.339  15.05   0
       342    351.1934    105.6565 300.2567316 +22.5242295     678.4887     72.02166      1.705     4.15     5.532266     20.32468     72.84237        14     1.095     1.036  52.74   2
       343    355.5344    104.5194 300.2584512 +22.5252019     237.5501     72.15002      1.168     3.20     5.521134     20.32468     40.45547         5     0.749     0.450 -67.75   3
       344    117.3218    102.6917 300.1849363 +22.4533615     717.9579     72.18666      1.835     3.69     5.904836     20.32468     72.58799        13     1.154     0.879  70.68   0
       345    478.4286    101.1757 300.2977968 +22.5610190     1756.774     72.04002      1.383     2.59     5.497946     20.32468     220.8346        21     1.170     0.962 -89.96   0
       346    406.0140    102.0284 300.2749724 +22.5395939     428.3862     72.05836      1.370     4.38     5.507673     20.32468     51.52433         9     0.969     0.724  18.40   0
       347    540.2003    100.2652 300.3173317 +22.5792401     450.1023     72.02166      1.677     3.99     5.513826     20.32468     54.94498         9     0.969     0.800  59.21   0
       348    221.6402     96.8288 300.2192799 +22.4829112     409.1617     72.05836      1.598     4.40     5.818761     20.32468     50.12962         6     0.932     0.643   8.29   0
       349    766.7518     90.8762 300.3909818 +22.6443060     503.6772     72.04002      1.613     3.67     5.492899     20.32468      54.3708         5     0.918     0.430 -87.32   0
       350    912.3372     86.4770 300.4378175 +22.6865707     463.7507     72.11337      1.519     4.66     5.525324     20.32468     151.7765         8     1.471     0.419 -81.03   0
       351    252.3436     80.9331 300.2339826 +22.4875346     5918.383     72.09504      1.554     3.01     5.864321     20.32468      610.183        40     1.387     1.185  69.94   0
       352    758.7883     81.7689 300.3914501 +22.6393042     317.9024     72.04002      1.086     3.51     5.616529     20.32468     42.20865         6     0.772     0.538  43.89   0
       353    103.8652     80.3900 300.1879790 +22.4429247     564.7127      72.0033      1.335     3.77     5.853494     20.32468     80.50816        10     1.065     0.731 -52.61   0
       354    881.7484     78.8181 300.4307560 +22.6752215     305.5344     72.02166      1.336     2.60     5.668431     20.32468      47.0099         6     0.751     0.526  34.03   0
       355    223.7238     75.3656 300.2268830 +22.4773670     375.1711     72.02166      1.582     3.87     5.844082     20.32468     33.84777         5     0.991     0.432 -13.75   0
       356     13.5307     71.7845 300.1626861 +22.4134008     383.3058     72.05836      1.664     5.34     5.768613     20.32468     36.22443         7     1.199     0.671 -13.12   0
       357    498.4631     66.4014 300.3153050 +22.5570145     6348.906     72.02166      1.539     2.70     5.640473     20.32468     744.2686        37     1.304     1.154  70.21   0
       358    384.0812     66.4226 300.2796824 +22.5227939     587.3259      72.0033      1.315     2.56     5.566003     20.32468      80.4209        11     0.917     0.731  87.50   0
       359    555.5532     61.5041 300.3346750 +22.5726863      281.651     72.05836      1.098     2.98      5.65244     20.32468     54.00379         6     0.859     0.705  81.93   0
       360    252.2205     60.5866 300.2405370 +22.4816501     231.7437      72.0033      1.319     3.42     5.883113     20.32468     34.31684         5     0.763     0.442 -20.38   0
       361    751.0690     56.2438 300.3973144 +22.6296516     833.8917      72.0033      1.549     2.87     5.999363     20.32468     97.84998        13     1.051     0.786 -16.95   0
       362    843.6698     55.3317 300.4264882 +22.6570777     425.0758     72.09504      1.156     3.05     5.779461     20.32468     56.44967         7     0.966     0.487 -28.38   0
       363    191.5646     50.2272 300.2250245 +22.4605153     437.8517     72.05836      1.379     3.27     5.920819     20.32468     56.17495         7     0.889     0.633  41.50   0
       364    550.2057     49.1758 300.3370036 +22.5675409     455.5126     72.02166      1.440     3.78      5.69934     20.32468     50.66297         9     0.875     0.771  -9.63   0
       365    626.8979     46.5607 300.3617464 +22.5897297     6271.144     72.04002      1.473     2.79     5.875961     20.32468     816.0163        36     1.288     1.121  86.60   0
       366    401.7321     45.3405 300.2920080 +22.5220149     1439.059     72.07671      1.534     2.85       5.4433     20.32468     181.4942        23     1.195     1.135 -83.92   0
       367    667.9459     44.0998 300.3753365 +22.6012990     822.2812      72.1317      1.355     2.96     6.243789     20.32468     99.99214        13     1.033     0.794  42.84   0
       368    737.6929     41.7801 300.3978304 +22.6214901     365.3027     71.96658      1.530     4.17     6.293711     20.32468      41.4906         5     0.928     0.534 -37.84   0
       369    683.9380     39.9143 300.3816773 +22.6048777     575.3931     72.16834      1.377     3.45      6.34205     20.32468     73.86691        10     0.976     0.674  68.26   0
       370    953.7723     37.8056 300.4665183 +22.6849474      653.067     72.04002      1.648     3.07     5.875889     20.32468     69.63767        11     0.993     0.763  40.87   0
       371    150.8222     38.1418 300.2162687 +22.4448450     776.2862     72.04002      1.673     3.04     5.905509     20.32468     80.50818        10     0.964     0.685 -24.07   0
       372    722.4697     35.6037 300.3950854 +22.6151606     493.6453     71.98495      1.384     2.96     6.398231     20.32468     76.97305        10     0.975     0.701  35.12   0
       373    670.9894     31.5455 300.3803527 +22.5985975      2667.78     72.04002      1.445     2.60     6.438883     20.32468     383.9282        25     1.265     0.987  78.96   0
       374    686.1144     30.1716 300.3855122 +22.6027256     952.4251     72.04002      1.749     5.37     6.489471     20.32468     80.83768        19     1.689     0.818  64.57   0
       375    311.7311     32.7024 300.2680886 +22.4914475     446.3887     72.16834      1.474     4.47     5.925427     20.32468     61.78415         7     1.035     0.549 -27.50   0
       376    757.6138     23.1975 300.4100622 +22.6221000     1508.048     71.87468      1.414     2.64     6.394357     20.32468     170.8496        21     1.155     1.001  64.06   0
       377    917.4943     21.6445 300.4604341 +22.6694515     202.4275     72.05836      1.196     3.67     5.955894     20.32468     46.82624         5     0.962     0.449 -75.00   0
       378    254.5161   1012.6222 299.9321704 +22.7556697     1003.587      72.0033      2.954     7.46     51.47957     20.32468     32.04572        16     1.525     1.023 -60.11   2
       379    736.3927   1013.7352 300.0818621 +22.9004524     445.7923     72.02166      1.910     5.34      3.47262     20.32468     33.28846         6     1.681     0.478 -58.26  16
       380    300.9867   1011.9290 299.9468527 +22.7694085     1437.058     72.04002      3.261     5.46     7.059483     20.32468       75.405        21     1.419     1.098  81.12   2
       381    298.0000   1012.0181 299.9458945 +22.7685384     628.5918      71.9482      2.209     4.55     7.247663     20.32468     50.64459         7     1.274     0.462  88.52   3
       382    787.2217     12.8560 300.4226450 +22.6279768     365.6634     72.07671      1.219     2.82     6.195469     20.32468     63.42032         6     0.877     0.465 -30.59   0
       383    134.0000   1008.9148 299.8958981 +22.7184552     1175.763     71.91145      2.733     9.82     89.28235     20.32468     52.43759        21     1.798     1.495  70.68   3
       384    135.7014   1005.3907 299.8975734 +22.7179552     972.7834     71.92983      1.357    14.22     85.97766     20.32468      49.8709        29     3.262     1.725  31.38  18
