#   1 NUMBER                 Running object number                                     
#   2 X_IMAGE                Object position along x                                    [pixel]
#   3 Y_IMAGE                Object position along y                                    [pixel]
#   4 ALPHA_J2000            Right ascension of barycenter (J2000)                      [deg]
#   5 DELTA_J2000            Declination of barycenter (J2000)                          [deg]
#   6 FLUX_APER              Flux vector within fixed circular aperture(s)              [count]
#   7 FLUXERR_APER           RMS error vector for aperture flux(es)                     [count]
#   8 FLUX_RADIUS            Fraction-of-light radii                                    [pixel]
#   9 FWHM_IMAGE             FWHM assuming a gaussian core                              [pixel]
#  10 BACKGROUND             Background at centroid position                            [count]
#  11 THRESHOLD              Detection threshold above background                       [count]
#  12 FLUX_MAX               Peak flux above background                                 [count]
#  13 ISOAREA_IMAGE          Isophotal area above Analysis threshold                    [pixel**2]
#  14 A_IMAGE                Profile RMS along major axis                               [pixel]
#  15 B_IMAGE                Profile RMS along minor axis                               [pixel]
#  16 THETA_IMAGE            Position angle (CCW/x)                                     [deg]
#  17 FLAGS                  Extraction flags                                          
         1    681.4122     12.4095 300.4305017 +22.5835854     461.7982     72.83953      1.555     3.49     5.474722     20.58172     74.06956         6     1.207     0.481  84.64   0
         2    118.4724      8.2639 300.2567194 +22.4137477     1112.693     72.98826      1.263     2.58     4.908592     20.58172     142.9295        15     0.969     0.858  87.40   0
         3    359.9665      2.0225 300.3338173 +22.4843241     308.7399      60.6543      1.233     2.86     4.799279     20.58172      50.3019         7     0.878     0.498  48.27  24
         4    382.3278   1012.3321 300.0125510 +22.7810203     454.6078     73.00683      1.385     3.91     3.510244     20.58172     49.79892         9     0.937     0.862  75.35   0
         5    349.6879   1023.7169 299.9986940 +22.7744845     1520.879     56.60835      1.012     2.41     3.175759     20.58172     362.9946        12     1.109     0.528   5.32  24
         6     70.3846   1020.6337 299.9128988 +22.6897175     1979.988     70.59021     17.976    44.17     23.11304     20.58172     69.24007       242     8.507     6.364  18.35  27
         7     95.5619   1009.0600 299.9244864 +22.6939647     812.8018     72.96968      3.611     4.31     20.78876     20.58172     36.90187         5     0.986     0.536  45.62   1
         8    895.9894   1003.9077 300.1752271 +22.9327351     2235.817     72.89534      1.513     3.25     3.592083     20.58172     180.2114        24     1.174     1.086  53.86   0
         9     29.3938   1016.4535 299.9015300 +22.6762053     2922.172     72.93252      6.763    25.78      22.3015     20.58172     65.83849       176     5.229     3.528 -50.86  19
        10    546.1095   1001.6268 300.0669919 +22.8271128     434.6809     72.91393      1.548     2.89     2.699414     20.58172      56.3418         9     0.902     0.670  73.02   0
        11     43.9815   1020.2448 299.9048257 +22.6816741     3944.938     71.69534     13.175    35.74      23.0229     20.58172     80.01411       299    11.991     2.956 -23.78  27
        12    684.6108    992.7133 300.1130130 +22.8661163     843.8477     72.89534      1.822     5.65     3.541932     20.58172     70.99899        14     1.491     0.737  62.16   0
        13   1011.7498    991.6091 300.2153243 +22.9639169     460.6346      72.9511      1.657     4.75     3.699031     20.58172     43.87261        14     1.168     0.955 -49.98   0
        14    823.1269   1008.5693 300.1510010 +22.9122195     105.1085      72.9511      0.949     4.16     3.610626     20.58172     34.04187         6     0.758     0.651  56.25   0
        15    719.5499    987.0306 300.1257447 +22.8749681     1004.946     72.98826      1.425     3.28     3.541932     20.58172     96.27415        15     1.010     0.947  71.72   0
        16    497.0055    988.0749 300.0561225 +22.8084886     483.7289     72.87674      1.510     5.11     2.974607     20.58172      40.1378         8     1.049     0.704  28.53   0
        17    876.1166    985.0637 300.1751678 +22.9213663     361.1371     73.04395      1.588     3.80     3.596444     20.58172     39.09258         5     0.662     0.627  -9.56   0
        18    741.8152    980.7100 300.1347377 +22.8798339     11376.31     72.87674      1.390     2.74     3.549172     20.58172     1293.132        39     1.165     1.122 -76.86   0
        19    932.6497    980.0535 300.1944216 +22.9368816     604.7119     72.98826      1.922     4.17      3.66242     20.58172     53.75499        10     1.026     0.877 -66.49   0
        20    787.3574    980.6491 300.1489454 +22.8934777      513.518     72.98826      1.350     3.43     3.614328     20.58172     75.75587        12     1.052     0.818  14.13   0
        21    874.8370    974.2214 300.1782986 +22.9178705     366.7852     72.96968      1.756     5.25     3.606406     20.58172     34.02411         5     0.991     0.785 -85.69   0
        22     53.5836    972.9417 299.9232053 +22.6710060     416.8699     72.93252      1.271     3.19     14.00482     20.58172     63.29051         6     0.916     0.493 -89.52   0
        23    793.4454    968.2604 300.1548752 +22.8917485     534.4632     72.96968      1.400     4.70     3.623015     20.58172     63.63128         8     1.086     0.576 -53.80   0
        24    448.1858    968.2570 300.0473841 +22.7881521     1187.044     72.93252      1.073     4.66     3.549128     20.58172     646.6041        10     1.299     0.475 -16.06   0
        25    750.4197    962.6050 300.1433117 +22.8772197     1284.794     72.93252      1.396     2.86     3.560755     20.58172      149.732        16     0.985     0.948  52.78   0
        26    933.1221    961.7134 300.2005393 +22.9317583     443.7609      73.0996      1.318     4.71     3.697136     20.58172     44.99651         9     0.977     0.756  50.73   0
        27    438.9504    961.3062 300.0467735 +22.7833867      187.006     73.00683      1.069     4.85     3.650665     20.58172     34.21547         5     0.918     0.727  -8.01   0
        28    602.3864    959.8519 300.0981082 +22.8320178     583.4284     72.98826      1.595     3.32     3.209967     20.58172     75.50941        12     1.089     0.780  26.84   0
        29    788.5721    956.3098 300.1572469 +22.8868570     808.8329     72.93252      1.721     3.08     3.617224     20.58172     85.83511        16     1.086     0.930  -1.93   0
        30    896.7574    953.0459 300.1920244 +22.9183657     308.0002     72.98826      1.230     2.66     3.657186     20.58172     54.40601         7     0.729     0.661 -66.58   0
        31    836.9907    947.5059 300.1751999 +22.8988520     639.7946     72.87674      1.434     3.47     3.625282     20.58172     64.39121        11     0.986     0.791 -41.62   0
        32    688.0959    946.5566 300.1291233 +22.8539185     577.5681     72.96968      1.294     2.94     3.541932     20.58172     91.53536        11     0.901     0.755 -54.72   0
        33    400.8503    943.0970 300.0408487 +22.7667287     4156.396     73.02539      1.350     2.54     3.742268     20.58172     575.5638        26     1.062     1.042  -4.70   0
        34    699.4692    943.4333 300.1336820 +22.8564341     579.2712      72.9511      1.321     2.45     3.541932     20.58172     81.99403        10     0.809     0.783  42.11   0
        35    989.1458    942.4797 300.2242685 +22.9430339     247.8717     72.98826      1.309     5.10     3.971456     20.58172     31.81506         5     1.037     0.710  68.40   0
        36    179.2187    931.5793 299.9756950 +22.6968860     367.0413      72.9511      1.362     3.08     5.322424     20.58172     53.44915         8     0.903     0.634  48.59   0
        37    444.2502    931.0442 300.0582717 +22.7762987     393.7363     72.98826      1.325     4.25     3.745454     20.58172     39.79644         7     0.738     0.698 -74.31   0
        38     42.0324   1009.3979 299.9077514 +22.6779810     3486.345     72.91393     12.235    30.27      20.9102     20.58172     85.04433       223     9.814     2.591 -29.46  19
        39    125.9601    928.8840 299.9600248 +22.6801196     815.2436     72.91393      1.649     3.89     5.605314     20.58172     87.02085        13     1.111     0.824 -55.02   0
        40    103.1396    925.9333 299.9538959 +22.6724203     1534.659     72.98826      1.453     3.08     5.857146     20.58172     194.0094        22     1.127     1.058  19.87   0
        41     34.8319    926.8458 299.9323838 +22.6521653     359.4055     73.00683      1.133     2.24     5.409258     20.58172     48.21008         6     0.706     0.560  46.07   0
        42    974.7781    914.5077 300.2288926 +22.9306946     1964.838     72.87674      1.418     3.01     4.011365     20.58172     201.4204        19     1.053     0.999  14.43   0
        43    929.1438    913.0471 300.2151395 +22.9165935     2081.421     72.98826      1.397     2.69     3.864258     20.58172     246.8829        23     1.074     1.038 -20.03   0
        44    634.9428    912.8448 300.1235437 +22.8282994     421.1049     72.96968      1.171     2.75     3.614644     20.58172      55.6953         7     0.862     0.504  45.34   0
        45    135.2243    907.4456 299.9698792 +22.6767573     505.6946     72.96968      1.491     3.66     5.269635     20.58172      73.2764        13     1.102     0.857  11.90   0
        46    712.7302    906.9517 300.1496856 +22.8499431     789.5667     72.93252      1.258     3.00     3.625439     20.58172      122.698        10     0.935     0.721  61.93   0
        47    580.7897    901.0819 300.1105125 +22.8086774     4789.175     72.91393      1.276     2.28     3.765051     20.58172     724.0475        29     1.094     0.980  58.48   0
        48     70.7100    902.3995 299.9514810 +22.6559361     511.0214     72.83953      1.678     3.01     5.375061     20.58172     83.55135         7     0.953     0.738 -58.32   0
        49    382.7568    898.2800 300.0498061 +22.7484455     577.5202     72.93252      1.336     2.99     3.825722     20.58172     75.87165        10     0.948     0.653  11.33   0
        50    131.0756    894.9736 299.9726485 +22.6719367     1402.484     72.96968      1.443     2.87     5.175661     20.58172     142.6711        20     1.045     1.000  13.70   0
        51    601.3368    893.5004 300.1193760 +22.8126668     720.4855     73.04395      1.131     2.32     3.764578     20.58172     107.8057        10     0.869     0.740 -86.06   0
        52    399.7770    892.8428 300.0568691 +22.7519947     323.6645     73.00683      1.214     1.99     3.838588     20.58172     57.49253         6     0.704     0.535  44.90   0
        53    150.4674    892.2841 299.9795484 +22.6769890     492.4341     73.06251      1.568     5.76     5.036764     20.58172     41.73828        11     1.077     0.868   8.36   0
        54    517.8306    884.3674 300.0963559 +22.7849915     234.1577     72.96968      1.035     1.99     3.878409     20.58172     66.97836         5     0.713     0.419 -24.47   0
        55   1012.1865    881.6302 300.2512582 +22.9324677     393.7364      72.9511      1.696     5.62     4.089971     20.58172     38.66252         7     1.317     0.675  81.50   0
        56    973.7285    880.7902 300.2395384 +22.9206980     1236.578     72.93252      1.465     2.76     4.099232     20.58172     136.6527        16     1.031     0.941  38.61   0
        57    756.8237    880.7050 300.1719618 +22.8556354     4283.756     72.83953      1.272     2.32     3.748192     20.58172     630.8058        26     1.055     0.977 -64.59   0
        58    703.4343    875.1508 300.1571388 +22.8380284     124.3528     72.98826      1.136     4.15     3.728319     20.58172     29.65327         5     0.907     0.542 -41.23   0
        59    165.2625    875.1371 299.9897244 +22.6765164      382.579     72.98826      1.180     3.94     4.888876     20.58172     63.00425         9     0.957     0.690 -62.61   0
        60    473.9692    873.1953 300.0863427 +22.7686251     583.2806     72.93252      1.292     2.18     3.904156     20.58172     88.54608         9     0.746     0.719  42.86   0
        61    120.3599    871.5183 299.9769511 +22.6619958     905.1565     72.91393      1.227     2.44     4.946689     20.58172     133.7914        14     0.921     0.829  59.21   0
        62    535.0788    866.9214 300.1074004 +22.7851618     580.3138     73.08105      1.442     4.68     3.920849     20.58172     69.26602         9     1.261     0.602 -54.11   0
        63    269.8700    863.5526 300.0260046 +22.7046016     53226.31     72.93252      1.337     2.43     4.461717     20.58172     6675.886        89     1.263     1.216  63.95   0
        64    527.7017    862.5034 300.1065420 +22.7816809     1639.613     73.13668      1.205     2.15     3.932954     20.58172     232.6306        15     0.924     0.836 -55.96   0
        65    940.8124    861.3493 300.2356011 +22.9052477     896.8179     73.00683      1.353     2.78     4.218192     20.58172     105.9107        13     1.022     0.750  88.69   0
        66    198.0390    861.5851 300.0043186 +22.6824726     427.2236     72.96968      1.501     4.56     4.804646     20.58172     38.42727         8     0.811     0.728 -78.59   0
        67    556.5981    858.5505 300.1168217 +22.7892166     852.4597     72.93252      1.188     2.18     3.943226     20.58172     119.5829        14     0.917     0.821 -17.96   0
        68    567.5557    856.8765 300.1207771 +22.7920237     673.0403     72.93252      1.243     2.19     3.945938     20.58172     92.35802         8     0.729     0.673  21.70   0
        69    887.5235    853.8134 300.2214406 +22.8871077      317.456     72.96968      1.552     4.58     4.351965     20.58172     40.13839         7     1.152     0.523 -15.47   0
        70    672.9969    852.8651 300.1549107 +22.8225029     495.3942     72.96968      1.241     1.91     3.723189     20.58172     97.53176         8     0.752     0.630 -51.75   0
        71    467.8231    850.5280 300.0918054 +22.7602784     374.1959     72.98826      1.264     3.24     3.982464     20.58172     48.25463         7     0.862     0.585 -79.06   0
        72    710.6458    843.2967 300.1697493 +22.8310489     766.0322     72.96968      1.247     2.90     3.832276     20.58172     124.0771        14     1.010     0.817  39.52   0
        73    319.5736    840.7791 300.0488664 +22.7129909     31254.49     72.93252      1.263     2.18     4.251448     20.58172     4811.082        64     1.167     1.139 -86.97   0
        74    333.9021    841.3048 300.0531507 +22.7174423     2078.871     73.13668      1.307     2.22     4.152388     20.58172     302.0172        20     0.976     0.943  48.06   0
        75    208.5615    839.4638 300.0147853 +22.6792895     234.6391     72.93252      1.526     4.26     4.769891     20.58172      34.9081         5     1.257     0.411  33.41   0
        76    842.6804    836.4067 300.2131275 +22.8686649     2865.959     72.87674      1.297     2.29     4.302009     20.58172     357.5179        21     0.989     0.963 -72.64   0
        77    330.5513    835.0723 300.0541363 +22.7146492     484.1396     72.93252      1.081     2.52      4.20383     20.58172     91.19816         9     0.889     0.683  74.46   0
        78    872.2003    834.2548 300.2230280 +22.8768978     361.1559     72.85814      1.335     3.49     4.433656     20.58172     31.74988         5     0.998     0.352 -44.06   0
        79    600.5487    832.6052 300.1389442 +22.7949571     961.4282     72.93252      1.245     2.31     3.969244     20.58172     133.4267        13     0.910     0.782  50.04   0
        80    436.7303    832.4305 300.0880196 +22.7457568     453.3541      72.9511      1.197     2.55     4.059923     20.58172     74.30655         7     0.819     0.578  22.49   0
        81    447.7224    827.4581 300.0930569 +22.7476288     773.4266     72.98826      1.129     2.31     4.082843     20.58172     115.0224        11     0.832     0.756  59.79   0
        82      6.8310    828.2071 299.9557809 +22.6154885      375.375      72.9511      1.256     3.10     4.866486     20.58172     70.36649         7     1.035     0.580  32.98  16
        83    202.0225    832.5447 300.0150040 +22.6753427     779.5366     72.96968      1.263     2.49     4.771198     20.58172     117.6774        13     0.892     0.844   9.58   0
        84    848.8753    823.9492 300.2191111 +22.8669456     558.3039      72.9511      1.297     3.20     4.391625     20.58172     86.06466        11     0.985     0.768   5.57   0
        85    349.7883    823.7610 300.0637979 +22.7171788     321.2812      72.9511      1.360     3.08     4.116037     20.58172     55.49132         6     0.718     0.654  -7.32   0
        86    393.5469    822.3519 300.0778655 +22.7299070     352.6826     72.98826      1.105     3.20     4.102199     20.58172     72.31637        10     1.029     0.684  54.95   0
        87    305.7127    823.2614 300.0502553 +22.7038068     298.9853     73.04395      1.242     2.44     4.453343     20.58172     50.50003         6     0.683     0.631  22.96   0
        88     35.4469    822.1929 299.9666231 +22.6223587     395.6716     72.96968      1.199     3.39     4.859547     20.58172     58.56264         6     0.848     0.504 -49.63   0
        89    826.6625    818.9495 300.2138151 +22.8588501     333.4647     73.00683      1.196     2.00     4.314603     20.58172     65.76345         7     0.688     0.610 -88.38   0
        90    199.8453    816.9727 300.0193928 +22.6702243     513.9906     72.98826      1.384     3.38     4.757155     20.58172     84.97736         8     1.035     0.615 -21.83   0
        91    273.9178    813.2872 300.0436150 +22.6914030      193.035     73.06251      1.214     4.14     4.663641     20.58172     35.58892         5     1.032     0.474  65.66   0
        92    522.9698    807.0429 300.1231121 +22.7643489     508.3969     72.98826      1.364     2.36     4.136134     20.58172     77.45422         9     0.779     0.711 -41.05   0
        93    530.5722    805.8817 300.1258558 +22.7662964     275.1459     72.96968      0.920     3.03     4.133147     20.58172     42.21498         5     0.731     0.461  71.52   0
        94    492.7821    805.3183 300.1142789 +22.7547972     697.7046     72.91393      1.364     2.91     4.168603     20.58172     94.48404        11     0.998     0.699 -31.91   0
        95    623.9586    805.0730 300.1551890 +22.7940780     242.9754     72.93252      1.246     3.53     3.952559     20.58172     33.76613         5     0.623     0.611  11.77   0
        96    402.0066    804.6097 300.0862682 +22.7273563     231.5742      72.8023      1.146     3.16     4.177762     20.58172     51.80074         6     0.796     0.488  -0.66   0
        97    909.0327    801.6951 300.2451017 +22.8785903     4488.014     72.93252      1.272     2.21     4.421861     20.58172     684.7253        26     1.064     0.963  75.27   0
        98    514.4936    802.7725 300.1218633 +22.7605806     1239.495     72.87674      1.131     2.18     4.158454     20.58172     219.2391        13     0.828     0.796 -57.01   0
        99    434.2911    802.5069 300.0969949 +22.7364408     279.4549     73.11815      0.986     2.32     4.186775     20.58172     66.52586         7     0.810     0.578  68.16   0
       100    596.0901    797.5717 300.1489527 +22.7835660     402.7263     72.93252      1.281     3.01     4.039039     20.58172     49.94177         6     0.782     0.488   7.90   0
       101    897.4483    793.0235 300.2443114 +22.8726274     1678.047      72.9511      1.258     2.28     4.461023     20.58172     246.3054        17     0.965     0.856 -89.25   0
       102    260.4517    787.3442 300.0478671 +22.6799212     799.0196     72.98826      1.179     2.48      4.66273     20.58172     135.8177        13     0.971     0.749 -47.54   0
       103    723.7025    784.4167 300.1929704 +22.8180632     2456.961     72.85814      1.106     2.02     4.017687     20.58172     376.1609        21     1.001     0.903 -78.47   2
       104    727.9423    784.5331 300.1942533 +22.8193680     332.3892     72.98826      1.434     3.46     4.025258     20.58172     39.29254         5     1.039     0.332 -21.84   3
       105    928.6148    783.3568 300.2571719 +22.8791937     1625.256     72.96968      1.198     2.26     4.419492     20.58172     208.6176        16     0.937     0.859  59.34   0
       106    148.5728    784.6817 300.0139634 +22.6455733     205.5364      72.9511      1.276     3.32      4.74066     20.58172     43.00751         5     0.921     0.790 -87.12   0
       107    109.2558    771.1177 300.0061598 +22.6298805     709.7779     73.00683      1.379     2.83      4.71859     20.58172     77.16751        11     0.868     0.808  38.32   0
       108    806.0439    770.1622 300.2232601 +22.8386603     631.4896     73.02539      1.353     2.16     4.407412     20.58172     90.02121         8     0.770     0.631  45.55   0
       109    842.2568    761.3287 300.2374181 +22.8469805     146362.9     72.96968      1.174     2.03      4.48157     20.58172     22444.95       149     1.284     1.182  81.28   0
       110    349.0326    766.0133 300.0823460 +22.7003883     159.3494     72.93252      1.186     3.69     4.243881     20.58172     27.47993         5     0.643     0.608  -0.57   0
       111    604.6874    765.1426 300.1621771 +22.7768378     441.6359     73.02539      1.233     2.25     4.172834     20.58172     68.54638         7     0.714     0.611 -71.62   0
       112    989.3050    762.9386 300.2827372 +22.8915192      1266.04     73.04395      1.323     2.34     4.332322     20.58172     183.3881        14     0.879     0.852  14.10   0
       113    694.5219    761.6692 300.1912803 +22.8027826     801.5854     73.06251      1.081     2.12     4.000335     20.58172     133.8222        12     0.936     0.702   8.81   0
       114    875.0109    753.9941 300.2500123 +22.8546930     389.7696     72.82092      1.293     3.13     4.519498     20.58172     60.47647         9     0.871     0.736 -62.71   0
       115    528.5215    750.3199 300.1432891 +22.7497377     1685.656     73.08106      1.127     2.10     4.485554     20.58172     264.0202        16     0.944     0.791  53.08   0
       116    709.7803    747.5385 300.2006284 +22.8033015     9390.891     72.91393      1.104     1.92     4.087806     20.58172     1596.134        32     0.981     0.961  71.45   0
       117    191.8150    749.4857 300.0388463 +22.6484624      275.089     72.89534      1.090     3.50     4.625707     20.58172     44.85511         6     0.785     0.497   5.16   0
       118    211.2664    742.8901 300.0470362 +22.6524096     4879.714     73.06251      1.257     2.19     4.609208     20.58172     701.9929        27     1.024     0.989  55.40   0
       119    293.4031    740.8681 300.0732258 +22.6764814     1197.441     72.93252      1.242     2.31     4.372753     20.58172     178.4388        14     0.884     0.859  25.81   0
       120    168.9575    738.3945 300.0353500 +22.6384207     485.6006     72.96968      1.295     2.83     4.600939     20.58172      67.3065         9     0.889     0.650  63.34   0
       121    501.5203    736.3136 300.1394410 +22.7376186     792.6232     73.11815      1.114     2.03     4.533201     20.58172     133.6369        10     0.796     0.708  89.08   0
       122    493.2643    728.5067 300.1394106 +22.7329017     3302.287     73.06251      1.073     1.87     4.532591     20.58172     532.1384        19     0.941     0.827  78.47   0
       123    483.4826    722.2638 300.1383968 +22.7281759      1388.06     73.06251      1.141     2.11     4.526191     20.58172     230.6686        17     1.004     0.777  77.55   0
       124    877.0231    719.7242 300.2617846 +22.8454539     451.5978     72.98826      1.199     1.98     4.510587     20.58172     82.35519         7     0.694     0.624 -11.17   0
       125    394.0776    719.2284 300.1115696 +22.7004829     304.8739      72.9511      1.072     3.03     4.369147     20.58172     43.73492         5     0.778     0.494 -50.58   0
       126    146.8820    718.4465 300.0349769 +22.6260740     578.7267     72.93252      1.179     2.40      4.59915     20.58172     99.04073         9     0.815     0.690  71.09   0
       127    160.9845    717.0295 300.0398196 +22.6299009     609.3414      72.9511      1.251     2.21     4.598565     20.58172     91.93591         9     0.747     0.727  58.56   0
       128    217.6514    713.6664 300.0585231 +22.6459450     381.3195     72.96968      1.318     3.20     4.589843     20.58172     51.03523         7     0.905     0.512  29.22   0
       129    186.9321    713.7346 300.0489539 +22.6367444     533.8228     73.00683      1.282     2.06     4.594587     20.58172     97.61785         9     0.799     0.665 -66.77   0
       130    930.1511    713.1909 300.2804712 +22.8595009     509.6005     72.96968      1.206     1.95     4.551589     20.58172     96.44149         7     0.672     0.637  -3.74   0
       131    507.2515    712.5535 300.1489507 +22.7325193     442.2647     72.98826      1.079     2.27     4.592534     20.58172     77.91797         6     0.684     0.576  36.76   0
       132    408.3044    711.9295 300.1183681 +22.7026572     1911.957     73.06251      1.179     1.91      4.39887     20.58172     338.7242        17     0.909     0.837  62.97   0
       133     62.2206    707.1165 300.0123608 +22.5974101     19774.52     72.89534      1.352     2.45     4.657254     20.58172     2618.011        56     1.242     1.158  32.30   0
       134    983.8406    709.0790 300.2985494 +22.8744096     744.1766     72.93252      1.164     2.24     4.531778     20.58172     141.4258        10     0.815     0.722  10.56   0
       135    493.1263    707.3124 300.1462593 +22.7267782     1170.491      73.0996      1.294     2.18     4.572764     20.58172     162.8605        13     0.906     0.768  67.54   0
       136    528.3574    706.3920 300.1575226 +22.7370818     424.7931     72.96968      1.298     2.54     4.658932     20.58172     66.86879         8     0.844     0.682 -47.74   0
       137    864.2485    702.6204 300.2633646 +22.8367125     325.6893     72.98826      1.208     2.14     4.479167     20.58172     57.20959         5     0.697     0.446 -20.82   0
       138    246.3870    698.8030 300.0722873 +22.6503061     318.6452     72.78368      1.072     2.44     4.522811     20.58172     44.10982         5     0.689     0.472 -76.34   0
       139    911.2981    693.4249 300.2810209 +22.8481729       1079.7     72.87674      1.196     2.37     4.543873     20.58172     178.1712        13     0.951     0.762  28.84   0
       140      8.1760    691.2429 300.0007377 +22.5766333     1557.409     73.00683      1.699     4.48     4.724377     20.58172     129.4146        24     1.501     1.009 -80.44  16
       141     74.3157    691.7097 300.0211265 +22.5966238     560.3337      73.0996      1.330     3.06     4.633372     20.58172     65.92597        10     0.991     0.665  29.29   0
       142    778.0406    691.3902 300.2401515 +22.8076457     512.6432      72.9511      1.153     2.12      4.37289     20.58172     89.89796         7     0.683     0.654   4.89   0
       143    456.5422    687.5779 300.1412924 +22.7101408     488.2958      72.9511      1.061     3.17     4.514902     20.58172     87.27174         8     1.020     0.497  87.91   0
       144    249.0453    686.7202 300.0770419 +22.6476381     263.1278     72.93252      1.225     3.04     4.516278     20.58172     60.96085         5     1.153     0.323  48.72   0
       145    851.2974    685.9361 300.2647530 +22.8280386     780.1109     73.06251      1.156     2.42     4.452341     20.58172     130.2013        12     0.967     0.695   8.62   2
       146    846.8729    685.4298 300.2635387 +22.8265671     310.8348      72.9511      1.081     2.48     4.450105     20.58172     70.38631         7     0.830     0.588  64.17   2
       147    596.1997    684.4591 300.1857715 +22.7511334     353.8496     72.89534      1.104     2.73     4.588349     20.58172     61.52891         6     0.838     0.547 -69.20   0
       148    413.3379    680.1954 300.1302516 +22.6950617     802.3398     72.93252      1.083     2.06     4.420061     20.58172       126.72        11     0.847     0.683  18.05   0
       149    561.3744    678.7883 300.1767741 +22.7390616      393.226      72.9511      1.011     2.25     4.735458     20.58172     89.91037         8     0.770     0.666 -40.58   0
       150    608.4815    677.2277 300.1919463 +22.7527406     430.1145     72.96968      1.040     1.92     4.577986     20.58172     85.43771         6     0.626     0.605 -21.96   0
       151    578.9615    676.7407 300.1829145 +22.7437482     508.3855     72.96968      1.184     1.82     4.679807     20.58172     112.9183         9     0.798     0.612 -68.30   0
       152    457.2711    676.0629 300.1452629 +22.7070550     973.9741     72.98826      1.262     1.93     4.527082     20.58172     156.6563        10     0.894     0.699 -34.82   0
       153    644.0831    674.9752 300.2037636 +22.7627696     223.8546     72.91393      1.239     3.09      4.48609     20.58172     40.44914         5     0.621     0.602  84.96   0
       154    891.1366    671.2617 300.2819420 +22.8357641     3300.004     72.98826      1.158     1.97       4.5008     20.58172     561.5136        25     1.070     0.865  55.35   0
       155    423.0794    671.4838 300.1361142 +22.6954843     1729.501      73.0996      1.125     1.86     4.437649     20.58172     293.9442        19     1.029     0.864 -88.34   0
       156    989.2632    669.1605 300.3132201 +22.8645660     697.6596      72.9511      1.152     2.20     4.596193     20.58172     108.6552         9     0.827     0.672  -2.25   0
       157    788.2987    668.5494 300.2507739 +22.8041615     232.9054     73.02539      0.979     3.15     4.407189     20.58172     42.37299         5     0.713     0.471 -17.54   0
       158    452.5326    662.2404 300.1482823 +22.7016668     440.8255     72.91393      1.268     2.32     4.524985     20.58172      67.3131         6     0.731     0.579  47.41   0
       159    930.2771    660.9043 300.2975114 +22.8445186     284.7177     73.08105      1.125     2.85     4.596193     20.58172     60.50496         7     0.887     0.566  70.86   0
       160    286.4536    658.3399 300.0978974 +22.6507224     9070.723     73.00683      1.121     1.99     4.429464     20.58172     1313.602        36     1.017     0.980  66.64   0
       161    408.8534    655.3374 300.1369378 +22.6865834      9117.38     73.00683      1.134     1.93     4.393775     20.58172     1622.992        34     0.989     0.974  81.68   0
       162    813.9690    652.8188 300.2638870 +22.8073382     302.1284      72.9511      1.597     3.88     4.425903     20.58172     27.74803         5     0.826     0.521 -58.79   0
       163    173.5474    652.7834 300.0646097 +22.6152466     393.2581     72.93252      1.434     3.12     4.541814     20.58172     40.10702         5     0.822     0.555 -36.91   0
       164   1013.4166    650.4338 300.3268413 +22.8664223     812.8153     72.93252      1.164     2.24     4.596193     20.58172     123.3078        15     0.953     0.837  64.91   0
       165    487.3763    652.2324 300.1623773 +22.7092458     270.8402      72.9511      1.072     2.50     4.660363     20.58172     37.75925         5     0.686     0.475  78.75   0
       166     52.6547    651.3997 300.0275025 +22.5785631     296.1781     72.85814      1.106     2.80      4.63295     20.58172     42.08413         5     0.706     0.461 -17.94   0
       167    820.5195    648.9398 300.2671893 +22.8081876     1806.505     73.00683      1.099     2.04     4.418622     20.58172     298.5446        15     0.887     0.783 -70.66   0
       168    905.1152    646.3715 300.2943916 +22.8328033     12506.82      72.9511      1.150     1.91     4.516604     20.58172     2059.467        40     1.053     0.996 -82.06   0
       169    469.4464    644.8867 300.1591861 +22.7017598     11476.82     72.93252      1.101     1.81     4.600618     20.58172     1986.136        38     1.031     0.942 -63.86   0
       170    196.8112    640.4084 300.0758616 +22.6186788     1321.655     72.83953      1.215     2.33     4.503204     20.58172     192.4014        14     0.889     0.846  -3.43   0
       171    638.9743    640.5243 300.2133726 +22.7513469     541.2993     72.96968      1.088     1.74     4.693587     20.58172     87.30728         6     0.687     0.496   6.68   0
       172    354.8562    639.4513 300.1253070 +22.6658260     275.9669     72.98826      1.120     1.66     4.338645     20.58172     63.59162         5     0.636     0.467 -23.51   0
       173    443.7185    637.9056 300.1534505 +22.6920392      511.626     73.11815      1.080     2.10     4.495633     20.58172     93.41699         9     0.822     0.662 -28.14   0
       174    401.1263    633.0881 300.1417666 +22.6778807     4375.632      73.0996      1.161     1.92     4.354606     20.58172     823.3996        23     0.933     0.897 -87.94   0
       175    744.1140    632.8329 300.2486191 +22.7806592     724.8909     72.91393      1.111     1.92     4.300536     20.58172     164.1019        11     0.802     0.743 -12.23   0
       176    379.2585    631.6329 300.1354377 +22.6709032     1187.504     72.96968      1.088     2.14     4.339409     20.58172     185.3995        14     0.960     0.831 -45.83   0
       177    133.7453    630.9733 300.0593315 +22.5970456      688.576      72.9511      1.278     2.60     4.487481     20.58172     111.0639        12     0.933     0.794 -32.57   0
       178    820.9174    628.3982 300.2739909 +22.8024067     1489.096     72.85814      1.172     2.43     4.400216     20.58172     208.1462        16     1.006     0.750 -34.13   0
       179    517.7296    620.5701 300.1821152 +22.7092612     203290.1      72.9511      1.082     1.76     4.874443     20.58172     38917.08       193     1.308     1.237 -74.13   0
       180     67.4866    628.8329 300.0394440 +22.5765443     390.1245     72.91393      1.260     2.23     4.572762     20.58172     53.82414         5     0.701     0.449 -65.86   0
       181    341.5894    626.7911 300.1252963 +22.6582133     242.8194     72.83953      0.871     2.08     4.332281     20.58172     61.92316         5     0.650     0.488  82.16   0
       182    701.3318    625.3371 300.2377291 +22.7656815     820.5024     73.00683      1.092     2.22     4.471948     20.58172      146.829        12     0.881     0.700  47.94   0
       183    794.7321    623.8025 300.2673251 +22.7932383     236.8543     72.93252      1.079     3.64     4.410197     20.58172     42.32578         5     0.906     0.421  43.32   0
       184    905.8148    621.0001 300.3028573 +22.8257242     433.4286      72.8023      1.733     5.01     4.501386     20.58172     54.05614         7     1.317     0.539 -81.32   0
       185    203.8490    620.6483 300.0844715 +22.6151227     3340.204     72.98826      1.161     2.06     4.454861     20.58172     581.7001        22     0.959     0.872  67.74   0
       186    478.6060    621.2604 300.1697159 +22.6977259     262.4562     72.91393      0.960     2.58     4.689021     20.58172     43.72085         5     0.726     0.435 -67.49   0
       187    286.3758    620.5446 300.1101584 +22.6398559      166.974     72.96968      0.907     4.00     4.425255     20.58172     33.77485         6     0.949     0.482 -86.40   0
       188    769.6843    616.6915 300.2618321 +22.7836882     375.4908     73.11815      1.057     2.81     4.355062     20.58172     89.07146         8     0.917     0.613  83.81   0
       189    788.3323    614.7285 300.2682805 +22.7887139     190.0232     72.98826      1.136     4.12     4.392682     20.58172     38.04631         6     0.739     0.656  16.79   0
       190    408.3013    601.2709 300.1543398 +22.6709019     2675.542      73.0996      1.202     2.39     4.375803     20.58172        461.3        24     1.446     0.793 -85.38   0
       191    252.2390    603.4689 300.1050957 +22.6247145     468.8588     72.91393      1.336     3.46     4.440585     20.58172     68.26749         8     0.905     0.731  14.01   0
       192    819.7648    596.9393 300.2838572 +22.7930248      400.353     72.96968      1.037     1.97     4.378573     20.58172     79.36691         6     0.716     0.511  43.74   0
       193    837.3140    592.1448 300.2908846 +22.7969069     70.86478     73.00683      0.745     1.97     4.354228     20.58172     59.53946         5     0.696     0.438  73.51   0
       194    725.3677    589.4481 300.2568809 +22.7625801     348.1947     72.98826      1.112     2.14     4.365554     20.58172     72.40702         5     0.669     0.479 -16.64   0
       195    805.2179    586.9565 300.2825686 +22.7857976     1510.711     72.96968      1.051     1.70     4.389965     20.58172     350.0229        15     0.857     0.755 -18.42   0
       196    676.4581    584.6979 300.2431908 +22.7465546     2453.738     73.04395      1.007     1.80     4.665378     20.58172     447.5991        14     0.802     0.756  51.35   0
       197     35.9070    584.8386 300.0439335 +22.5544492     365.2346      72.9511      1.514     3.67     4.710039     20.58172     34.51638         6     0.749     0.569  32.64   0
       198    920.7971    581.6744 300.3203102 +22.8189148     530.2449     72.85814      1.278     2.77     4.488494     20.58172     92.79919         9     0.986     0.590  18.31   0
       199    885.7581    581.3878 300.3094802 +22.8083336     292.2618     72.93252      1.084     2.96     4.385899     20.58172     43.69739         7     0.802     0.657  65.86   0
       200    581.5499    581.3146 300.2147386 +22.7171291     440.8382     72.93252      1.042     1.66     5.024125     20.58172     89.80082         5     0.644     0.449 -14.94   0
       201    463.8607    580.4636 300.1783870 +22.6815936     815.8676     72.98826      1.137     1.83     4.848868     20.58172      135.765        10     0.759     0.728  34.04   0
       202    933.7822    578.4634 300.3254023 +22.8218828     1375.343     72.93252      1.114     2.05     4.499605     20.58172     236.2624        14     0.872     0.793 -44.92   0
       203    919.4180    577.6122 300.3212005 +22.8173345     615.8986     72.91393      1.040     2.00     4.472526     20.58172     109.8117        11     0.807     0.716  29.95   0
       204    805.6124    577.3958 300.2857988 +22.7831694     2328.178      72.8023      1.174     1.89     4.379461     20.58172     324.7118        19     0.927     0.860 -77.88   2
       205    558.8178    575.1790 300.2096562 +22.7085516     586.6109      72.9511      1.120     2.03     5.047517     20.58172     112.7818         9     0.819     0.626 -67.08   0
       206    344.3439    575.2280 300.1429108 +22.6442434     341.7308      72.9511      1.384     3.97     4.378042     20.58172     57.14915         6     0.748     0.634  82.31   0
       207    397.4233    573.9428 300.1598372 +22.6597960     325.3701      72.9511      1.024     1.96     4.519408     20.58172     75.69809         7     0.753     0.563 -21.52   0
       208    843.6889    572.0262 300.2994099 +22.7930377     4248.495     72.91393      1.123     1.97     4.347107     20.58172     787.7393        20     0.945     0.814 -87.21   0
       209    558.3459    571.1020 300.2108342 +22.7072395     203.7053     73.04395      0.971     1.82     5.049139     20.58172     63.49532         5     0.679     0.439  69.33   1
       210    581.2609    568.3070 300.2188758 +22.7133077     241.6736     73.04395      1.005     3.60     5.015777     20.58172     52.66721         5     0.872     0.428  45.99   0
       211    504.2926    568.2067 300.1949515 +22.6902001     320.3546     72.85814      1.000     1.77     5.059388     20.58172     66.97351         6     0.668     0.529  37.90   0
       212     75.6846    562.7324 300.0634713 +22.5600482     994.4846     73.06251      1.261     2.35      4.65914     20.58172      165.997        16     1.009     0.871 -61.49   0
       213    935.4229    562.3969 300.3311353 +22.8177578     819.0945     72.89534      1.065     2.07     4.449842     20.58172      120.644        11     0.833     0.712 -17.33   0
       214    736.6780    556.3707 300.2711538 +22.7564699     296.5006      72.9511      0.994     1.91     4.303755     20.58172     60.72692         5     0.650     0.470 -14.21   0
       215    341.9037    555.6864 300.1485019 +22.6379034     122.8254     73.13668      0.851     2.67     4.428426     20.58172     48.42698         5     0.747     0.424  17.92   0
       216     68.4599    552.7116 300.0644832 +22.5550059     532.5106     73.02539      1.617     3.56     4.707896     20.58172     58.55928        10     1.076     0.711 -43.06   0
       217    931.6490    551.3448 300.3335503 +22.8134513     283.9551     72.98826      0.946     1.95     4.415258     20.58172     66.55238         5     0.645     0.475 -83.36   0
       218    675.8780    546.7264 300.2553497 +22.7354758      412.245     73.06251      1.074     2.64     4.666005     20.58172      76.1509         7     0.943     0.478  30.45   0
       219    565.0244    544.6002 300.2215249 +22.7016328     315.9246     72.87674      1.041     2.32     5.035799     20.58172     63.27541         7     0.719     0.642 -45.71   0
       220    285.0013    544.9031 300.1343122 +22.6177397     278.1609     72.85814      1.164     3.71     4.601969     20.58172     43.92633         7     0.916     0.609  16.99   0
       221    617.0873    542.5536 300.2383983 +22.7166538     715.2772     72.91393      0.993     1.70     4.903756     20.58172     161.9279         8     0.767     0.591 -84.60   0
       222   1023.7613    540.1524 300.3659124 +22.8378286     528.5477      56.2721      0.880     1.77     4.400133     20.58172     163.4717         6     0.730     0.426  89.30  24
       223    931.8770    535.1130 300.3388960 +22.8088552     553.6303     73.08105      1.142     2.31     4.392219     20.58172     100.3769        10     0.834     0.706  82.71   0
       224    677.9676    534.7648 300.2598873 +22.7326668     907.3118     72.98826      1.086     1.60     4.686272     20.58172      207.514        12     0.818     0.734  59.57   0
       225    835.0724    531.0378 300.3100441 +22.7786798      935.667     72.91393      1.030     1.82     4.349471     20.58172     223.5683         9     0.715     0.688  64.78   0
       226    819.3688    527.2637 300.3063765 +22.7728900     710.9039     72.96968      1.014     1.80     4.349471     20.58172      120.229         8     0.746     0.589  89.20   0
       227    799.9044    527.5052 300.3002324 +22.7671266     343.4213     73.11815      0.959     1.73     4.348991     20.58172     67.96114         6     0.684     0.498  -5.82   0
       228    563.7170    525.4387 300.2273440 +22.6957389     3225.901     72.91393      1.040     1.85     4.983995     20.58172     548.2812        19     0.883     0.797  79.90   0
       229    924.1122    523.8754 300.3401265 +22.8032997     515.5688     73.08105      1.197     2.09     4.384852     20.58172       86.395         6     0.707     0.549 -50.42   0
       230    491.3669    517.9474 300.2072598 +22.6718954     170.0286     72.96968      0.950     3.47     5.060484     20.58172     39.27457         5     0.843     0.412 -70.10   0
       231     39.6134    517.1379 300.0670812 +22.5361455     368.9995     72.91393      1.345     3.42     4.764521     20.58172      46.7532         5     0.799     0.423 -69.14   0
       232    569.0996    513.1622 300.2330082 +22.6938274     207.5728     72.96968      1.182     2.25     4.947895     20.58172     52.10701         6     0.732     0.537  41.64   0
       233    403.7625    512.6335 300.1817299 +22.6440998     482.5745     72.98826      1.265     2.08     4.772842     20.58172     71.73676         7     0.742     0.583 -29.10   0
       234    951.0444    510.5738 300.3528458 +22.8075452     306.2966     72.96968      1.386     3.71     4.376466     20.58172     40.52806         6     0.802     0.492  -4.35   0
       235    975.0059    504.2725 300.3623650 +22.8129120     1262.802     72.89534      1.097     1.83     4.363054     20.58172     259.1169        13     0.929     0.670  73.10   0
       236    847.0146    504.0505 300.3225346 +22.7745042     532.4711      72.9511      1.058     1.87     4.349471     20.58172     113.9497         9     0.734     0.663 -41.05   0
       237    933.1898    502.9095 300.3497688 +22.7999940     806.8328     72.89534      1.118     2.03     4.378011     20.58172      180.755         9     0.807     0.630  60.44   0
       238    583.4440    501.1150 300.2413876 +22.6946682     190.3222     72.91393      1.037     2.13     4.916312     20.58172     49.37216         6     0.729     0.495 -85.37   0
       239    674.3176    499.3786 300.2702477 +22.7214092     1175.432     72.91393      1.037     1.70     4.832858     20.58172     215.4228        13     0.813     0.724  56.51   0
       240    470.0827    500.1276 300.2064261 +22.6603973     288.0038     73.08105      0.942     1.65     4.938804     20.58172     105.3613         6     0.668     0.521  55.94   0
       241    178.2780    497.8911 300.1164123 +22.5722329     683.5997      73.0996      1.141     2.04     4.742726     20.58172     114.1583        11     0.836     0.731  60.94   0
       242    571.0444    496.3052 300.2390901 +22.6895698     715.1394     72.96968      0.547     0.78     4.906245     20.58172     472.4672         5     0.461     0.329 -84.79   0
       243    240.6330    493.4823 300.1372248 +22.5896744     3706.565     72.91393      1.111     2.03      4.92914     20.58172     570.1599        21     0.962     0.856  62.22   0
       244    750.8427    494.6030 300.2956360 +22.7429720     244.2481     72.96968      1.172     3.42      4.34232     20.58172     32.54468         5     0.744     0.455  17.83   0
       245    973.6580    491.5658 300.3660730 +22.8088561     4223.833     72.96968      1.061     1.89     4.352225     20.58172     763.7148        22     0.913     0.861  79.37   0
       246    369.7426    489.3474 300.1787130 +22.6272130     185.4883     73.00683      1.327     3.43     4.776633     20.58172     26.29314         5     1.213     0.280  54.89   0
       247    187.8083    488.3284 300.1224804 +22.5723484     7550.075     72.93252      1.193     2.13     4.807771     20.58172     1168.758        31     1.032     0.985  83.54   0
       248    328.6469    482.4302 300.1681793 +22.6129025     4803.228     72.96968      1.088     1.88     4.850685     20.58172     757.4262        26     1.014     0.883  85.81   0
       249    953.6613    482.7109 300.3627142 +22.8003212     1915.233     73.04395      1.118     1.78     4.356171     20.58172     321.3342        19     0.967     0.849  51.72   0
       250    572.8306    479.0116 300.2452641 +22.6851391     18075.27      72.9511      1.120     1.78     4.872932     20.58172      3954.91        46     1.040     0.948  79.09   0
       251    972.3112    479.0561 300.3697171 +22.8048571     319.6804     72.98826      1.311     3.32     4.343245     20.58172     43.79265         5     0.777     0.411  71.11   0
       252    590.3908    478.9075 300.2507646 +22.6903732     997.7182     72.87674      1.838     5.62     4.886536     20.58172     82.61552        14     1.597     0.653 -38.34   0
       253    816.5081    475.0915 300.3224352 +22.7570428     384.1612     73.11815      1.272     2.44     4.351471     20.58172     50.91634         6     0.748     0.498  85.62   0
       254    165.2469    471.7689 300.1208481 +22.5608284     192.0345     72.98826      1.222     3.94     4.701907     20.58172     36.49927         5     0.885     0.503 -44.56   0
       255    769.8851    469.4381 300.3097439 +22.7414486     248.2613     72.93252      0.992     2.08      4.40173     20.58172     67.59585         8     0.744     0.641  83.11   0
       256    192.5443    466.2765 300.1311152 +22.5674417     298.2277     72.98826      1.014     2.35     4.854803     20.58172     72.83067         5     0.709     0.468  71.34   0
       257    906.3841    461.1691 300.3549717 +22.7799680     950.4246      72.9511      1.417     3.28     4.365534     20.58172     129.7118        14     1.143     0.741 -61.96   0
       258    443.3675    460.9182 300.2108506 +22.6411297      389.873     72.93252      1.267     1.95     4.845195     20.58172     69.45824         5     0.705     0.417 -64.85   0
       259    127.5063    459.4260 300.1131303 +22.5459641      1998.19     72.89534      1.155     2.13     4.502261     20.58172     281.7676        16     0.891     0.841  31.83   0
       260    140.8845    454.6886 300.1188256 +22.5486186     285.6701     73.08105      1.126     3.45     4.573207     20.58172     40.34377         5     0.795     0.434  14.14   0
       261    513.4510    448.5063 300.2366903 +22.6585780     6558.145     73.02539      1.046     1.89      4.86879     20.58172     988.4598        27     0.966     0.864  73.20   0
       262    927.1115    448.6698 300.3654941 +22.7825845     1130.576     73.11815      1.037     1.88     4.370472     20.58172     232.7628        10     0.795     0.658  85.78   0
       263    228.2075    448.1024 300.1481025 +22.5729245     645.9321     72.82092      1.124     1.83     5.027189     20.58172     124.7561        10     0.865     0.682   5.57   0
       264     85.7579    441.1976 300.1060805 +22.5282084     645.7512      72.9511      1.381     2.77     4.378827     20.58172     79.69836         8     0.866     0.631  65.01   0
       265    773.4346    440.1067 300.3203774 +22.7340847     312.1878     72.91393      1.092     1.64     4.512066     20.58172     84.70628         6     0.681     0.493 -83.29   0
       266    627.2623    438.7805 300.2752787 +22.6899000     450.8005     72.93252      1.048     2.33     4.895643     20.58172     83.91588         9     0.860     0.627  22.71   0
       267    717.6349    437.2611 300.3039179 +22.7165471     1152.899     72.96968      1.260     2.56      4.78073     20.58172     167.0221        14     1.073     0.691  73.49   0
       268    420.0735    434.8297 300.2120770 +22.6266550     6150.236     72.96968      1.140     1.81     4.863091     20.58172     1251.154        28     0.991     0.875  79.24   0
       269    200.8733    436.9964 300.1432136 +22.5615380     271.9089     72.87674      1.527     3.86     4.898487     20.58172     31.94885         5     0.837     0.510  25.96   0
       270    997.8129    432.8815 300.3926693 +22.7992221     234.0011     72.93252      1.236     3.03      4.32658     20.58172     52.80888         5     1.055     0.326 -77.73   0
       271    812.0437    429.1188 300.3359769 +22.7424952     1549.032     72.93252      1.134     1.88     4.366805     20.58172     306.5663        14     0.911     0.764  81.76   0
       272    909.4929    429.0497 300.3663738 +22.7716679     568.8856     72.98826      1.122     2.43     4.369555     20.58172     100.8593         9     0.845     0.667 -46.52   0
       273    404.6925    423.4084 300.2110015 +22.6187640     466.3013     72.85814      1.086     2.26      4.87547     20.58172     73.73302         9     0.773     0.713 -79.87   0
       274    487.2531    421.3808 300.2373472 +22.6429347     408.7977     72.93252      1.071     2.59     4.885795     20.58172     85.41779         8     0.859     0.575 -82.69   0
       275    467.7003    419.2653 300.2319499 +22.6364654     262.9747     73.04395      1.254     3.19     4.885544     20.58172     52.43471         6     0.863     0.528  47.94   0
       276    784.8989    416.7982 300.3315198 +22.7308221     475.1079     72.83953      1.087     1.90     4.503647     20.58172     127.7989        10     0.832     0.635  82.68   0
       277     66.4390    416.2459 300.1081825 +22.5152534     252.8149     73.00683      1.160     3.38     4.365529     20.58172     32.88196         5     0.759     0.437  67.66   0
       278    307.6422    414.1037 300.1838395 +22.5869908     2542.094      72.9511      1.108     1.96     4.978674     20.58172     426.8881        18     0.910     0.821  72.52   0
       279     25.9626    411.3528 300.0971999 +22.5017049     1188.383     72.98826      1.390     2.95     4.365529     20.58172     148.6153        19     1.156     0.924  44.19   0
       280    655.3255    408.3073 300.2939145 +22.6895568      318.377     73.11815      1.088     2.50     4.912129     20.58172     49.56695         5     0.715     0.448  75.79   0
       281    276.9991    403.5499 300.1777390 +22.5747716     29691.77     72.93252      1.159     1.91     5.010079     20.58172     5172.975        56     1.107     1.009  76.30   0
       282    811.6343    400.8318 300.3450361 +22.7342437     1265.909     72.96968      1.056     1.82     4.476723     20.58172     267.6588        13     0.783     0.772 -35.26   0
       283    766.8465    398.5491 300.3318215 +22.7201696     310.8217     72.98826      1.274     2.21     4.737565     20.58172     54.52758         5     0.696     0.453  22.80   0
       284    849.5444    390.7240 300.3601335 +22.7426953     202.1936     72.98826      1.003     2.69     4.449474     20.58172      43.5965         5     0.723     0.440 -65.99   0
       285    727.0590    389.7220 300.3222926 +22.7057123     426.6479     72.98826      1.093     1.69     4.958184     20.58172     116.3694         9     0.754     0.710 -75.51   0
       286    151.1127    389.7440 300.1430941 +22.5330513      488.078     73.00683      1.130     2.36     4.533768     20.58172     91.52203         9     0.911     0.600 -49.20   0
       287    375.3221    388.7426 300.2131228 +22.6000048     546.0688     72.98826      1.050     2.38     4.836657     20.58172     92.72346         7     0.754     0.589  72.74   0
       288    554.0560    385.3700 300.2698328 +22.6526173     197.4417     72.96968      1.078     3.42     4.889094     20.58172     36.89788         5     0.774     0.438  18.63   0
       289    687.3102    383.1259 300.3120532 +22.6919070     1916.602     73.11815      1.099     1.90     4.972706     20.58172     358.7513        16     0.861     0.781  72.81   0
       290    902.3315    375.8125 300.3814304 +22.7542205     631.8431     72.96968      1.100     2.13      4.41322     20.58172     98.35099         8     0.770     0.606  49.72   0
       291    349.1492    367.9371 300.2117380 +22.5861837     2115.751     73.00683      1.315     2.12     4.819532     20.58172     327.4032        25     1.294     0.848  70.02   0
       292    561.3773    366.7000 300.2781741 +22.6494489     223.4173     72.89534      1.047     2.74     4.890453     20.58172     53.00418         6     0.689     0.629  47.58   0
       293     87.8952    366.7294 300.1309254 +22.5074832      223.635     73.06251      1.233     3.67     4.365529     20.58172     37.43735         5     0.829     0.466  51.79   0
       294    788.1053    360.2708 300.3508752 +22.7155384     577.7805     73.06251      1.141     2.10       4.8507     20.58172     118.4577        10     0.834     0.661  75.29   0
       295    687.7815    358.0715 300.3203352 +22.6848496     278.4288     72.96968      1.182     2.60     5.024568     20.58172      42.5263         6     0.728     0.563 -39.58   0
       296    670.6142    358.2804 300.3149206 +22.6797657     445.7242     72.93252      1.055     1.92     5.020624     20.58172     76.44328         5     0.635     0.483 -81.45   0
       297    638.7172    357.3327 300.3052949 +22.6699355     320.4475     73.06251      1.162     1.78     4.958578     20.58172     61.64071         5     0.660     0.454 -15.32   0
       298    139.4622    348.8633 300.1527467 +22.5178247      325.466     72.98826      0.970     2.20      4.42913     20.58172      57.9008         5     0.695     0.475 -72.55   0
       299    424.9817    347.1779 300.2420660 +22.6029581     1279.787      72.9511      1.181     1.98     4.761199     20.58172     231.5934        14     0.968     0.737  62.62   0
       300    808.0880    339.9797 300.3636903 +22.7156926     257.0611     72.87674      0.950     1.97     4.818688     20.58172     74.96165         5     0.611     0.542  88.71   0
       301    669.8317    338.9100 300.3209659 +22.6739656     2192.442     72.89534      1.130     1.68     4.983526     20.58172     495.1831        19     0.965     0.829  50.99   0
       302    931.1030    333.1868 300.4042410 +22.7505834     3094.389     72.83953      1.111     1.87     4.410771     20.58172     626.5321        18     0.914     0.781  82.34   0
       303    477.3537    332.1288 300.2632470 +22.6143352     181.3944     72.93252      1.174     3.74     4.768644     20.58172     40.43301         5     0.842     0.477  38.52   0
       304    992.2685    327.8539 300.4250460 +22.7673657     446.7061     72.98826      1.098     1.99     4.330948     20.58172     108.1532         8     0.781     0.620   1.61   0
       305    378.0743    322.7607 300.2354010 +22.5818843     617.0008     72.93252      1.165     2.23     4.782505     20.58172     132.2496        11     0.908     0.651  69.48   0
       306   1000.4830    321.0641 300.4298123 +22.7678729     1602.685     73.06251      1.133     2.08     4.329805     20.58172      268.775        16     0.898     0.793  81.82   0
       307     83.7972    317.4508 300.1456497 +22.4921129     560.2168      72.9511      1.254     3.34       4.6568     20.58172     96.84039        11     0.955     0.863  39.87   0
       308     53.0958    317.2411 300.1361811 +22.4828432     1476.431      72.9511      1.554     2.94       4.6568     20.58172     166.6148        22     1.226     1.049 -36.32   0
       309    946.8149    313.5054 300.4155297 +22.7496298     524.7202     72.87674      1.128     2.44     4.397092     20.58172     101.1568         9     0.808     0.734  33.96   0
       310    790.3479    310.1555 300.3678445 +22.7018067     326.9718     72.96968      1.364     3.78     4.870867     20.58172     65.12668         6     0.935     0.438  51.76   0
       311    137.1871    309.2115 300.1649115 +22.5057623     489.4563     72.85814      1.378     3.03     4.788731     20.58172     60.80086        11     0.892     0.826 -50.05   0
       312    931.8360    306.3979 300.4131664 +22.7431009     285.9736      72.9511      1.024     1.95     4.415184     20.58172     66.49359         5     0.676     0.456 -21.00   0
       313    813.1365    302.6316 300.3773884 +22.7064699     286.2431      72.9511      1.288     1.53     4.788422     20.58172     70.20454         5     0.651     0.429 -26.66   0
       314    741.5536    300.3464 300.3558257 +22.6843712     555.3732     72.98826      0.999     2.08     4.888611     20.58172     124.5206         8     0.789     0.558  65.01   0
       315    331.7594    300.3076 300.2282848 +22.5615517     438.7771      72.9511      1.080     2.82     4.850308     20.58172     68.66677         7     0.938     0.477 -27.66   0
       316    832.2758    293.0562 300.3864614 +22.7094498      381.913     72.98826      1.153     2.57     4.673411     20.58172     65.17596         7     0.788     0.595  75.03   0
       317    839.5569    289.3821 300.3899233 +22.7105743     2071.318     72.96968      1.042     1.90     4.624985     20.58172     331.6114        19     1.024     0.760  80.30   0
       318    258.1520    286.9885 300.2097207 +22.5356583     2039.774     72.96968      1.195     2.00     5.002643     20.58172     383.4372        17     0.966     0.788  60.73   0
       319    336.1468    282.0802 300.2355654 +22.5576330      1103.86     72.96968      1.311     2.34     4.851092     20.58172     161.1441        15     0.957     0.839  59.10   0
       320     87.5624    282.2140 300.1582563 +22.4831298     408.7497      72.9511      1.419     2.97     4.894396     20.58172     57.82702         8     0.890     0.721  -0.16   0
       321    737.9814    280.7571 300.3610715 +22.6776711     539.2055     72.96968      1.137     3.03     4.861061     20.58172     108.9466        10     1.046     0.659 -82.21   0
       322    882.6022    277.8099 300.4070970 +22.7201384     210.9591     72.76505      1.052     3.39      4.46136     20.58172     28.82264         5     0.759     0.439  69.56   0
       323    845.2007    277.9955 300.3953784 +22.7089912     363.7029     72.76505      1.030     1.61     4.594719     20.58172     92.99356         5     0.694     0.427 -31.91   0
       324    152.7816    274.1916 300.1811234 +22.5003874      699.158     72.91393      1.202     2.73     5.005539     20.58172     123.8535        11     0.971     0.689  82.20   0
       325    270.9859    273.5218 300.2180815 +22.5356398     282.8025     72.96968      1.167     2.20     4.995137     20.58172     48.05809         6     0.737     0.498  -3.56   0
       326    690.7227    270.8181 300.3495762 +22.6606578     1713.795      72.9511      1.138     1.99     4.824373     20.58172     317.0073        13     0.871     0.742  88.06   0
       327    755.6171    270.2821 300.3699658 +22.6799430     487.5034     72.91393      1.000     1.90     4.861061     20.58172     93.22042         7     0.669     0.582 -87.77   0
       328    174.1418    267.4826 300.1899386 +22.5048672     509.3406     73.02539      1.074     2.12     5.018231     20.58172     90.46082         8     0.741     0.649  89.78   0
       329    962.2924    263.1655 300.4366965 +22.7397893     1008.691     72.89534      1.240     2.12      4.49377     20.58172     153.9272        13     0.984     0.746 -27.75   0
       330    464.2811    263.1138 300.2815809 +22.5905938     385.6134      73.0996      1.313     3.33     4.786273     20.58172     58.84226         6     0.955     0.423  79.82   0
       331    694.7587    261.9704 300.3537049 +22.6593241     782.9001     72.96968      1.098     2.15     4.824485     20.58172     147.4689        10     0.995     0.629 -88.68   0
       332    615.6048    261.3576 300.3292533 +22.6354345     1481.469     72.96968      1.259     5.60      4.85228     20.58172     343.8052        13     1.022     0.864  -4.86   0
       333    436.5334    258.0464 300.2745919 +22.5808219     370.3877      72.9511      1.295     2.63     4.778987     20.58172      57.3288         6     0.755     0.499 -88.97   0
       334    810.6891    252.9825 300.3927410 +22.6914648     1301.748     72.87674      1.072     1.90     4.800529     20.58172     264.6513        14     0.869     0.716  78.74   0
       335    541.4407    253.4190 300.3087408 +22.6109317      1015.49     72.96968      1.040     1.98     4.830184     20.58172     161.1263        13     0.904     0.753  60.43   0
       336    822.8995    251.9688 300.3968753 +22.6948302     806.1975     72.93252      1.269     2.26      4.72789     20.58172     155.8359        15     1.047     0.860 -41.01   0
       337      7.2649    252.1394 300.1430759 +22.4504135     241.5728     72.98826      1.172     3.45     4.855731     20.58172     30.19001         5     0.993     0.347 -44.62   0
       338    868.8962    251.1199 300.4114872 +22.7083605     252.6041     73.08105      0.739     1.80     4.472314     20.58172     80.70071         5     0.685     0.476  36.88   0
       339    993.5810    249.4250 300.4509139 +22.7452052     268.8213     72.96968      1.345     3.83     4.633371     20.58172     38.69002         5     1.045     0.403 -72.84   0
       340    381.6967    249.6147 300.2602690 +22.5619640     195.5678     72.85814      1.006     3.62     4.821668     20.58172     47.30108         5     0.899     0.419  46.16   0
       341    983.5135    242.8773 300.4498991 +22.7403083     1702.352     73.08105      1.173     1.98     4.639045     20.58172     275.0083        21     1.043     0.919 -44.37   0
       342    939.3402    242.3097 300.4363083 +22.7269201     1014.308     73.04395      1.097     1.97     4.493263     20.58172      166.587        14     0.897     0.756  66.76   0
       343    173.2891    235.9079 300.1999200 +22.4955473     696.6312     73.11815      1.200     2.37     5.014562     20.58172     110.2643         9     0.838     0.754 -69.45   0
       344     55.7660    234.6395 300.1638180 +22.4599389     286.7402     72.98826      1.311     2.97     4.918995     20.58172     43.24301         5     0.748     0.431  20.19   0
       345     35.3569    230.5633 300.1588016 +22.4526477     2189.549     73.02539      1.292     2.40     4.886674     20.58172     284.7203        20     1.032     0.983 -42.03   0
       346    858.4408    227.0547 300.4160381 +22.6983106     703.8721     72.91393      1.047     2.56     4.516027     20.58172     114.6862         9     0.888     0.654 -75.25   0
       347    192.7852    223.8672 300.2098862 +22.4979363     5490.061     72.93252      1.217     2.08     5.013223     20.58172     934.2975        28     1.032     0.938  56.05   0
       348    174.3511    224.4041 300.2039829 +22.4925631     296.8207     72.93252      1.070     3.91     5.013131     20.58172     46.97251         6     0.918     0.477  88.71   0
       349    176.0535    214.8110 300.2076246 +22.4903194     576.0167      72.9511      1.221     2.61     5.012061     20.58172     88.67512         9     0.783     0.739  77.70   0
       350    991.5916    210.9196 300.4627894 +22.7335354     18083.48     72.89534      1.156     2.14     4.783814     20.58172     2835.373        45     1.106     0.985  86.36   0
       351    836.8200    205.1044 300.4164221 +22.6855252     3539.689     72.85814      1.140     1.90     4.717768     20.58172     674.0845        21     0.952     0.828  76.26   0
       352    940.4180    203.8450 300.4491267 +22.7161813      2977.89     72.96968      1.161     1.94     4.632741     20.58172     475.6679        21     0.997     0.838  55.34   0
       353    386.1974    200.6008 300.2775734 +22.5492350     650.7756     72.72778      1.062     2.31       4.8786     20.58172     115.3375        11     0.826     0.743  79.17   0
       354    139.2829    201.2743 300.2005901 +22.4754075     326.7595     73.06251      1.280     2.36     5.005979     20.58172     64.05775         6     0.813     0.519 -44.28   0
       355    500.6090    198.4835 300.3138586 +22.5829131     349.3474     72.89534      1.361     3.13     4.816729     20.58172      57.2685         5     0.740     0.462  19.31   0
       356    310.4237    192.3112 300.2566964 +22.5241424     552.5645     72.87674      0.974     2.23      5.00018     20.58172      97.5693         8     0.827     0.592 -86.39   2
       357    314.5335    191.1020 300.2583667 +22.5250270     294.4907     73.04395      1.150     2.81     5.004441     20.58172      74.7189         7     0.894     0.672 -86.37   2
       358    437.5941    187.7424 300.2977348 +22.5609444     1718.854     72.91393      1.083     1.99     4.798494     20.58172     311.0579        15     0.931     0.742  56.59   0
       359     76.3881    189.3235 300.1849268 +22.4531165     609.8142     72.96968      1.106     2.58     4.962337     20.58172     90.25784         7     0.763     0.616 -62.76   0
       360    365.6890    188.1755 300.2752256 +22.5395194      437.776     72.89534      1.106     2.15     4.985018     20.58172      86.0486         9     0.817     0.661  19.90   0
       361    334.3897    188.5012 300.2653854 +22.5302317     2791.466     72.83953      0.795     0.82     5.021027     20.58172     1277.763         7     0.679     0.383 -42.47   0
       362    499.2262    186.8974 300.3171874 +22.5791699      449.635     72.89534      1.108     1.84     4.829409     20.58172     79.34396         6     0.646     0.555 -49.50   0
       363    181.2129    183.3908 300.2194221 +22.4828453     410.9391     72.83953      1.199     2.72     5.009244     20.58172      66.6143         8     0.874     0.612  20.32   0
       364    726.0854    176.9863 300.3910405 +22.6442802     220.8203     72.89534      0.992     2.03     4.788403     20.58172     80.01379         6     0.712     0.512 -67.03   0
       365     82.3617    173.8066 300.1918163 +22.4504536      264.675     72.98826      1.235     3.72      4.97336     20.58172     45.41626         5     0.880     0.474 -41.09   0
       366    871.9234    171.1152 300.4383920 +22.6862625     375.5968     73.06251      1.191     2.57     4.798841     20.58172     69.18044         5     0.742     0.492 -71.70   0
       367    997.5775    169.8250 300.4779904 +22.7235072     335.2704     72.91393      1.330     3.40     4.802053     20.58172     38.26307         5     0.795     0.421  67.50   0
       368   1002.1031    168.2724 300.4799056 +22.7244152     3516.306     73.08105      1.160     1.95     4.801023     20.58172     574.8486        22     0.962     0.901  68.46   0
       369    622.5197    168.8125 300.3614363 +22.6109106     256.3217     72.93252      0.965     1.81     4.855288     20.58172     57.73134         5     0.666     0.453 -64.35   0
       370    211.6918    167.7058 300.2339836 +22.4874793     6088.802     73.11815      1.228     2.23     5.016403     20.58172     933.5959        30     1.133     0.938  62.30   0
       371     62.8744    167.1260 300.1879300 +22.4426921      596.962     73.00683      1.279     2.86     4.938456     20.58172     91.86609        11     0.971     0.722 -77.25   0
       372    840.8189    164.7187 300.4307719 +22.6751103     334.0684     72.93252      1.012     1.78     4.862438     20.58172     80.85927         5     0.667     0.439  11.12   0
       373    183.3420    161.3923 300.2272203 +22.4771672     140.5404     72.93252      0.908     2.50     5.007762     20.58172     68.76787         5     0.715     0.456  76.17   0
       374    227.1405    158.7779 300.2416819 +22.4895469     379.6361     72.93252      1.130     2.54     5.016875     20.58172      61.3299         7     0.829     0.568  27.79   0
       375    457.7903    152.9369 300.3153104 +22.5569967     6074.766     72.89534      1.183     2.03     4.849542     20.58172     1086.367        27     1.039     0.891  82.97   0
       376    343.1564    152.8060 300.2796919 +22.5226066     626.6069     72.96968      1.070     2.06     5.090822     20.58172     113.5976        10     0.820     0.688 -73.72   0
       377    718.2205    168.0591 300.3914867 +22.6393584     376.0298     72.89534      1.020     1.65     4.778532     20.58172     87.63261         6     0.671     0.509  49.25   0
       378    514.9630    147.2453 300.3349490 +22.5724913     341.6894     72.98826      1.226     2.40     4.844081     20.58172     51.00576         5     0.757     0.479  56.31   0
       379    477.9645    146.9700 300.3235238 +22.5613271     311.0281     72.96968      1.396     3.73     4.878294     20.58172     35.71059         5     0.645     0.619 -88.12   0
       380    709.0000    146.1595 300.3957190 +22.6303014     283.9063     72.96968      1.651     3.73     4.859067     20.58172     47.87743         5     1.071     0.374 -88.73   3
       381    710.2729    142.5600 300.3972832 +22.6296478     804.4133     72.93252      1.147     2.10      4.87379     20.58172     145.5053        10     0.945     0.563  51.74   2
       382    651.5347    144.0052 300.3785194 +22.6124713     248.5869      72.9511      0.963     2.03     4.943199     20.58172     67.27969         6     0.726     0.499  89.17   0
       383    802.9996    141.2642 300.4265942 +22.6570423     552.6762      72.9511      1.413     2.17     4.909994     20.58172     99.75653         9     0.865     0.631 -57.67   0
       384     21.5607    139.4875 300.1840631 +22.4223691     307.8618     72.93252      1.237     3.76     5.189451     20.58172     42.70568         6     0.944     0.431  72.90   0
       385    150.5058    136.8599 300.2249735 +22.4602786     514.3325     73.04395      1.334     3.39     4.936217     20.58172     59.91215         6     0.778     0.493 -82.18   0
       386    586.1685    133.0236 300.3617278 +22.5897356     6135.108     72.93252      1.165     1.89     4.917092     20.58172     1207.726        27     0.992     0.879  83.30   0
       387    509.1082    135.1919 300.3370367 +22.5672736     428.8638     72.85814      1.165     2.55     4.858482     20.58172     79.74975         8     0.949     0.514  38.40   0
       388    970.1001    132.8969 300.4814010 +22.7046604     1744.932     73.15521      0.490     2.11      4.88709     20.58172     1175.187         6     0.395     0.347 -50.79   0
       389    361.1171    132.1021 300.2919939 +22.5220420     1437.466     73.11815      1.141     1.98     5.032465     20.58172      268.535        15     0.941     0.755  67.51   0
       390    627.1716    130.3757 300.3753537 +22.6012564     921.2637      72.9511      1.114     2.18     5.004732     20.58172     139.8751        11     0.855     0.668  79.28   0
       391    643.3720    125.6898 300.3819185 +22.6047618     682.7586     72.93252      1.459     4.56      5.05732     20.58172     111.6395        14     1.320     0.787 -67.95   0
       392    109.8310    124.5012 300.2163435 +22.4445351     608.0306     72.93252      1.137     2.53     4.945305     20.58172     93.60656        10     0.834     0.738  89.56   0
       393    913.0233    123.9398 300.4665090 +22.6849993     554.9002     72.93252      1.135     1.78     4.875177     20.58172     116.3936         9     0.716     0.689 -72.38   0
       394    952.0076    123.2184 300.4788985 +22.6964610     205.1505     72.91393      1.024     3.22     4.894539     20.58172     44.04376         6     0.870     0.489  36.02   0
       395    681.7711    121.8022 300.3951386 +22.6151446     590.9314     72.89534      1.181     2.58     5.117207     20.58172      93.2177         8     0.928     0.539  82.87   0
       396    630.3305    117.8966 300.3803851 +22.5986156     2611.862     73.08105      1.108     1.83     5.071239     20.58172     518.0064        18     0.969     0.773  85.31   0
       397    270.9642    118.6270 300.2683294 +22.4911521     482.5028      72.9511      1.377     2.74     4.920803     20.58172     67.78618         8     0.791     0.698 -85.04   0
       398    645.4178    116.6346 300.3854928 +22.6027716     858.2346      72.9511      1.567     4.57     5.121454     20.58172     113.5122        13     1.408     0.668  56.10   0
       399    716.7737    109.3447 300.4100823 +22.6220454     1610.616      72.9511      1.132     2.12      5.02122     20.58172     262.7787        13     0.902     0.750  84.08   0
       400    876.8607    107.5502 300.4605513 +22.6694602     387.3237     73.00683      1.375     4.08     4.882146     20.58172     45.95956         8     1.068     0.801  21.80   0
       401    654.7290    102.4806 300.3929833 +22.6014914     690.4967     73.06251      1.053     2.03     5.266853     20.58172      125.309        10     0.809     0.688  52.33   0
       402    460.3234    101.9157 300.3326479 +22.5430956     1053.716     73.06251      1.130     1.99     4.854149     20.58172     183.5168        13     0.903     0.711 -77.56   0
       403     33.1196    102.1235 300.1997712 +22.4151094     564.9362     73.06251      1.278     2.38     5.619901     20.58172     85.00037        10     0.855     0.712 -73.36   0
       404    364.0274     99.9414 300.3033301 +22.5136750     710.8098      72.9511      1.182     2.63     4.962574     20.58172     129.6279        10     0.897     0.676  59.13   0
       405    746.5421     98.6736 300.4228173 +22.6278911     371.3666     72.98826      0.978     2.33     4.926445     20.58172     73.17172         6     0.754     0.524 -46.44   0
       406   1007.1357     96.6007 300.5047251 +22.7053034     2218.405      72.9511      1.192     2.05     5.039687     20.58172     430.5721        18     0.963     0.866 -87.21   0
       407    135.6286     90.2629 300.2354631 +22.4424384     3756.088      72.9511      1.258     2.30     4.858393     20.58172     473.5304        27     1.138     0.983  48.20   0
       408    703.7499     90.4364 300.4121579 +22.6127090     668.2767     72.96968      1.020     1.85     5.179265     20.58172     133.0309         9     0.760     0.652 -81.47   0
       409    558.0218     86.9842 300.3678977 +22.5680721     357.4633     72.93252      1.133     2.82     4.958833     20.58172     55.20086         7     0.859     0.522  40.37   0
       410    461.5732     87.2651 300.3377882 +22.5392601     380.5742     72.93252      1.180     2.74      4.84755     20.58172     55.59217         7     0.769     0.630  68.39   0
       411    696.9415     82.4450 300.4126289 +22.6083727     888.6818     72.98826      1.076     1.98     5.240325     20.58172     170.1236         9     0.774     0.660  72.07   0
       412    251.4874     82.3029 300.2740544 +22.4748813     1203.937     73.13668      1.157     2.16     4.892317     20.58172     167.9907        15     0.903     0.842  22.50   0
       413    183.7345     82.5688 300.2529078 +22.4546497     193.3668      72.9511      1.407     3.78     4.854039     20.58172     35.41321         5     0.974     0.421 -81.35   0
       414    662.5538     81.6011 300.4021919 +22.5978323     390.3102      72.9511      1.181     3.34     5.385068     20.58172     52.71307         8     0.891     0.684  48.02   0
       415    478.1420     79.2496 300.3455436 +22.5419206     306.7024     73.00683      1.136     3.24     4.855454     20.58172     41.97463         6     0.753     0.562  45.88   0
       416    734.6874     77.4569 300.4260050 +22.6182410     713.7296     73.02539      1.435     3.46     4.950118     20.58172     78.51714        11     1.141     0.643  69.44   0
       417    658.3787     77.4203 300.4022475 +22.5953801     464.2881      72.9511      1.064     2.39     5.380783     20.58172      70.5286         8     0.800     0.670 -35.65   0
       418    754.7094     73.8079 300.4334263 +22.6231866     2096.356     72.85814      1.111     1.87     4.925553     20.58172     427.1347        16     0.888     0.795  87.74   0
       419    460.2082     71.9780 300.3423210 +22.5344582      384.148      72.9511      1.039     2.48      4.83172     20.58172      79.5612         8     0.821     0.595  47.33   0
       420    138.0160     69.2474 300.2430198 +22.4371193     1131.429     72.98826      1.326     2.45      4.86459     20.58172     150.0934        15     1.017     0.813  46.63   0
       421    703.0544     66.3583 300.4197499 +22.6055779     832.1769      72.9511      1.102     2.01     5.210012     20.58172     157.1179        11     0.927     0.678 -85.50   0
       422    929.6647     66.7559 300.4902446 +22.6735318     740.0405     72.93252      1.259     2.41     4.888991     20.58172     116.3875        10     0.901     0.637  86.15   0
       423    410.4055     64.4329 300.3292723 +22.5173693      465.989      72.9511      1.026     2.71     4.810442     20.58172     55.89505         6     0.812     0.489  86.22   0
       424    125.3284     64.5471 300.2406016 +22.4319662     201.0214     72.93252      1.077     3.69     4.885128     20.58172     53.66637         5     0.994     0.406  74.96   0
       425    153.6487     58.8214 300.2512584 +22.4388114     186.9809      72.9511      1.137     3.98     4.847233     20.58172     43.53297         6     1.048     0.433 -77.89   0
       426    460.8127     58.6044 300.3468459 +22.5307961     417.0465      72.8023      1.026     1.84     4.820515     20.58172     63.62196         5     0.679     0.441  24.11   0
       427    287.8087     56.0554 300.2938586 +22.4782270     446.0993      72.9511      1.288     2.78     4.862406     20.58172     60.61641         8     0.822     0.634  52.99   0
       428    555.6873     51.2387 300.3787627 +22.5570984     854.5507     72.93252      1.133     2.07      5.08282     20.58172       140.68        10     0.811     0.661  61.53   0
       429    788.1990     50.1694 300.4515270 +22.6264153     215.3092     72.91393      1.074     2.81     4.901776     20.58172      45.6369         6     0.746     0.547  53.29   0
       430    690.7927     48.7727 300.4216331 +22.5968500     178.2143      72.9511      1.019     2.52     5.329596     20.58172     59.56474         6     0.741     0.526  58.67   0
       431    290.2859     49.1585 300.2968651 +22.4769881     375.5901     72.91393      1.517     3.79     4.862442     20.58172     47.00932         7     0.948     0.549  34.08   0
       432    164.9845     48.3983 300.2581607 +22.4392159     574.9626      72.8023      1.270     1.96     4.847991     20.58172     83.91578         7     0.673     0.647  -8.49   0
       433    718.9490     45.8412 300.4313544 +22.6044377     749.5534      72.9511      1.187     2.17     5.090673     20.58172     135.9654        12     1.035     0.766 -54.26   0
       434    527.3604     44.2691 300.3722050 +22.5466106     1860.137     72.91393      1.133     2.08     4.975641     20.58172     293.0101        19     1.024     0.789  86.06   0
       435    250.1552     41.7813 300.2867798 +22.4628425     824.1201     72.96968      1.368     2.62     4.873113     20.58172     112.4021        11     0.893     0.770  75.49   0
       436    484.6671     38.0165 300.3609448 +22.5320252     1268.778     72.93252      1.149     2.15     4.819104     20.58172     213.9996        16     0.894     0.823  60.40   0
       437    590.0724     34.7305 300.3948205 +22.5626513     1319.879     73.02539      1.110     1.89      5.37114     20.58172     272.2122        13     0.867     0.730  80.53   0
       438    185.3238     33.8503 300.2691988 +22.4411339     440.8694      72.9511      1.179     2.74     4.862351     20.58172     88.56886         8     0.875     0.629 -72.82   0
       439    233.9948     31.8485 300.2849764 +22.4551461     545.0836     72.93252      1.227     2.80     4.870645     20.58172     91.57692        10     0.946     0.731  82.47   0
       440    410.4952     28.6620 300.3408988 +22.5071173     2302.003     73.04395      1.177     2.16     4.802747     20.58172     326.8716        19     0.983     0.890  88.29   0
       441    901.4821     26.1984 300.4946092 +22.6534296     355.5181     72.85814      1.236     4.00     4.886937     20.58172     53.98557         8     1.068     0.600  55.84   0
       442     57.2762     26.3325 300.2318499 +22.4005916     1369.581     73.04395      1.386     3.23     5.398479     20.58172     171.3092        20     1.269     0.942  59.52   0
       443    541.6565     23.1448 300.3835043 +22.5448205     549.5508     73.00683      1.395     3.44     5.087355     20.58172     62.20428         8     0.817     0.649  57.69   0
       444    200.1663     20.9854 300.2779829 +22.4418873     181.6627     72.93252      1.166     4.60     4.863747     20.58172     35.16796         7     0.956     0.630 -71.01   0
       445    885.0505     17.2228 300.4923967 +22.6459298     406.3156      72.9511      1.177     2.26     4.886937     20.58172     67.78984         7     0.780     0.633  61.29   0
       446    252.3770     13.7073 300.2965726 +22.4554436     363.5062     72.87674      1.276     2.79     4.859256     20.58172     58.24777         6     0.808     0.525  47.56   0
       447     40.0782    999.4281 299.9103900 +22.6745376     3244.316     72.96968      9.214    34.75     18.98436     20.58172     82.60127       358     9.211     3.638 -31.77  19
       448    659.8234   1014.8464 300.0980883 +22.8650288     247.5281     72.96968      1.389     4.73     3.347744     20.58172     38.77102         6     1.153     0.550 -20.15   0
