#   1 NUMBER                 Running object number                                     
#   2 X_IMAGE                Object position along x                                    [pixel]
#   3 Y_IMAGE                Object position along y                                    [pixel]
#   4 ALPHA_J2000            Right ascension of barycenter (J2000)                      [deg]
#   5 DELTA_J2000            Declination of barycenter (J2000)                          [deg]
#   6 FLUX_APER              Flux vector within fixed circular aperture(s)              [count]
#   7 FLUXERR_APER           RMS error vector for aperture flux(es)                     [count]
#   8 FLUX_RADIUS            Fraction-of-light radii                                    [pixel]
#   9 FWHM_IMAGE             FWHM assuming a gaussian core                              [pixel]
#  10 BACKGROUND             Background at centroid position                            [count]
#  11 THRESHOLD              Detection threshold above background                       [count]
#  12 FLUX_MAX               Peak flux above background                                 [count]
#  13 ISOAREA_IMAGE          Isophotal area above Analysis threshold                    [pixel**2]
#  14 A_IMAGE                Profile RMS along major axis                               [pixel]
#  15 B_IMAGE                Profile RMS along minor axis                               [pixel]
#  16 THETA_IMAGE            Position angle (CCW/x)                                     [deg]
#  17 FLAGS                  Extraction flags                                          
         1    694.3844     16.4176 300.3928934 +22.6015298     837.8239     72.15794      1.622     3.73     6.500586     20.36313     72.37206        13     1.069     0.871  49.74   0
         2    500.2146     15.8302 300.3325852 +22.5432657     1016.493     72.17632      1.416     3.31     5.405317     20.36313     107.0427        16     1.031     1.009 -22.86   0
         3    403.7808     13.8813 300.3031890 +22.5138442     830.2803     72.15794      1.566     3.40     5.192929     20.36313     86.75087        13     1.143     0.728 -25.63   0
         4    786.0827     12.9460 300.4226066 +22.6279588     488.8909     72.21308      1.625     2.79      6.11469     20.36313     57.40702         7     0.907     0.628 -61.07   0
         5    743.5562      4.6258 300.4120419 +22.6128456     458.6103     70.67152      1.290     2.73     6.653025     20.36313     63.70151        10     0.935     0.714 -16.20  16
         6    175.1369      3.6351 300.2353631 +22.4424487     3837.875     67.40412      1.683     3.42     5.632287     20.36313      415.607        36     1.397     1.242  29.88  24
         7    597.7114      1.5667 300.3675766 +22.5683369     223.8877     57.50341      0.937     2.77     5.945898     20.36313     44.41393         5     0.695     0.488  10.17  24
         8    175.4723    998.7025 299.9125038 +22.7281637     2736.054     72.30489      5.611    21.39     82.55397     20.36313     77.34225       122     4.960     2.561  16.54  19
         9     90.3667   1011.5208 299.8818769 +22.7062985     5052.088     72.15794     17.096   104.52     81.90313     20.36313      153.367      2354    20.118    17.428  87.46  27
        10     80.6838    945.6534 299.9002876 +22.6845110     5626.749     72.21308     29.785   114.11     25.47681     20.36313     1334.937      4504    22.125    16.329 -63.05  19
        11      3.2271   1002.8383 299.8576209 +22.6776551     1332.253      65.7499     14.164    21.11    -12.34512     20.36313     41.75626        45     6.272     1.974  75.45  27
        12    176.5603    991.8025 299.9150863 +22.7265119      2183.31      72.1947      6.098    15.26     76.13531     20.36313     57.39694        61     2.965     2.183 -43.22   3
        13      7.3010   1004.5659 299.8583248 +22.6793731     1005.988     72.15794     12.386    13.82    -8.616638     20.36313     47.47532        25     6.676     0.795 -85.84  27
        14    168.1312    968.6470 299.9199958 +22.7173437     1422.925     72.15794      7.692    13.70     56.63692     20.36313     57.37534        33     3.215     1.624  57.95   3
        15    171.3325    979.9162 299.9173264 +22.7215353     1455.332     72.28654      4.462     9.30     66.03609     20.36313     58.43502        22     1.923     1.256 -77.56   3
        16    170.6001    975.8139 299.9184327 +22.7201394     1574.947      72.0291      3.181    11.96     62.49012     20.36313     65.18069        35     2.699     1.476 -36.83   3
        17    234.8810   1000.5002 299.9303943 +22.7465047     1647.811     72.30489      3.049    14.99     68.96103     20.36313     59.17381        46     3.287     1.900   1.62   3
        18    204.4588    986.4742 299.9254945 +22.7333552     3738.563     72.21308      8.492    34.16     68.15439     20.36313     82.70013       308     6.813     4.783  44.50  19
        19    930.5568    970.9122 300.1567220 +22.9465874     776.0123     72.17632      2.217     8.84     4.230266     20.36313     37.29088        17     1.557     1.402 -63.73   0
        20    223.4777    983.7426 299.9322977 +22.7382783     5247.006     72.21308      7.414    22.18     64.41363     20.36313     97.04108       340     5.434     4.673  69.97   3
        21    149.2937    955.9097 299.9182808 +22.7080395     2115.712     72.34159     11.225    15.05     44.94558     20.36313     72.35513        72     3.321     2.554   9.15   3
        22    655.5302    953.9273 300.0764950 +22.8592932      6803.15     72.24982      1.997     4.58     4.163075     20.36313     370.0037        53     1.584     1.498   1.83   0
        23    167.3555    947.2596 299.9267093 +22.7109787     1020.414      72.1947      5.469     8.81     37.35725     20.36313     37.17602        11     2.008     1.080   5.63   2
        24    359.8899    997.9135 299.9701270 +22.7832650     391.2516     72.34159      1.375     3.82     3.964884     20.36313     43.27817         5     1.065     0.393  57.05   0
        25    564.1052    944.4417 300.0510970 +22.8291637     1633.494      72.1947      2.050     4.89     4.241808     20.36313     103.2311        29     1.463     1.322 -11.96   0
        26    550.6421    991.5876 300.0315708 +22.8386563     2389.485     72.15794      2.012     4.98     4.262311     20.36313     138.5392        32     1.463     1.408 -33.08   0
        27    457.9183    941.1171 300.0191108 +22.7963716       952.72     72.30489      1.752     4.45     4.250432     20.36313      79.3655        19     1.177     1.121  46.18   0
        28    388.4040    938.9696 299.9981703 +22.7749093     6425.106     72.13954      1.966     4.51     4.221073     20.36313     399.4275        48     1.579     1.471 -45.87   0
        29    216.1421    936.3956 299.9454130 +22.7225004     313.0957     72.13954      2.993     4.24     19.96216     20.36313     27.91442         5     1.187     0.433 -11.89   0
        30    242.1792    974.0780 299.9412574 +22.7411178     7920.956     72.17632      9.709    34.67     41.84842     20.36313     167.2369       852    11.734     5.219  65.00  18
        31    421.0290    925.9574 300.0125563 +22.7809601     509.9941      72.1947      1.609     5.07     4.268674     20.36313      49.5271         9     1.151     0.745   6.11   0
        32      4.4048    987.8047 299.8628760 +22.6737001      1166.05      69.9544      4.344     5.18    -8.802577     20.36313     39.31044         5     1.455     0.522  11.46  18
        33    934.9513    918.0320 300.1752904 +22.9327160     2233.934     72.21308      2.113     5.63      4.29877     20.36313     104.0531        34     1.606     1.414 -50.79   0
        34    433.3167    914.4750 300.0201148 +22.7813503     316.3725     72.26818      1.663     4.52     4.281484     20.36313     34.55459         5     1.189     0.489 -58.99   0
        35    724.4581    906.9836 300.1132417 +22.8664757     856.5623     72.15794      2.499     6.61     4.269461     20.36313     49.62345        14     1.589     0.830  85.05   2
        36    159.1083    908.4631 299.9367593 +22.6973797     951.2339     72.28654      0.838     0.28     17.69506     20.36313     283.7859         8     0.601     0.545 -43.27   0
        37    758.3909    900.9678 300.1257754 +22.8749170     1107.712     72.17632      1.886     4.93     4.316075     20.36313     66.94099        22     1.249     1.229  88.53   0
        38    534.4411    902.0444 300.0556438 +22.8081030     287.6252     72.24982      1.731     4.09     4.276178     20.36313      28.1852         5     0.766     0.625   7.35   0
        39      4.1458   1021.6911 299.8517746 +22.6833339      1326.52     62.86109      6.988    15.39    -14.56601     20.36313     44.77184        43     4.026     1.636 -15.59  19
        40    780.6902    894.7023 300.1347647 +22.8797998     11557.46     72.35993      1.922     4.34     4.359404     20.36313     651.8802        57     1.544     1.497 -26.70   0
        41    971.1108    895.1722 300.1940058 +22.9369806     446.6296     72.15794      1.823     4.90      4.42758     20.36313     44.38685         8     1.324     0.514  11.85   0
        42    827.0240    896.0000 300.1487901 +22.8940552     406.0689     72.08434      1.802     4.24     4.404063     20.36313     31.69102         5     0.889     0.576  -0.21   2
        43    637.4486    987.0211 300.0600978 +22.8633714     9046.621      72.1947      2.195     5.51     4.111985     20.36313     446.2411        52     1.759     1.521  13.51   3
        44    642.6038    984.7558 300.0624409 +22.8642667      9919.82      72.1947      2.157     5.00     4.103364     20.36313     509.0101        48     1.594     1.475  42.01   3
        45    737.7041    987.5320 300.0911758 +22.8935698     682.0283     72.30489      1.816     6.88     3.501348     20.36313     48.78994        12     1.177     1.146 -39.61   0
        46     92.6615    885.9179 299.9234316 +22.6709788     1176.383     72.26818      4.086     4.75     8.957612     20.36313     64.72955        12     1.390     0.785  85.21   0
        47    486.0800    882.5132 300.0469336 +22.7879993     478.0499     72.34159      1.875     6.09     4.276257     20.36313     42.22965        11     1.269     0.823  15.69   0
        48      3.2241   1016.2805 299.8532481 +22.6815066     1646.485     65.70953      7.888    14.48    -14.69637     20.36313     48.88004        46     3.266     1.784 -37.05  27
        49    789.0204    876.6180 300.1432416 +22.8771027     1367.903     72.17632      1.848     5.43     4.441046     20.36313     101.8731        25     1.470     1.185  56.05   0
        50     81.3869    875.3277 299.9233697 +22.6645594     1427.894      72.1947      0.724     0.25     6.939997     20.36313      773.165         8     1.156     0.321  38.41   0
        51    972.6469    875.4377 300.2009015 +22.9317714     433.1807     72.21308      2.145     5.53     4.596392     20.36313     30.50585         5     1.243     0.695  45.14   0
        52    640.6479    873.5677 300.0979870 +22.8317649     537.8204     72.21308      2.132     4.49     4.270371     20.36313     46.86332         5     1.035     0.598  57.80   0
        53    827.4125    870.2328 300.1572888 +22.8867715     984.9722     72.15794      2.442     8.60     4.537443     20.36313     46.38881        25     1.727     1.391  80.05   0
        54    875.6459    861.6375 300.1751261 +22.8987523     583.6573     72.21308      1.920     6.77     4.667881     20.36313     44.72504        12     1.326     0.970 -17.07   0
        55    727.2354    860.3597 300.1292656 +22.8539212     696.2043     72.23145      1.938     5.42     4.473809     20.36313     58.10122        15     1.349     0.997 -51.09   0
        56    738.2921    857.6333 300.1335985 +22.8564514     516.9197     72.12115      1.799     6.65      4.50629     20.36313     35.31226        12     1.136     1.094 -73.90   0
        57    439.6592    856.6576 300.0408859 +22.7666619     4252.704     72.24982      1.841     4.00     4.329672     20.36313     320.1932        35     1.399     1.339 -40.98   0
        58    482.5433    845.3383 300.0579170 +22.7762702     350.7106     72.24982      2.008     5.40     4.277748     20.36313     27.24421         6     1.452     0.567 -33.29   0
        59    165.1139    842.5838 299.9600420 +22.6802886       913.61     72.13954      1.981     4.32     7.117883     20.36313     73.85081        19     1.305     1.073  21.25   0
        60    141.9333    839.2706 299.9539115 +22.6723847     1531.686     72.21308      1.974     4.77      6.58532     20.36313     110.7198        27     1.448     1.278  19.58   0
        61   1013.6522    828.7516 300.2288753 +22.9306382     1990.936     72.21308      1.996     5.25     5.107946     20.36313     109.8018        32     1.497     1.403  55.59   0
        62    967.9526    827.3729 300.2150620 +22.9165566     2054.842      72.1947      1.907     4.72     4.896266     20.36313     121.5071        26     1.362     1.222 -17.89   0
        63    673.9508    827.6866 300.1232792 +22.8285726     490.5745     72.17632      1.934     6.46     4.415852     20.36313     32.16549         8     1.672     0.700 -80.51   0
        64    751.1892    821.2012 300.1494616 +22.8498536     732.8271     71.99224      1.889     4.79     4.580577     20.36313     47.22375        11     0.958     0.856  34.61   0
        65    619.7137    814.8559 300.1105492 +22.8086353      4948.45     72.24982      1.749     3.85     4.306833     20.36313     351.0456        38     1.356     1.339 -70.90   0
        66    110.5288    815.4364 299.9518944 +22.6561284     345.1132     72.17632      1.141     3.75     5.350478     20.36313      43.6802         6     0.922     0.437  72.71   0
        67    422.1198    811.5269 300.0500947 +22.7484520     690.3023     72.28654      1.779     6.12     4.404599     20.36313     49.79497        12     1.227     0.858 -73.65   0
        68    169.9833    808.5064 299.9726314 +22.6719754     1311.905     72.10275      1.875     4.55     5.402293     20.36313     129.6876        24     1.376     1.231 -36.55   0
        69    640.2312    807.6020 300.1192996 +22.8127012     773.3932     72.13954      1.703     4.58     4.372911     20.36313     56.03069        17     1.227     1.038  16.68   0
        70    188.9708    805.6323 299.9794698 +22.6768462     403.5605     72.17632      1.552     5.93      5.14963     20.36313     42.08224         8     1.121     0.882 -31.29   0
        71    836.0190    798.4257 300.1833142 +22.8687251     1990.049      72.1947      0.643     0.92     4.646739     20.36313     981.0569         6     0.495     0.379 -86.37   0
        72    795.7927    794.7548 300.1719634 +22.8556207     4310.649      72.1947      1.792     3.84     4.615186     20.36313     288.6596        40     1.430     1.373 -83.09   0
        73    557.3038    798.3234 300.0964803 +22.7851848     357.4734     72.32324      1.596     4.42     4.299959     20.36313     36.47123         5     0.956     0.581 -36.31   0
        74   1012.8995    795.4249 300.2394728 +22.9208363      1136.42     72.10275      2.008     5.60     5.415323     20.36313     75.12236        21     1.391     1.164 -28.95   0
        75    527.6200    791.9504 300.0893061 +22.7744584      269.331     72.15794      1.885     4.32     4.331366     20.36313     33.37321         5     1.170     0.455  23.71   0
        76    204.3006    789.1478 299.9895941 +22.6767155     362.0928     72.26818      1.819     5.17     4.951003     20.36313     42.41912         7     1.296     0.584  -8.17   0
        77    512.7664    786.8737 300.0863301 +22.7685491     539.8209     72.15794      1.574     5.53     4.357939     20.36313     51.89285        11     1.073     0.803  43.94   0
        78    159.0753    784.9942 299.9768802 +22.6619596     939.9984     72.10275      1.818     4.87     5.040154     20.36313     87.94698        17     1.355     1.096  26.07   0
        79    308.7558    777.0533 300.0260169 +22.7045701     53719.72      72.1947      1.786     3.70      4.63133     20.36313     4206.976       106     1.570     1.527 -15.98   0
        80    574.3159    780.4503 300.1075878 +22.7851521     524.4558     72.15794      1.748     4.84     4.403561     20.36313     51.81678        10     1.039     0.758  39.16   0
        81    979.5236    775.9536 300.2353851 +22.9052471     893.7495     72.17632      1.781     5.52     5.166076     20.36313     57.43919        14     1.126     0.943  34.68   0
        82    566.8469    776.3074 300.1066076 +22.7817243     1699.015      72.1947      1.639     3.40     4.425067     20.36313     142.7838        21     1.131     1.078 -34.38   0
        83    236.7112    775.6893 300.0040477 +22.6825747     544.3627     72.34159      1.761     5.47     4.869184     20.36313     54.90356         8     1.434     0.589 -21.30   0
        84    595.4678    772.3961 300.1167944 +22.7891786     843.2336     72.15794      1.660     3.54      4.45438     20.36313     80.95009        19     1.196     1.003 -12.41   0
        85    606.6698    770.7389 300.1208228 +22.7920597      679.429     72.21308      2.073     3.64     4.463214     20.36313     53.74562        13     1.015     0.905 -54.22   0
        86    926.3356    767.7745 300.2214473 +22.8869696     331.1486     72.15794      1.691     6.80     4.843482     20.36313     36.40636         8     1.443     0.899  23.30   0
        87    712.1145    767.3297 300.1547894 +22.8226754     342.4422     72.28654      1.454     3.03     4.565778     20.36313     42.90853         5     0.861     0.470   1.72   0
        88    506.7850    764.6091 300.0917025 +22.7603650     274.8717     72.08434      1.384     3.12     4.479596     20.36313     31.01472         5     0.728     0.455  18.01   0
        89    358.5327    754.3365 300.0488877 +22.7129758     31393.07     72.23145      1.743     3.55     4.751466     20.36313      2694.14        74     1.456     1.437   0.46   0
        90    749.4261    757.3521 300.1696624 +22.8309877     651.8007      72.1947      1.429     4.55     4.580063     20.36313     66.55395        16     1.200     0.964 -32.38   0
        91    372.8230    754.9835 300.0531250 +22.7174457     2042.821     72.17632      1.722     3.60      4.70417     20.36313     185.2649        28     1.331     1.223  -5.62   0
        92    881.6603    750.4816 300.2131301 +22.8686219     2847.572     72.26818      1.770     4.05     4.736343     20.36313     200.6956        31     1.352     1.243 -34.11   0
        93    369.9052    749.0579 300.0541422 +22.7148704     672.7417     72.24982      1.885     5.09     4.749836     20.36313     54.89673        10     0.980     0.747   3.14   0
        94    639.2109    746.5218 300.1388308 +22.7948568     768.5455     72.15794      1.546     3.76     4.581226     20.36313     88.31494        15     1.077     0.976  60.49   0
        95    476.0452    746.4189 300.0880409 +22.7459297     336.8917     72.21308      1.404     5.21     4.586363     20.36313     38.36099         9     1.128     0.791 -25.95   0
        96    241.0280    746.0387 300.0150245 +22.6753624     781.6675      72.1947      1.565     4.18     4.933264     20.36313     86.33659        16     1.330     0.876   1.33   0
        97    486.6851    741.0859 300.0930867 +22.7475878     733.3997     72.30489      1.561     4.08     4.612651     20.36313     68.86694        17     1.205     0.990  32.72   0
        98     46.1698    741.3865 299.9559513 +22.6155849     438.7747     72.17632      1.699     3.56      5.33005     20.36313     58.71044         8     0.958     0.725  73.87   0
        99    887.9017    738.2014 300.2190673 +22.8669627     430.2455     72.08434      1.535     6.00     4.778025     20.36313     38.83737        10     1.191     0.851 -65.51   0
       100    432.2414    736.7059 300.0775588 +22.7300118     436.8807      72.1947      1.663     4.37     4.634955     20.36313     44.59029         9     1.247     0.592  -9.53   0
       101    344.6992    736.2847 300.0504479 +22.7036479     456.9135     72.34159      1.750     4.43     4.899446     20.36313      56.2887        10     1.068     0.931  79.81   0
       102    640.9039    735.7025 300.1428737 +22.7922571     354.8176     72.35992      1.819     4.91     4.616876     20.36313     27.33835         7     0.984     0.695  -6.34   0
       103     74.5163    735.1813 299.9667774 +22.6223083     352.6545     72.12115      1.271     3.69     5.145776     20.36313     51.14259         7     0.977     0.474 -79.42   0
       104    865.6938    733.0075 300.2138278 +22.8588197     421.7633     72.06593      1.579     4.81     4.682923     20.36313     35.10546         8     1.024     0.640  26.56   0
       105    238.3025    731.0056 300.0190609 +22.6702319     512.1876     72.08434      1.700     5.67     4.950396     20.36313     50.92243        12     1.386     0.670 -18.73   0
       106    561.8409    720.8120 300.1230801 +22.7642907     335.0807     72.15794      1.514     5.47     4.735119     20.36313     40.78939         9     1.253     0.674  71.26   0
       107    531.4518    719.1785 300.1141455 +22.7547150     582.2503     72.17632      1.469     2.94     4.760457     20.36313     79.50094        11     0.986     0.755   7.80   0
       108    948.1526    715.7792 300.2451494 +22.8785617      4663.04     72.21308      1.789     3.82     5.070836     20.36313     313.3828        37     1.408     1.331 -50.75   0
       109    553.6540    716.5662 300.1219094 +22.7606183     1248.554      72.1947      1.620     3.86      4.76569     20.36313     121.6792        20     1.213     1.056  -9.43   0
       110    473.4678    716.1097 300.0970857 +22.7364564     328.7957     72.32324      1.474     4.21     4.775777     20.36313     41.45027         6     1.075     0.689 -80.22   0
       111    936.7278    707.3489 300.2443238 +22.8727182     1778.021     72.17632      1.816     4.17     5.042539     20.36313     128.7614        26     1.360     1.206  25.22   0
       112    299.3660    700.5642 300.0479463 +22.6798057     867.5241     72.24982      1.723     5.44     4.941134     20.36313     79.93378        17     1.310     0.982  34.47   0
       113    165.7619    701.2780 300.0061580 +22.6399498     328.8898     72.15794      1.401     3.87     4.907262     20.36313      33.9686         5     0.878     0.488 -46.04   0
       114    967.7116    697.3128 300.2572520 +22.8791109     1784.805     72.34159      1.887     4.26     5.128215     20.36313     121.9616        28     1.437     1.228  84.71   0
       115    762.9918    698.3994 300.1930457 +22.8181173     2617.514     71.99224      1.696     3.32     4.637433     20.36313     214.7975        30     1.395     1.131  -4.75   0
       116    845.3311    684.4651 300.2232477 +22.8387742     443.5449     72.23145      1.652     3.70     4.795168     20.36313     45.07923         9     0.991     0.654  79.48   0
       117    148.3326    684.3349 300.0062421 +22.6298620       625.12     72.23145      1.855     4.63     4.873765     20.36313     63.95491        16     1.390     1.180  49.28   0
       118    881.4001    675.3904 300.2374457 +22.8469676       148821     71.99224      1.723     3.56     4.898344     20.36313      12454.8       172     1.614     1.528 -35.40   0
       119    644.1091    679.7679 300.1620442 +22.7771536     359.0269     72.12115      1.466     3.84     4.718935     20.36313     42.24174         5     0.819     0.518  48.28   0
       120    733.7847    675.7756 300.1912899 +22.8028699     633.8424      72.1947      1.608     4.67     4.620084     20.36313     66.67036        14     1.152     0.978 -36.67   0
       121    914.3776    668.1433 300.2500872 +22.8547593     382.0323      72.1947      1.588     5.77     5.015413     20.36313     41.78141        10     1.116     0.841  10.06   0
       122    567.6294    664.1631 300.1432854 +22.7497584     1638.227      72.1947      1.456     2.94     5.014775     20.36313     186.6253        22     1.110     1.056  18.25   0
       123    748.8408    661.4831 300.2006261 +22.8032736     9708.596     72.13954      1.616     3.16     4.653867     20.36313     917.8403        44     1.315     1.279 -63.82   0
       124    250.3090    656.3657 300.0470409 +22.6524140     5004.835     72.15794      1.702     3.08     4.899164     20.36313     551.4031        38     1.338     1.296 -20.23   0
       125    332.3732    654.4579 300.0731927 +22.6764679     1199.136     72.17632      1.621     3.51      4.94007     20.36313     146.3393        21     1.269     1.036 -17.85   0
       126    208.1139    652.2255 300.0352611 +22.6385750     534.8122     72.13954      1.838     4.39     4.882454     20.36313     44.57403         8     1.071     0.770 -43.20   0
       127    540.6069    650.1589 300.1394170 +22.7376402     781.9518     72.21308      1.726     4.32     5.124829     20.36313     66.90271        16     1.258     0.902   3.66   0
       128    532.3149    642.1439 300.1394375 +22.7328540     3266.131     72.26818      1.539     3.12     5.136977     20.36313     315.6422        31     1.282     1.175 -41.48   0
       129    522.5999    636.0303 300.1383973 +22.7281875     1550.857     72.13954      1.584     3.15     5.144156     20.36313     163.0538        21     1.169     1.019 -46.47   0
       130    916.4358    633.9672 300.2618301 +22.8455534     522.4971      72.1947      1.926     4.64     5.038997     20.36313     51.09542        12     1.366     0.765  -8.00   0
       131    200.6159    630.5115 300.0399809 +22.6300959     568.9119     72.10275      1.613     2.41      4.90441     20.36313     67.37418         9     0.842     0.728  23.72   2
       132    186.0991    631.5784 300.0351199 +22.6260495     668.6174     72.10275      1.694     4.59     4.890377     20.36313     67.06257        12     1.185     0.986  69.76   0
       133    969.6724    627.5407 300.2805279 +22.8596437     344.5493     72.21308      1.255     5.24      5.10764     20.36313     40.97955         9     1.189     0.652  73.07   0
       134    447.3549    625.7562 300.1183033 +22.7026901     1741.882     72.21308      1.586     2.94     5.089367     20.36313      194.849        27     1.281     1.153  50.65   0
       135    256.6517    627.0334 300.0585399 +22.6458975     363.8533      72.1947      1.709     3.87     4.908642     20.36313      29.1202         5     1.309     0.328  40.38   0
       136    546.4448    626.5599 300.1488996 +22.7326123     401.3356     72.24982      1.555     4.89      5.16928     20.36313     43.09478         6     0.929     0.727   7.59   0
       137   1022.7338    623.3206 300.2984583 +22.8743138     695.1429     61.36571      1.507     4.80       5.1223     20.36313     69.25062        11     1.035     0.809  60.51  24
       138    101.2520    620.3832 300.0123742 +22.5973957     19892.93     72.17632      1.852     3.58      4.97667     20.36313     1926.582        74     1.554     1.504  33.05   0
       139    532.2482    621.0648 300.1462624 +22.7267808     1134.481      72.1947      1.518     3.45     5.174772     20.36313     100.8795        18     1.208     0.928 -19.70   0
       140     22.5114    622.1060 299.9873411 +22.5742759     520.6888     72.35992      1.436     4.18     5.562339     20.36313     69.04529        10     1.161     0.698 -18.87   0
       141    567.4722    620.0782 300.1575544 +22.7370507     372.5079     72.28654      1.505     3.60     5.168014     20.36313     47.41654         8     1.010     0.680  -4.54   0
       142    294.0554    619.9282 300.0724837 +22.6550708     265.1126      72.1947      1.475     3.70     4.882696     20.36313     32.07196         5     1.051     0.375 -55.40   0
       143    225.7215    627.0392 300.0489169 +22.6366264      591.186     72.15794      1.939     5.87     4.931265     20.36313     49.38737        11     1.348     0.850  48.79   0
       144    285.7340    612.8450 300.0721948 +22.6505433      373.606     72.17632      1.470     4.28     4.871321     20.36313     44.95064         5     1.035     0.504 -26.22   0
       145    950.3296    607.4100 300.2810300 +22.8480669     956.1079     72.15794      1.631     3.77     5.097363     20.36313     83.25372        20     1.234     1.033  66.59   0
       146     47.2231    604.7044 300.0006714 +22.5766951     1591.384     72.08434      2.237     5.88     5.382205     20.36313     107.9899        33     1.742     1.393  82.21   0
       147    113.6457    605.3162 300.0211195 +22.5967892      417.767     72.15794      1.663     5.49     4.972889     20.36313     42.64287         9     1.137     0.820  61.64   0
       148    816.9510    605.3157 300.2401046 +22.8075323     415.5312     72.15794      1.322     4.25       4.7976     20.36313      44.6633         7     0.762     0.677  23.85   0
       149    495.9846    601.3772 300.1413620 +22.7102616      528.046     72.17632      1.752     5.19     5.186023     20.36313     46.68921        11     1.219     0.755 -41.99   0
       150    890.6657    599.8724 300.2648636 +22.8280388     895.8596     72.21308      2.133     4.95     4.932487     20.36313     64.27987        15     1.213     0.974 -15.56   0
       151    288.4154    600.4152 300.0770652 +22.6477793      247.519     72.13954      1.287     4.30     4.862511     20.36313     30.07439         5     0.985     0.535 -43.46   0
       152    635.0645    598.4811 300.1856262 +22.7510959     171.8166     72.28654      1.200     3.76     5.136771     20.36313     38.31709         6     0.824     0.493  -6.81   0
       153    452.2603    593.8519 300.1301908 +22.6949992      771.535     72.23145      1.438     3.43      5.13383     20.36313     91.25555        14     1.012     0.944 -66.07   0
       154    600.1701    592.5108 300.1766927 +22.7389283     504.4825     72.13954      1.649     3.15      5.24543     20.36313     57.10136         9     0.963     0.871  25.41   0
       155    647.7623    591.0593 300.1919930 +22.7527673     561.8612      72.1947      1.743     5.76     5.110787     20.36313     44.03418        12     1.146     0.975  80.51   0
       156    618.1118    590.5365 300.1829237 +22.7437357     520.0082     72.28654      1.488     3.12     5.211263     20.36313     62.62054         9     0.867     0.732  -6.45   0
       157    496.5327    589.6509 300.1453404 +22.7070584     960.2313     72.15794      1.671     2.47     5.208373     20.36313     125.4268        15     1.063     0.889  28.91   0
       158    930.3488    585.4561 300.2819250 +22.8357750     3301.567     72.21308      1.653     3.36     5.009069     20.36313     295.4379        29     1.248     1.189  81.66   0
       159    462.0896    585.1732 300.1360692 +22.6954524     1638.352     72.13954      1.436     2.99     5.152478     20.36313     173.8259        21     1.131     1.038  53.99   0
       160    811.6673    581.3743 300.2462314 +22.7990701     347.9346     72.15794      1.823     4.64     4.788162     20.36313     34.04834         6     1.070     0.570  60.53   0
       161     23.9770    578.5244 300.0019471 +22.5622131     4917.283     72.21308      1.902     3.71     5.558365     20.36313     499.3022        39     1.448     1.404  82.40   0
       162    437.7355    580.6055 300.1299698 +22.6868432     245.4095     72.13954      1.079     4.04     5.122999     20.36313     36.96297         5     0.959     0.486   3.33   0
       163    491.5417    575.9999 300.1482186 +22.7016427     252.1836     72.12115      1.104     2.66     5.219123     20.36313     49.53181         5     0.724     0.602  -0.01   0
       164    325.5345    571.8180 300.0979000 +22.6506959      9163.56     72.15794      1.598     3.09     4.899192     20.36313      1048.62        42     1.289     1.251 -84.06   0
       165    448.0367    568.9379 300.1369652 +22.6865795     8899.742      72.1947      1.480     3.00     5.143433     20.36313     901.1135        38     1.228     1.185  78.11   0
       166    694.4751    565.7324 300.2147745 +22.7594819      313.599     72.24982      1.542     4.48     5.006495     20.36313     33.52172         7     0.919     0.621 -16.75   0
       167    859.7314    563.1114 300.2671512 +22.8082118     1884.676     72.34159      1.577     3.14     4.799306     20.36313     157.7378        24     1.152     1.124 -12.01   0
       168    944.4072    560.4808 300.2944210 +22.8328037     12726.62     72.10275      1.689     3.34     4.954025     20.36313      1168.74        52     1.410     1.337 -54.06   0
       169    508.5920    558.5551 300.1591922 +22.7017410     11533.07      72.1947      1.498     2.81      5.32169     20.36313      1381.44        43     1.232     1.210  76.97   0
       170    678.2571    554.5498 300.2133506 +22.7514119      386.462     72.23145      1.256     4.43     5.120199     20.36313     54.54702        10     0.983     0.812 -49.39   0
       171    235.9308    553.8718 300.0758491 +22.6186873     1431.368     72.24982      1.723     3.22     4.868397     20.36313     132.0158        24     1.276     1.137   8.63   0
       172    394.3383    553.5277 300.1252515 +22.6660640      276.567     72.21308      1.249     3.64     5.038065     20.36313     41.98758         7     0.919     0.575 -58.67   0
       173    483.1225    551.8092 300.1534509 +22.6921730     358.9771     72.13954      1.292     3.28     5.210609     20.36313     52.74615         6     0.896     0.456 -32.68   0
       174    440.2535    546.7043 300.1417603 +22.6778628     4533.011     72.24982      1.545     2.84     5.144899     20.36313     507.8333        34     1.247     1.173  53.01   0
       175    783.1404    546.8884 300.2485332 +22.7806180     839.8362     72.24982      1.526     4.26     4.805753     20.36313     83.56583        16     1.374     0.802 -30.22   0
       176    418.5501    545.2026 300.1354911 +22.6709285     1324.573     72.17632      1.504     2.98     5.115616     20.36313     144.8291        17     1.025     0.953 -67.52   0
       177    173.0021    544.3049 300.0593832 +22.5970774     769.3457     72.08434      1.527     3.96      4.85797     20.36313     77.89261        13     1.115     0.826 -52.75   0
       178    860.2877    542.5516 300.2740000 +22.8024689     1664.568     72.17632      1.635     3.45     4.780805     20.36313      148.549        24     1.329     1.022 -44.16   0
       179    556.9348    534.3051 300.1821218 +22.7092578     207018.3     72.30489      1.479     2.81     5.571589     20.36313     22179.06       198     1.512     1.442 -23.44   0
       180    740.7570    539.7896 300.2376239 +22.7658872     848.4701     72.17632      1.651     3.51     4.890898     20.36313     79.51083        14     1.117     0.904 -24.33   0
       181    380.3577    540.6600 300.1250773 +22.6581798     409.8566     72.15794      1.735     3.21     5.014244     20.36313     39.93741         6     0.996     0.471   3.14   0
       182    945.2083    536.1572 300.3025682 +22.8260508     308.9304      72.1947      1.605     4.21     4.939227     20.36313     33.86207         6     0.782     0.647 -16.30   0
       183    242.9787    533.9921 300.0844949 +22.6150934     3599.887     72.15794      1.586     3.22     4.878434     20.36313     329.4141        31     1.273     1.186  57.96   0
       184    808.5378    530.9325 300.2616328 +22.7836364     473.0568     72.23145      1.462     3.08     4.773004     20.36313      45.5955         8     0.832     0.649  -2.21   0
       185    291.8050    516.8297 300.1052558 +22.6248006     368.5018     72.15794      1.424     5.33     4.920166     20.36313     43.12885        10     1.215     0.659 -40.27   0
       186    447.6126    514.4835 300.1545110 +22.6708144     2759.287     72.13954      1.540     2.74     5.333768     20.36313     340.2505        27     1.228     1.078  81.89   0
       187    858.8007    511.6775 300.2835591 +22.7931491     359.3788     72.06593      1.579     4.04     4.769316     20.36313     38.03652         7     0.982     0.644 -11.48   0
       188    765.0790    503.3530 300.2570349 +22.7626985     337.7928     72.17632      1.467     5.27     4.932907     20.36313     35.44492         8     1.176     0.666 -68.92   0
       189    844.5822    500.9111 300.2826193 +22.7857980     1697.344     72.10275      1.533     3.20     4.762297     20.36313      162.484        19     1.187     0.992 -42.32   0
       190    731.4350    500.4347 300.2474934 +22.7517864     407.2118     72.24982      2.189     6.09     5.106204     20.36313     42.49261         9     1.524     0.684 -73.84   0
       191    715.8704    498.4835 300.2432749 +22.7465652     2614.534     72.30489      1.489     2.77     5.165212     20.36313     305.7391        26     1.140     1.126  53.61   0
       192     75.5762    498.6224 300.0439210 +22.5547591     371.0452     72.13954      1.959     4.19     5.273971     20.36313     27.68403         5     1.043     0.481   3.86   0
       193    960.3571    495.9232 300.3203562 +22.8190171     472.3083     72.15794      1.709     4.95     5.072039     20.36313     40.22941         8     1.044     0.665 -29.54   0
       194    925.0398    496.0634 300.3092910 +22.8084874     361.6972     72.15794      1.397     3.95     5.025845     20.36313     45.49369         6     0.938     0.476  32.59   0
       195    620.7812    495.1831 300.2147118 +22.7171417     462.9044     72.15794      1.624     4.26     5.552425     20.36313     39.29357         8     0.957     0.655  28.34   0
       196    502.8381    494.6301 300.1781516 +22.6816565     686.7322      72.1947      1.354     3.04     5.611412     20.36313     84.03808        12     1.064     0.711  11.82   0
       197    973.0652    492.8365 300.3253238 +22.8219327     1259.855     72.17632      1.623     2.68     5.087828     20.36313     153.9319        19     1.064     1.038  88.65   0
       198    958.8494    491.8931 300.3211939 +22.8174071      659.929     72.21308      1.650     3.78     5.079531     20.36313      66.6055        11     0.928     0.889 -30.86   1
       199    844.7853    491.0324 300.2858892 +22.7830191     2324.935     72.15794      1.786     4.28     4.757924     20.36313     206.3842        28     1.539     1.056  68.18   0
       200    598.1862    488.1113 300.2099672 +22.7083430     917.7117     72.12115      2.081     7.79     5.676169     20.36313     66.18837        17     1.884     0.901  81.41   0
       201    384.3456    488.5398 300.1432365 +22.6444083     294.0637     72.23145      1.024     3.35     5.307572     20.36313     47.09478         5     0.985     0.330  68.35   0
       202    882.9341    486.0602 300.2994023 +22.7930089     4216.399     72.21308      1.514     3.07     4.851801     20.36313     400.8294        35     1.291     1.203 -20.28   0
       203    436.5688    487.6948 300.1597678 +22.6598120     361.4648     72.10275      1.190     3.15     5.455535     20.36313     57.63786         6     0.877     0.460   0.15   0
       204    523.8694    485.9402 300.1875220 +22.6854602     300.0853     72.21308      1.424     3.15     5.748935     20.36313     36.66647         5     0.785     0.508 -35.91   0
       205    543.6582    481.8406 300.1950161 +22.6902099     343.5323     72.17632      1.514     3.12      5.84996     20.36313     54.47244         7     0.940     0.522  32.86   0
       206    974.6669    476.6322 300.3310833 +22.8177526     817.3015     72.17632      1.627     3.50     5.094576     20.36313     84.97174        17     1.163     1.028 -15.30   0
       207    115.1203    476.0945 300.0635252 +22.5601488     940.0627     72.30489      1.559     3.30     5.247055     20.36313     109.9177        15     1.075     0.944 -19.02   0
       208    775.7248    470.3044 300.2710810 +22.7563870     340.0912     72.32324      1.395     3.70     4.932766     20.36313     37.45419         5     0.871     0.451 -45.63   0
       209    381.5819    469.6276 300.1485142 +22.6381491     222.0822     72.17632      1.328     3.45     5.352199     20.36313     39.15364         5     1.021     0.338 -68.08   0
       210    107.2559    466.3539 300.0642413 +22.5549956     350.6077     72.21308      1.459     4.49     5.298108     20.36313     57.85577         7     1.245     0.460   6.49   0
       211    715.3434    460.9624 300.2552888 +22.7356244     416.7451     72.17632      1.324     2.34     5.237227     20.36313     59.64754         7     0.690     0.666 -51.37   0
       212    324.3582    458.7421 300.1342376 +22.6178773     243.5006     72.17632      1.457     3.81     5.196454     20.36313     36.29892         6     0.706     0.675  31.40   0
       213    656.4358    456.6571 300.2383260 +22.7167489     695.1129     72.17632      1.358     2.61     5.414585     20.36313     100.3222        13     0.926     0.848 -38.99   0
       214    971.2025    449.0350 300.3389590 +22.8087801     567.5731     72.15794      1.630     5.00     5.037791     20.36313     49.77896        11     1.218     0.691 -39.03   0
       215    717.2181    448.8180 300.2598144 +22.7326954     772.4123     72.17632      1.339     3.31     5.231561     20.36313     102.0784        13     1.020     0.839  22.16   0
       216    874.4644    444.9861 300.3100911 +22.7786652     1129.115     72.13954      1.627     3.56     4.808718     20.36313     98.17831        20     1.222     0.987 -82.82   0
       217    858.7383    441.4777 300.3063244 +22.7729496     763.8126     72.24982      1.752     3.62     4.783588     20.36313     74.14778        11     1.008     0.856 -63.54   0
       218    603.0165    439.1516 300.2273615 +22.6957222     3245.137     72.21308      1.451     2.89     5.513721     20.36313     343.1936        29     1.198     1.104  85.94   0
       219    963.1165    438.5479 300.3398391 +22.8033447     549.1755     72.21308      1.538     2.87      5.01751     20.36313     54.90249         8     0.941     0.535  43.91   0
       220    750.0001    438.2015 300.2734791 +22.7394584     115.6138     71.95537      1.380     5.01     5.116328     20.36313     21.37189         5     1.187     0.597 -78.98   0
       221     79.4059    430.0939 300.0673495 +22.5362399     353.8033     72.06593      1.557     3.92     5.246151     20.36313     37.40226         5     0.917     0.480  82.37   0
       222    608.4677    427.4171 300.2328677 +22.6939828     245.8229     72.17632      1.326     3.80     5.444855     20.36313      32.0656         6     0.983     0.422  72.59   0
       223    442.8796    425.7220 300.1818440 +22.6439022     383.3898     72.30489      1.528     3.74     5.453656     20.36313     46.41436         6     0.900     0.630 -64.35   0
       224   1014.3487    418.4229 300.3623588 +22.8128865     1173.444     72.17632      1.628     3.56     4.974922     20.36313     128.0799        20     1.160     1.094  42.41   0
       225    886.3625    418.3249 300.3224544 +22.7745605       392.42     72.12115      1.403     4.74     4.845454     20.36313     55.61585        11     1.110     0.828 -54.73   0
       226    972.6258    417.2412 300.3497208 +22.8000628     925.0654     72.23145      1.452     3.41     4.972894     20.36313      104.516        16     1.187     0.893  43.18   0
       227    713.6331    413.3586 300.2702035 +22.7214304     1105.839     72.23145      1.354     2.76     5.243528     20.36313     124.7488        14     0.963     0.881 -61.60   0
       228    508.9131    413.7558 300.2062889 +22.6602433     428.8334     72.15794      1.580     3.59     5.503588     20.36313     63.04721         9     1.001     0.857  45.20   0
       229    217.8534    411.2629 300.1165089 +22.5723296     588.0842     72.23145      1.357     2.69     5.290712     20.36313     76.51454        11     0.868     0.808  -2.02   0
       230    279.9293    407.0069 300.1372005 +22.5897087     3797.903     72.13954      1.498     2.88     5.280102     20.36313     389.0731        28     1.188     1.125  60.71   0
       231   1013.1207    405.7762 300.3660792 +22.8088817     4416.462     72.13954      1.638     3.24     4.998073     20.36313     419.4211        35     1.349     1.249 -45.97   0
       232    227.0975    401.6760 300.1224946 +22.5723471     7763.112     72.32324      1.580     2.94     5.263987     20.36313     902.7354        44     1.309     1.289  18.17   0
       233    731.7857    402.4749 300.2793935 +22.7237364     242.2083      72.1947      1.052     2.29     5.207773     20.36313     45.77172         5     0.693     0.465 -20.79   0
       234    993.0040    396.8354 300.3627017 +22.8002915     1875.325     72.17632      1.637     3.13     5.018675     20.36313     169.7714        25     1.194     1.115  59.69   0
       235    367.9863    395.9321 300.1681956 +22.6129104     4845.753      72.1947      1.467     2.87     5.365373     20.36313     534.4503        30     1.193     1.110  65.51   0
       236    612.1843    392.7856 300.2452625 +22.6851438     18493.84     72.12115      1.425     2.71     5.356722     20.36313     2205.965        55     1.284     1.190 -82.05   0
       237    629.6922    392.8940 300.2506826 +22.6904172     817.5146     72.34159      1.838     5.77     5.356575     20.36313     68.49272        15     1.307     0.856 -41.27   0
       238    470.4376    389.7437 300.2020980 +22.6418212     358.7369     72.17632      1.903     7.44     5.393874     20.36313     32.63483         9     1.932     0.802  15.17   0
       239    809.1907    383.4746 300.3096925 +22.7414438     385.5059     72.15794      1.681     3.03     5.085061     20.36313     47.61097         5     0.799     0.678 -64.18   0
       240    232.0343    379.6484 300.1311764 +22.5675014     437.8727     72.21308      1.603     5.04      5.26842     20.36313     46.82094         9     1.151     0.709 -15.05   0
       241    945.8945    375.5726 300.3548993 +22.7800809     791.7678     72.08434      1.510     3.27     5.066745     20.36313     92.71688        12     1.059     0.794 -69.89   0
       242    482.9591    375.0164 300.2107750 +22.6413402     417.2755      72.1947      1.406     3.68     5.347888     20.36313     40.05442         5     0.692     0.562   0.23   0
       243    166.8132    372.6655 300.1131568 +22.5459522     2029.068     72.12115      1.641     3.30     5.441668     20.36313     209.4583        26     1.230     1.213 -88.94   0
       244    552.8436    362.2073 300.2366959 +22.6585879     6590.216      72.1947      1.422     2.65     5.333834     20.36313     740.9547        35     1.210     1.101 -86.12   0
       245    966.4768    362.8738 300.3654417 +22.7825868      1202.61     72.26818      1.511     3.08     5.096502     20.36313     127.2958        17     1.066     0.969  23.74   0
       246    267.7887    361.5775 300.1481612 +22.5730252     554.3508     72.17632      1.265     2.89     5.307744     20.36313     84.70078        10     0.886     0.749   2.60   0
       247    125.1710    354.5427 300.1060870 +22.5282695      730.717     72.17632      1.800     4.06     5.377015     20.36313     66.30145        11     1.104     0.824  -3.05   0
       248    812.3338    354.4795 300.3200793 +22.7340479     259.2285     72.28654      1.177     3.45     5.195304     20.36313     42.94913         5     0.744     0.462  18.96   0
       249    666.7470    352.6608 300.2752822 +22.6899475     580.1711     72.23145      1.297     3.51     5.349988     20.36313      77.8289        11     1.156     0.698 -43.09   0
       250    756.9410    351.4563 300.3037878 +22.7165999     1189.625     72.24982      1.534     3.07     5.261432     20.36313      118.564        15     1.043     0.866 -82.56   0
       251    459.4994    348.4930 300.2120739 +22.6266939     5990.981     72.35993      1.435     2.48     5.344105     20.36313     797.1037        35     1.208     1.093  67.86   0
       252    949.0405    343.4400 300.3663052 +22.7717805     646.1939     72.24982      1.492     3.81     5.103656     20.36313     68.77791        12     1.112     0.889  -2.32   0
       253    851.5732    342.9685 300.3360512 +22.7424809     1380.612     72.17632      1.452     3.12     4.974767     20.36313     154.8113        21     1.240     0.970 -78.47   0
       254    444.2652    337.2275 300.2109847 +22.6188947     464.5546     72.15794      1.228     2.23      5.35867     20.36313     65.28105         8     0.763     0.636 -46.53   0
       255    526.9293    335.3300 300.2373424 +22.6431046     467.8855     72.24982      1.318     2.66     5.265536     20.36313     55.12258         7     0.736     0.639  -0.47   0
       256    824.2316    330.8311 300.3314609 +22.7308087     488.9966      72.1947      1.516     3.88     5.132447     20.36313     55.32238        10     1.019     0.779  31.81   0
       257    346.9744    327.5492 300.1838385 +22.5869740     2564.393      72.1947      1.502     2.92     5.323251     20.36313      283.617        26     1.251     1.070  70.80   0
       258     65.7467    325.0092 300.0971923 +22.5019814     1049.479     72.17632      1.693     3.50     5.362535     20.36313     112.6264        13     1.136     0.795  -3.06   0
       259    694.5254    322.4373 300.2937437 +22.6895750     373.7571     72.12115      1.558     4.73     5.292107     20.36313     42.96803         8     1.060     0.654 -12.06   0
       260    316.3585    317.0067 300.1777301 +22.5747747     29806.51     72.21308      1.519     2.80     5.356226     20.36313     3365.556        73     1.406     1.290  57.81   0
       261    850.9855    314.7249 300.3450293 +22.7341831     1510.829      72.1947      1.470     3.28      4.98171     20.36313     155.8603        23     1.229     1.017 -56.78   0
       262     12.6574    304.7048 300.0872767 +22.4802410     4842.637     72.24982      1.763     3.60       5.2423     20.36313     480.2004        40     1.457     1.346  56.44   0
       263    766.2898    303.8302 300.3221506 +22.7057048      631.836     72.13954      1.613     2.60     5.260249     20.36313      75.4869        10     0.969     0.668 -71.92   0
       264    190.9416    303.6938 300.1430311 +22.5333777     332.7221     72.23145      1.321     2.64      5.46372     20.36313     46.91018         7     0.721     0.649  15.72   0
       265    414.9556    302.3638 300.2131671 +22.6001001     452.2429     72.23145      1.400     3.50     5.328693     20.36313      53.6494        10     1.016     0.790 -40.26   0
       266    726.7863    296.8994 300.3120827 +22.6918891     1842.127     72.08434      1.470     2.89      5.26074     20.36313     230.2296        21     1.123     0.998 -87.20   0
       267    535.3544    291.4277 300.2542055 +22.6330107     290.7289     72.21308      1.487     4.64     5.194413     20.36313     39.30681         7     1.209     0.621 -45.08   0
       268    942.0846    290.0332 300.3814575 +22.7543377     587.9374     72.13954      1.420     4.84     5.004476     20.36313     66.85639        12     1.213     0.727 -11.98   0
       269    388.5691    281.3831 300.2117570 +22.5861696     2147.621     72.15794      1.624     3.30     5.312653     20.36313     241.0046        24     1.300     1.050  60.42   0
       270    600.7878    280.2207 300.2782239 +22.6493794     323.6164     72.15794      1.460     4.90     5.257205     20.36313     38.54057         7     1.102     0.617  33.13   0
       271    827.7581    274.7439 300.3507515 +22.7157349     673.6771     72.13954      1.237     2.56     5.143979     20.36313     94.07915         9     0.802     0.752  81.32   0
       272    710.1165    272.4816 300.3148050 +22.6798796     349.3093     72.30489      1.126     2.87     5.258975     20.36313     53.29955         6     0.770     0.495  -6.39   0
       273    464.5058    260.6261 300.2421293 +22.6029454     1258.857     72.12115      1.514     2.74     5.298732     20.36313      159.319        17     1.105     0.937  62.99   0
       274    549.4507    258.6759 300.2692171 +22.6278179     328.1868     72.17632      1.441     3.77     5.275308     20.36313     37.57367         5     0.999     0.408 -14.61   0
       275    848.0136    254.5196 300.3636273 +22.7159790     249.8683     72.15794      1.101     3.18     5.138755     20.36313     38.93135         6     0.788     0.500  -0.79   0
       276    709.3082    252.6830 300.3209731 +22.6739450     2206.441     72.32324      1.497     2.77      5.25946     20.36313     280.6197        25     1.220     1.065  73.28   0
       277    970.6660    247.2606 300.4042470 +22.7505829     3138.944     72.21308      1.624     3.03     5.165495     20.36313     333.4196        33     1.329     1.209  67.86   0
       278    342.1453    239.0007 300.2110501 +22.5600894     314.2413     72.10275      1.692     3.79      5.42828     20.36313     27.35839         5     0.820     0.504  27.94   0
       279    417.8031    236.3423 300.2354620 +22.5819826     652.0621     72.13954      1.574     3.24     5.436401     20.36313     68.01109        12     0.963     0.854  82.97   0
       280     92.4500    230.6552 300.1360881 +22.4828931      1514.72     72.21308      1.838     3.77     5.628014     20.36313      146.396        25     1.525     1.099 -27.88   0
       281    123.1482    230.8610 300.1455655 +22.4921501     495.2064     72.23145      1.335     4.90     5.641378     20.36313      74.8025        11     1.246     0.741  22.60   0
       282    986.4410    227.5848 300.4155499 +22.7496404     476.0616      72.1947      1.455     3.53     5.210742     20.36313     65.83088         7     0.995     0.775  63.01   0
       283    830.2134    225.0094 300.3676440 +22.7021656     376.8024     72.08434      1.443     2.98     5.261496     20.36313     44.85007         5     0.799     0.479  39.74   0
       284    176.7301    222.7593 300.1648538 +22.5058763     423.0772     72.13954      1.227     3.16     5.612334     20.36313     68.99863        11     1.044     0.803 -26.78   0
       285    462.2500    221.2227 300.2542026 +22.5909462     219.9625     72.17632      1.507     3.91     5.405973     20.36313     28.71087         5     0.975     0.449  44.45   0
       286     32.4023    219.8890 300.1209131 +22.4618086     423.3484     72.08434      2.343     2.71     5.594891     20.36313     47.43098         6     0.741     0.601  29.12   0
       287     71.8968    217.0533 300.1341083 +22.4728288     335.5414     72.24982      1.628     4.59     5.653676     20.36313     34.70129         7     0.909     0.657  35.90   0
       288    780.9338    214.1862 300.3557854 +22.6843084     535.0729     72.13954      1.272     2.70     5.266939     20.36313     86.01395         9     0.860     0.749  86.16   0
       289    371.3342    213.9466 300.2282574 +22.5616320     329.2498     72.21308      1.388     3.99     5.473842     20.36313     47.21311         8     1.052     0.636 -53.77   0
       290    879.1043    203.1861 300.3899691 +22.7105147     2125.805     72.10275      1.606     2.95     5.344567     20.36313     252.5434        26     1.363     1.089 -81.31   0
       291    375.3803    195.6784 300.2354389 +22.5575943     1122.385     72.17632      1.656     3.61     5.479312     20.36313     113.0026        19     1.147     1.078 -75.86   0
       292    777.4572    194.9351 300.3609424 +22.6777314     575.5626     72.23145      1.438     3.12     5.276232     20.36313     74.49641        12     0.957     0.892  66.21   0
       293    297.7848    200.3680 300.2097699 +22.5357044     1989.948     72.15794      1.542     2.79     5.614788     20.36313     245.7283        23     1.142     1.093  71.40   0
       294    192.3668    187.7917 300.1810522 +22.5005168     698.9949     72.17632      1.545     3.45     5.721378     20.36313     84.37247        12     1.005     0.915 -31.81   0
       295    730.3037    184.6266 300.3495827 +22.6606578     1832.038     72.12115      1.575     2.66     5.279555     20.36313     207.5682        23     1.265     1.027 -55.22   0
       296    795.2703    184.8662 300.3697610 +22.6801650     520.1385     72.21308      1.330     2.58     5.281805     20.36313     80.09692         9     0.874     0.742  39.79   0
       297    213.8874    180.9540 300.1899621 +22.5049988     620.8035     72.15794      1.447     3.15     5.799298     20.36313     86.12217        12     1.090     0.831 -15.82   0
       298   1001.8165    177.1317 300.4367055 +22.7397214      838.311     72.17632      1.627     3.26     5.466938     20.36313      102.841        14     1.091     0.944  21.98   0
       299    734.2418    175.9399 300.3536262 +22.6593380     766.5453     72.15794      1.652     4.48     5.283735     20.36313     68.56556        14     1.262     1.009  85.72   0
       300    503.8480    177.4301 300.2813530 +22.5908129     305.7615      72.1947      1.260     3.13     5.376849     20.36313     47.80801         6     0.794     0.495   0.01   0
       301    654.9131    175.4051 300.3290728 +22.6354460     1224.199     72.10275      1.363     2.96     5.303192     20.36313     169.9495        16     1.145     0.856 -81.95   0
       302    476.3303    171.7321 300.2746304 +22.5809373     361.6108     72.23145      1.369     2.21     5.381081     20.36313     55.56861         6     0.791     0.481  43.55   0
       303    850.3869    167.0219 300.3927347 +22.6915208     1388.903     72.15794      1.528     3.07     5.443801     20.36313     149.3172        19     1.122     1.023  88.30   0
       304    580.9806    167.0901 300.3087310 +22.6109284     979.3463     72.10275      1.471     3.16     5.366668     20.36313     103.4294        15     0.997     0.943  45.58   0
       305    862.3129    165.9633 300.3967978 +22.6947838     847.2336     72.15794      1.533     3.64     5.484945     20.36313     86.93867        14     1.136     0.868 -76.97   0
       306   1022.8931    157.0949 300.4497791 +22.7402580     1383.028     60.53847      1.399     3.44      5.56594     20.36313      153.717        20     1.391     0.833  78.32  24
       307    979.1697    156.4010 300.4363573 +22.7269833     1072.207     72.13954      1.613     3.15     5.569781     20.36313     121.6423        19     1.202     0.960 -61.32   0
       308      2.6988    153.2450 300.1332831 +22.4337722     487.6618     63.36567      1.609     4.40     6.989724     20.36313     56.68645         9     1.281     0.750 -23.97  24
       309    212.8705    149.2503 300.1999214 +22.4955866     729.2944     72.17632      1.556     3.36     5.937068     20.36313     75.68105        15     1.025     0.972 -19.17   0
       310     74.8959    143.7968 300.1587848 +22.4526900     2200.321     72.08434      1.690     3.45     6.052596     20.36313     212.8334        31     1.344     1.240  25.05   0
       311    897.9268    141.5053 300.4158351 +22.6983997     692.3607     72.32324      1.377     3.13     5.591934     20.36313     80.21656        12     0.999     0.817  28.56   0
       312     24.6112    141.0945 300.1440307 +22.4368486     287.6777     72.12115      1.361     2.48     6.688766     20.36313     49.77339         5     0.732     0.423 -66.14   0
       313    232.3285    137.1808 300.2098855 +22.4979469     5784.406     72.21308      1.617     2.98     5.980003     20.36313     616.6274        41     1.361     1.254  64.20   0
       314    214.2077    138.6396 300.2037760 +22.4929389     255.2833     72.21308      1.196     5.60     5.946334     20.36313     32.32877         8     1.044     0.847 -26.99   0
       315     16.5280    131.5791 300.1446021 +22.4316942      1341.95      72.1947      1.854     3.57     6.779211     20.36313     146.5638        25     1.404     1.250  32.68   0
       316    215.4798    128.3678 300.2075005 +22.4903688     634.4137     72.17632      1.513     4.16     5.955113     20.36313     56.10121        11     1.037     0.756 -16.69   0
       317    876.4685    119.0988 300.4164028 +22.6855349     3608.572     72.26818      1.578     2.99     5.628874     20.36313     351.1821        35     1.261     1.260 -21.24   0
       318    980.1638    117.8235 300.4491709 +22.7161790     2797.143      72.1947      1.688     3.54     5.715738     20.36313     262.3871        34     1.438     1.253 -65.20   0
       319    425.8958    114.2356 300.2775608 +22.5493124     661.8217     72.17632      1.302     3.32     5.363664     20.36313     72.10655        11     0.971     0.777  45.09   0
       320    179.3783    115.1326 300.2005608 +22.4757540     186.1083     72.15794      1.140     2.83     5.880738     20.36313     38.62163         5     0.719     0.458  73.40   0
       321    350.0858    105.9431 300.2566492 +22.5242328     597.3971     72.28654      1.445     3.79     5.604219     20.36313     59.76218        11     1.113     0.700  84.71   0
       322    884.5939    104.5632 300.4236481 +22.6837828     138.5929     72.21308      1.253     4.16      5.68211     20.36313     25.38641         5     1.230     0.402  54.27   0
       323    354.5746    104.9212 300.2583774 +22.5252830     385.0052     72.17632      1.418     3.08     5.580745     20.36313     50.13689         7     0.847     0.609  20.92   0
       324    116.0901    102.7681 300.1848870 +22.4532458     664.8668     72.13954      1.634     4.79     5.930864     20.36313     65.94382        11     1.072     0.890  69.88   0
       325    477.3106    101.2958 300.2977631 +22.5609833     1877.669     72.35993      1.575     2.81     5.370553     20.36313     190.5096        23     1.149     1.084  85.59   0
       326    405.4909    102.0659 300.2751517 +22.5397058     392.7372     72.30489      1.408     3.21     5.401205     20.36313     52.51024         8     0.950     0.626   8.83   0
       327    300.9964     97.7245 300.2440355 +22.5071728     279.3946     72.08434      1.542     4.64     5.881678     20.36313     36.01758         5     0.940     0.651 -30.97   0
       328    220.3962     96.3547 300.2194033 +22.4826435     399.4545     72.15794      1.877     6.72     5.973048     20.36313     38.53582        10     1.364     1.066 -14.71   0
       329    693.8735     95.2286 300.3672005 +22.6240465     312.7868      72.1947      1.551     4.48     5.721548     20.36313     36.14441         5     0.812     0.702 -14.32   0
       330    765.9667     91.2472 300.3909658 +22.6444691     451.3302     72.21308      1.634     3.74     5.485595     20.36313     46.36995         8     0.963     0.649 -12.61   0
       331    122.3422     87.4250 300.1918023 +22.4507111     222.7927     72.17632      1.536     4.98     5.936542     20.36313     36.11703         6     1.213     0.578 -23.87   0
       332    911.5092     85.6092 300.4381871 +22.6863782     408.4049     72.10275      1.451     3.71     5.767198     20.36313     47.36782         6     0.947     0.417  17.33   0
       333    757.8846     82.3600 300.3913255 +22.6394949     414.0395     72.13954      1.694     4.93     5.596546     20.36313     38.05461         7     0.975     0.705 -56.32   0
       334    251.2693     81.0256 300.2339742 +22.4874842     6070.029     72.17632      1.640     3.08     5.870234     20.36313     647.9748        42     1.399     1.275  77.33   0
       335    102.3334     81.0021 300.1876622 +22.4428728     876.0621     72.17632      1.982     3.52     5.969845     20.36313     105.1951        15     1.286     0.826 -27.14   0
       336    880.7179     79.3688 300.4306030 +22.6753741     499.7403     72.17632      1.768     2.54     5.706894     20.36313     48.87053         5     0.700     0.463 -15.03   0
       337    222.5703     75.3459 300.2268865 +22.4772582     559.9086     72.17632      2.009     3.90     5.891603     20.36313     44.67683         7     1.097     0.473   3.11   0
       338    727.3701     72.4992 300.3850072 +22.6275299     314.8099     72.10275      1.332     3.27     5.817216     20.36313     48.17411         5     0.733     0.456  20.92   0
       339     12.7932     71.3963 300.1629415 +22.4132915     406.9412     71.99224      1.615     5.80     6.454054     20.36313     37.96989         8     1.372     0.689   8.23   0
       340    497.4077     66.4835 300.3153015 +22.5569901     6523.627     72.10275      1.560     2.75     5.369844     20.36313     809.5206        41     1.332     1.219  83.49   0
       341    382.9979     66.4585 300.2796869 +22.5227374     622.2905     72.13954      1.397     3.14     5.388113     20.36313     66.47558         9     0.845     0.732   6.25   0
       342    554.3146     61.5538 300.3346239 +22.5726032     308.5013     72.15794      1.204     3.49     5.660848     20.36313     36.71772         5     0.755     0.467 -16.75   0
       343    749.8411     56.4254 300.3972207 +22.6296281     970.5197     72.23145      1.811     3.12     5.940211     20.36313     103.8473        12     0.990     0.841 -81.57   0
       344    842.5458     55.5799 300.4264038 +22.6571129     503.0598     72.15794      1.597     3.42     5.686678     20.36313     55.01331        11     0.914     0.809 -41.69   0
       345    190.4635     50.3928 300.2249840 +22.4604736      557.104     72.15794      1.886     3.47      5.77789     20.36313      45.9907        11     0.995     0.799  14.83   0
       346    625.8840     46.7105 300.3617312 +22.5897500      6180.08     72.30489      1.499     2.79     5.973143     20.36313      793.845        38     1.315     1.169 -86.13   0
       347    548.9166     49.3014 300.3369118 +22.5674646     450.5201     72.34159      1.478     3.17     5.731717     20.36313     50.65197         7     0.804     0.628  26.51   0
       348    400.6093     45.5383 300.2919468 +22.5219956     1586.197     72.10275      1.676     3.58     5.281931     20.36313     179.4262        24     1.319     1.077  69.91   0
       349    667.1267     44.1789 300.3754043 +22.6013611     971.4066     72.17632      1.692     3.57     6.213949     20.36313     92.17242        14     1.103     0.850  83.03   0
       350    736.8511     41.9152 300.3978718 +22.6215680     416.9072     72.15794      1.958     5.09      6.20476     20.36313     33.06661         7     0.976     0.751  58.63   0
       351    682.8795     40.0925 300.3816379 +22.6048984     577.5817     72.28654      1.515     3.47     6.271762     20.36313     78.51976         9     0.943     0.763 -70.03   0
       352    953.1279     38.2709 300.4665110 +22.6851995     575.0461     72.24982      1.849     5.63      5.93922     20.36313     55.56039         9     1.047     0.855  -8.44   0
       353    149.5510     38.3817 300.2161513 +22.4447705     728.8293     72.21308      1.781     3.41     5.776573     20.36313     82.79834        10     1.021     0.729  -0.43   0
       354    721.3038     35.9855 300.3949459 +22.6152115     498.7968     72.08434      1.507     3.77     6.295107     20.36313     57.33913         7     0.728     0.690  -3.45   0
       355    670.0116     31.6082 300.3803758 +22.5986083     2603.259     72.06593      1.454     2.85      6.31978     20.36313     353.7777        27     1.223     1.059  85.27   0
       356    310.8100     32.6740 300.2681644 +22.4914159     475.7866     72.17632      1.871     3.83     5.355854     20.36313     41.96073         7     0.963     0.646  -8.23   0
       357    685.1853     30.8300 300.3853573 +22.6029238     881.5886     72.17632      1.805     3.96     6.350833     20.36313     95.59525        15     1.371     0.776  43.29   0
       358    756.5598     23.1640 300.4100911 +22.6220686      1448.52     72.24982      1.537     3.19     6.294468     20.36313     160.7999        22     1.288     1.024 -71.02   0
       359    917.3929     21.4452 300.4608114 +22.6696721     405.5995      72.1947      1.695     5.61     5.814659     20.36313     37.15982         7     1.211     0.733  89.75   0
       360    834.6696     18.1390 300.4360768 +22.6439839     265.8485     72.21308      1.298     3.53     5.812982     20.36313     40.42266         5     1.048     0.343   2.69   0
       361    253.8330   1014.4995 299.9317357 +22.7562051     790.2047     72.15794      2.614    11.04     54.21767     20.36313     49.72694        24     2.610     1.301 -86.94  16
       362    299.0816   1012.2098 299.9465564 +22.7691239     1545.532     72.12115      3.406     5.92     7.052883     20.36313      84.2057        31     1.525     1.487  60.07   0
       363     73.6180     15.4967 300.1999553 +22.4154544     418.9431     72.08434      1.526     2.84     5.918269     20.36313     67.84199         7     0.787     0.684  79.99   0
       364    736.8073   1013.2281 300.0825379 +22.9006771     431.2476     72.17632      1.748     3.46     3.225566     20.36313     25.19933         5     0.992     0.349  45.07   0
       365    133.9755   1007.3751 299.8967812 +22.7181976     1594.013     72.13954      3.088    14.78     88.36726     20.36313     47.45678        48     3.002     2.023 -38.04  18
       366    211.1203   1006.3262 299.9211096 +22.7410460     1010.463     72.28654      2.060    10.70     86.16664     20.36313     44.78478        19     2.652     1.203  46.68   3
       367    202.6627   1001.6716 299.9199933 +22.7371737     1735.765     72.21308      4.089    13.80     83.05051     20.36313     53.74245        46     2.786     1.903 -82.70   3
