#   1 NUMBER                 Running object number                                     
#   2 X_IMAGE                Object position along x                                    [pixel]
#   3 Y_IMAGE                Object position along y                                    [pixel]
#   4 ALPHA_J2000            Right ascension of barycenter (J2000)                      [deg]
#   5 DELTA_J2000            Declination of barycenter (J2000)                          [deg]
#   6 FLUX_APER              Flux vector within fixed circular aperture(s)              [count]
#   7 FLUXERR_APER           RMS error vector for aperture flux(es)                     [count]
#   8 FLUX_RADIUS            Fraction-of-light radii                                    [pixel]
#   9 FWHM_IMAGE             FWHM assuming a gaussian core                              [pixel]
#  10 BACKGROUND             Background at centroid position                            [count]
#  11 THRESHOLD              Detection threshold above background                       [count]
#  12 FLUX_MAX               Peak flux above background                                 [count]
#  13 ISOAREA_IMAGE          Isophotal area above Analysis threshold                    [pixel**2]
#  14 A_IMAGE                Profile RMS along major axis                               [pixel]
#  15 B_IMAGE                Profile RMS along minor axis                               [pixel]
#  16 THETA_IMAGE            Position angle (CCW/x)                                     [deg]
#  17 FLAGS                  Extraction flags                                          
         1    749.7590     22.8098 300.4100866 +22.6219902     1561.392     72.20485      1.566     3.13     6.585865     20.37118     174.6938        21     1.275     1.028 -89.96   0
         2    687.7147     15.9809 300.3929548 +22.6014715     729.2507     72.13125      1.532     4.24      6.46509     20.37118     78.56166        15     1.304     0.836  37.84   0
         3    493.5386     15.4035 300.3326344 +22.5432243      1174.68     72.18645      1.505     2.76     5.714092     20.37118     125.7145        16     1.044     0.891 -64.63   0
         4    397.2394     13.6107 300.3032263 +22.5138957     688.4138     72.20485      1.237     2.76     5.871942     20.37118     94.60867        11     0.978     0.691 -18.48   0
         5    779.6277     12.4508 300.4227576 +22.6279403     494.6382     72.22324      1.667     4.91     6.702417     20.37118     44.27383         8     1.056     0.647  54.25   0
         6    736.8367      4.4156 300.4120171 +22.6128330     601.4451     70.11475      1.430     2.42     6.802933     20.37118     76.11391         9     0.833     0.671  63.75  16
         7    168.6235      3.3401 300.2354094 +22.4425196      3510.64     66.17844      1.696     3.52     6.752674     20.37118     362.8595        31     1.374     1.174  20.87  24
         8    128.6761   1007.5627 299.8969652 +22.7188343     1788.591     72.16806      3.278    13.22     90.06853     20.37118     57.14036        43     2.702     1.800   2.52  18
         9     83.1677   1010.7318 299.8817860 +22.7060891     5132.583     72.20485     15.047    90.80     78.55154     20.37118     150.2239      2047    16.533    15.347  52.78  27
        10    164.2405    975.1349 299.9185729 +22.7202047     2192.291     72.16806      5.286    12.30     61.08282     20.37118     72.13465        59     2.676     2.192  84.49   3
        11    170.0438    981.6798 299.9182486 +22.7238225     1030.187     72.18645      4.609     4.70     66.88065     20.37118     34.98844         5     1.008     0.622 -71.39   1
        12    196.8513    985.2752 299.9254161 +22.7328949     3975.073     72.22324      7.740    32.16     68.13821     20.37118     99.90182       282     6.128     4.684  36.34   3
        13    496.2634    975.2438 300.0218636 +22.8198013     365.0145     72.20485      1.554     3.88     4.197738     20.37118      32.4705         5     0.879     0.491  44.48   0
        14    921.6913    971.0972 300.1558276 +22.9460878     393.8405     72.38853      1.537     5.29      4.05863     20.37118     42.19076         9     1.166     0.678 -63.61   3
        15    924.9911    969.9897 300.1572175 +22.9467581     581.1719     72.09441      2.183     5.56     4.060959     20.37118     42.05674        10     1.447     0.602  77.81   2
        16    146.3711    958.7086 299.9183593 +22.7101337     1217.828     72.16806      4.742     6.75     47.33507     20.37118     45.66294        11     1.693     0.754 -21.42   3
        17    141.3307    955.0302 299.9179884 +22.7075668      1906.58     72.18645      7.613    12.20     43.84663     20.37118     49.15568        42     2.328     1.843  70.35   3
        18    648.8484    953.5383 300.0764600 +22.8593042     6947.352        72.26      2.039     4.49     4.305662     20.37118     398.4077        50     1.586     1.523  24.62   0
        19    168.6445    997.2224 299.9127573 +22.7278598     2920.857        72.26      6.144    24.08     80.21951     20.37118     71.51218       158     5.512     3.103  41.01  19
        20    529.8365    947.7189 300.0412738 +22.8219654     434.1784     72.16806      1.545     3.72     4.383268     20.37118     39.90696         7     1.021     0.514 -67.10   0
        21    160.7998    946.2204 299.9269078 +22.7108804     1055.288     72.13125      5.174     7.38     35.99762     20.37118     37.35572        11     1.727     0.884  37.79   0
        22    557.3705    944.0710 300.0510371 +22.8291711     1511.595     72.20485      1.878     4.76     4.422269     20.37118     109.2621        26     1.395     1.257 -43.98   0
        23    235.4630    973.3044 299.9413201 +22.7410431     7708.629     72.29675      8.290    30.31     47.26133     20.37118     164.7127       740    10.473     5.177  62.21  18
        24    451.0222    940.6375 300.0190324 +22.7963077     961.7416     72.22324      2.056     4.98     4.500042     20.37118      67.7445        18     1.367     1.040  -2.21   0
        25    381.7516    938.6269 299.9981209 +22.7749633       6478.1     72.22324      1.970     4.36     4.668092     20.37118     463.6728        47     1.530     1.490  32.70   0
        26    175.0999    984.3645 299.9189476 +22.7261091     783.9218     72.18645     10.227    11.10      68.3866     20.37118     37.32407        15     2.210     1.554  -0.72   3
        27    692.5966    929.1694 300.0980217 +22.8654166     360.8767     72.16806      1.326     3.43     4.418747     20.37118     25.84037         5     0.790     0.430 -69.16   0
        28    228.5984    999.8085 299.9305628 +22.7465857     859.6852      72.0207      2.099     8.00     76.64983     20.37118     62.80236        19     1.512     1.184 -24.69   0
        29    115.2019    929.6456 299.9181203 +22.6924492     1410.496     72.20485      4.757     4.10     22.04384     20.37118     36.01192         5     1.025     0.468  -6.11   1
        30    414.4641    925.6505 300.0125247 +22.7810472     466.6158        72.26      2.387     6.08     4.589085     20.37118     36.46646         7     1.289     0.805  13.66   0
        31    691.8282    924.9257 300.0991625 +22.8639679      2051.27     72.22324      0.496    -5.54     4.437518     20.37118     1374.238         7     0.461     0.317  23.30   0
        32    352.8378    996.8563 299.9701799 +22.7830000     412.0092     72.20485      1.802     5.89     4.546136     20.37118     41.59064         8     1.451     0.874 -86.16   0
        33    670.8130    919.9746 300.0942227 +22.8562494     2007.984     72.20485      0.468     0.80     4.505291     20.37118     1355.072         8     0.465     0.362   3.20   0
        34    928.3032    917.6790 300.1752674 +22.9327225     2201.447     72.31512      2.143     5.18     4.374647     20.37118     104.4329        34     1.490     1.449  43.21   0
        35    578.5053    914.7685 300.0671519 +22.8270937     350.6638     72.13125      1.509     3.86      4.64631     20.37118     34.82997         5     1.056     0.405  -6.97   0
        36    716.8525    906.8700 300.1128355 +22.8662807     704.0756     72.18645      2.174     5.85     4.453705     20.37118     45.49374        10     1.196     0.805  47.78   0
        37    543.9703    990.9194 300.0316229 +22.8386010     2369.686     72.20485      2.066     5.40     3.875459     20.37118     132.3426        38     1.602     1.440  56.18   0
        38    751.7362    900.7282 300.1257084 +22.8749675     1142.062     72.24162      1.944     5.58     4.373718     20.37118     67.43253        25     1.440     1.255  31.94   0
        39    529.1836    902.0305 300.0559303 +22.8086554     270.9998     72.18645      1.720     4.99     4.781318     20.37118     30.12604         6     1.333     0.528   6.09   0
        40    215.9267    983.9440 299.9317822 +22.7382349     4717.883     72.22324      7.399    22.82     66.18648     20.37118     101.3858       307     5.636     4.311 -75.67   3
        41    820.3459    895.2327 300.1488903 +22.8939412      523.741     72.22324      2.362     4.34     4.252187     20.37118     42.47705         6     1.203     0.446  24.27   2
        42    206.4639    895.2097 299.9576990 +22.7099453     732.4341     72.16806      4.649     3.68     10.50138     20.37118     32.27292         5     0.800     0.697 -25.05   1
        43    773.9990    894.3695 300.1347179 +22.8798105     11487.24     72.16806      1.957     4.61     4.315081     20.37118      714.843        57     1.547     1.518  33.07   0
        44     85.4226    885.8918 299.9230905 +22.6709686     1159.841     72.13125      4.504     6.78     10.35021     20.37118     55.57329        20     1.471     1.328 -54.77   0
        45    825.4233    883.0000 300.1544521 +22.8919482     333.8949     72.11283      1.802     3.76       4.3071     20.37118     29.40394         5     1.206     0.336 -11.55   2
        46    479.2028    881.7717 300.0469521 +22.7878601     509.7197     72.14965      1.950     5.08     4.946076     20.37118      37.7133         9     0.929     0.784 -80.99   0
        47    729.4944    987.3630 300.0905933 +22.8931815     768.7344     72.18645      2.350     7.05     4.224511     20.37118     38.15925        11     1.499     1.077 -50.29   2
        48    782.5663    876.4393 300.1432204 +22.8772269     1472.556     72.24162      1.929     4.58     4.348647     20.37118     88.60788        28     1.460     1.253 -11.64   0
        49    630.4946    986.5658 300.0599963 +22.8632852     9023.998     72.18645      2.105     4.96     4.091847     20.37118     470.4551        50     1.667     1.522  32.11   3
        50    964.4952    874.6143 300.2005670 +22.9311870     439.0704     72.13125      1.696     3.97     4.668591     20.37118     32.03206         6     0.929     0.485  -2.87   0
        51    819.9719    869.1240 300.1572643 +22.8863295     991.5937     72.20485      2.595     8.99     4.345091     20.37118     49.95653        21     1.947     1.158  70.63   0
        52    929.4565    866.7864 300.1921787 +22.9184460     287.3492     72.18645      1.722     5.86     4.458091     20.37118     32.94712         6     1.280     0.756 -56.19   0
        53    720.5823    859.9058 300.1292710 +22.8539107     794.1517     72.13125      1.991     7.28     4.648714     20.37118     47.83389        16     1.272     1.167  50.40   0
        54    731.3812    857.3890 300.1334560 +22.8564228     522.1222     72.16806      1.666     4.97     4.646376     20.37118     51.44454        11     1.120     0.814  -9.53   0
        55    433.0038    856.3621 300.0408288 +22.7667194     4300.736     72.24162      1.874     3.96     4.940897     20.37118     317.3705        41     1.461     1.402  53.07   0
        56    884.2035    854.0758 300.1821930 +22.9012430     441.8786     72.11283      2.273     6.31     4.544134     20.37118     31.87089         8     1.146     0.978  71.22   0
        57    211.6551    844.4398 299.9758214 +22.6969375     416.4065     72.20485      1.619     5.34     6.124349     20.37118     45.64482         8     1.189     0.780  41.73   0
        58    636.0321    984.2805 300.0624653 +22.8642888     9695.413     72.20485      2.172     5.67     4.098354     20.37118     494.3903        53     1.688     1.564  26.31   3
        59    158.4809    841.8754 299.9601173 +22.6802560     786.5758     72.31512      1.723     4.59     8.073245     20.37118     70.55223        13     1.177     1.063 -36.31   0
        60    135.3257    838.8555 299.9538987 +22.6724455     1670.603     72.24162      2.073     5.01     7.312236     20.37118     98.54731        29     1.544     1.283  60.19   0
        61   1007.3506    828.5695 300.2289150 +22.9307859     2170.569     72.24162      2.056     5.07     4.990881     20.37118     102.5568        35     1.530     1.396  18.72   0
        62     11.4036    829.1487 299.9185319 +22.6324925     415.5972     72.20485      2.068     3.39       5.2766     20.37118     32.67867         5     0.756     0.439  69.23   0
        63    961.3752    826.9765 300.2150837 +22.9165638     2040.534     72.16806      1.935     4.39     4.852098     20.37118     130.9174        31     1.429     1.313  24.96   0
        64    666.4395    827.5341 300.1229197 +22.8283940     576.0762     72.16806      2.010     4.97      4.91012     20.37118     34.61992         7     1.426     0.490 -34.99   0
        65    744.8531    820.6661 300.1495961 +22.8499105     522.2344     72.24162      1.695     6.12     4.854178     20.37118     42.22956        12     1.105     0.952  -0.14   0
        66    129.8191   1003.1886 299.8987436 +22.7179231     282.4825     72.16806      1.675     5.41     85.70797     20.37118     41.00121         8     1.223     0.674 -41.01   3
        67    612.9656    814.5643 300.1104719 +22.8086491     4914.044     72.27837      1.746     3.75     4.974264     20.37118     403.4527        38     1.362     1.311  67.48   0
        68     73.3251    946.2217 299.8997105 +22.6846398     5297.479     72.18645     30.175   115.29     26.66888     20.37118     1364.786      4492    21.924    16.820 -63.87  27
        69    415.5129    811.6163 300.0499306 +22.7486334     504.8434     72.14965      1.636     3.96      5.14429     20.37118     51.48446        13     1.124     0.960  26.14   0
        70    163.2418    808.1552 299.9725597 +22.6720103     1364.017     72.29675      1.972     4.55     6.126327     20.37118     91.02785        26     1.360     1.326  51.41   0
        71    633.6564    807.3368 300.1192691 +22.8127724      653.585        72.26      1.672     4.90     5.013738     20.37118     54.14201        16     1.315     0.941  19.60   0
        72    183.5005    805.2318 299.9798104 +22.6772465     370.0616     72.18645      1.335     3.42      5.72286     20.37118     47.57098         5     0.795     0.425 -66.96   0
        73   1006.1467    794.7126 300.2395467 +22.9206946     1117.195     72.24162      1.993     6.10     4.954431     20.37118     67.20966        21     1.363     1.147 -21.96   0
        74    789.1602    794.4106 300.1719472 +22.8556384     4275.226     72.20485      1.793     3.79     4.970435     20.37118     298.0275        39     1.409     1.334  39.68   0
        75    170.0643    991.1776 299.9151653 +22.7265523     2153.038     72.18645      6.837    12.46     74.86478     20.37118     59.12568        51     2.610     1.655  -0.71   3
        76    506.2805    786.9311 300.0862194 +22.7687486     548.9445     72.31512      1.507     4.06     5.137163     20.37118     65.25977        13     1.092     0.881  16.72   0
        77    152.4874    784.6125 299.9768677 +22.6620313     937.0747     72.14965      1.826     4.49     5.595439     20.37118     80.38097        20     1.305     1.179  -8.51   0
        78    302.1027    776.6929 300.0259833 +22.7046156     53971.45     72.38853      1.807     3.77     5.039638     20.37118      4903.52       103     1.594     1.516  33.40   0
        79    567.8605    780.0540 300.1076369 +22.7852252     515.7054        72.26      1.634     5.99     5.071427     20.37118      41.9655        11     1.085     0.929  76.23   0
        80    559.9894    775.9624 300.1065147 +22.7816920     1692.109     72.20485      1.750     4.16     5.073663     20.37118     127.2969        25     1.354     1.160  -5.79   0
        81    972.9713    775.4637 300.2354495 +22.9052309      880.266     72.20485      1.858     4.46     4.993324     20.37118      59.7589        18     1.167     1.091  -2.02   0
        82    230.9788    774.9966 300.0044060 +22.6828067     522.5938     72.16805      2.131     4.67     5.150949     20.37118     42.43261         7     1.053     0.588 -31.65   0
        83    589.0330    771.8224 300.1169089 +22.7892047     744.2757     72.20485      1.610     4.52     5.054394     20.37118     66.57801        16     1.187     0.950  23.40   0
        84    599.7893    770.3932 300.1207249 +22.7920167     602.3683       72.076      1.759     4.69     5.048018     20.37118     57.91078        14     1.304     1.090  14.16   0
        85    920.6695    768.0350 300.2215431 +22.8874382     373.8987     72.20485      1.885     6.40      5.09051     20.37118     30.00649        10     1.515     0.759 -46.95   0
        86    705.1580    766.7997 300.1547318 +22.8225479     394.4561     72.22324      1.430     4.35     5.079143     20.37118      38.6592        10     0.978     0.735 -62.68   0
        87    743.0637    757.0450 300.1697197 +22.8310986     760.3688     72.22324      1.709     3.96     5.101009     20.37118     64.89919        12     1.081     0.877  83.13   0
        88    351.8734    753.9637 300.0488599 +22.7130105        31787     72.14965      1.727     3.53     4.907359     20.37118      2613.24        72     1.475     1.435  29.37   0
        89    366.2281    754.5394 300.0531408 +22.7174781     1956.384     72.22324      1.720     3.62       4.9626     20.37118     195.6665        27     1.279     1.206  13.68   0
        90    874.9923    750.2103 300.2130860 +22.8686403      2799.53     72.05756      1.829     4.15     5.116158     20.37118     196.5086        32     1.376     1.280 -63.71   0
        91    363.5021    748.5883 300.0542264 +22.7149528     636.8371     72.09441      1.835     3.76     4.918549     20.37118     59.67933         9     1.054     0.654 -55.55   0
        92    632.9335    746.2103 300.1389129 +22.7950002     862.3522     72.20485      1.521     4.10      5.06464     20.37118     87.65638        17     1.132     1.032 -70.68   0
        93    469.2681    746.0352 300.0879848 +22.7459159     496.5022     72.20485      2.239     5.86     5.144574     20.37118     38.20477         9     1.424     0.678   4.31   0
        94    234.5615    745.8211 300.0150026 +22.6755086     717.0154     72.22324      1.590     3.52     5.067169     20.37118     88.46626        12     1.147     0.753 -20.58   0
        95     39.7628    741.2375 299.9559188 +22.6157842     453.8575     72.27838      1.620     3.55     5.792447     20.37118     52.41062         7     1.093     0.743  79.36   0
        96    480.2285    740.7777 300.0931067 +22.7476906     890.0693     72.20485      1.600     3.96     5.141154     20.37118     76.77495        13     0.970     0.946  18.31   0
        97    881.2070    738.4161 300.2188581 +22.8671116     676.4141     72.13125      1.993     7.66      5.16475     20.37118     43.53117        16     1.473     1.115 -38.33   0
        98    382.0457    737.1222 300.0637249 +22.7172190     356.7064     72.18645      1.416     3.54     4.945392     20.37118      43.9435         8     0.857     0.712  -8.03   0
        99    338.4900    736.9060 300.0502380 +22.7041029     414.3648     72.37019      1.328     3.45     4.835063     20.37118     42.12447         8     0.802     0.702  -9.49   0
       100    426.4190    735.8412 300.0779554 +22.7301491     338.1773     72.22324      1.384     2.87     5.141074     20.37118     41.08539         5     0.720     0.463 -72.11   0
       101    633.9604    735.0909 300.1428467 +22.7921141     399.3606     72.20485      2.365     5.22       5.0659     20.37118     42.89064         5     1.249     0.616 -17.86   0
       102    232.4425    730.1016 300.0194518 +22.6703622     388.4892     72.20485      1.411     4.22     5.043222     20.37118      56.0675         9     1.165     0.696 -39.43   0
       103    555.2191    720.9200 300.1229178 +22.7644562     477.0449     72.20485      1.633     4.53     5.022965     20.37118     49.46817         9     0.962     0.903  15.51   0
       104    525.2346    718.9262 300.1142253 +22.7549005     741.3859     72.18645      1.821     4.65     5.070493     20.37118     62.09247        15     1.318     0.947  53.29   0
       105    435.5038    717.8978 300.0866151 +22.7277197     339.0687     72.38853      1.686     4.99     5.176764     20.37118     49.40026         7     1.213     0.695  84.34   0
       106    941.4237    715.5301 300.2450843 +22.8785608       4644.7     72.22324      1.852     3.98     5.313805     20.37118      290.306        40     1.432     1.360  42.87   0
       107    546.9105    716.4752 300.1217739 +22.7606906     1356.792     72.35183      1.468     3.17     5.019408     20.37118     131.2142        17     1.071     0.953  27.62   0
       108    466.5688    716.1123 300.0968685 +22.7365154     311.6052     72.18645      1.346     4.26     5.180729     20.37118     47.43284         9     1.126     0.537 -26.20   0
       109    929.9670    707.0490 300.2442654 +22.8726936     1620.065     72.24162      1.729     3.93     5.397209     20.37118      111.513        26     1.288     1.204 -13.93   0
       110    292.8444    700.4522 300.0478788 +22.6799581     870.9758     72.22324      1.705     4.08     4.847624     20.37118     66.57764        17     1.162     1.021  66.98   0
       111    756.2364    697.9778 300.1930230 +22.8180729     2653.585     72.22324      1.801     3.69     5.106511     20.37118     208.3957        32     1.431     1.240  54.66   0
       112    961.1379    697.0524 300.2572411 +22.8791505     1597.699        72.26      1.786     3.90     5.407309     20.37118     124.2816        29     1.417     1.233  41.65   0
       113    141.7659    684.5453 300.0060516 +22.6301048     589.9641     72.22324      1.699     4.71     5.584104     20.37118     54.51671        13     1.236     0.900 -67.85   0
       114    838.4777    684.0980 300.2231809 +22.8387086     642.1212     72.33347      1.646     5.39      5.24406     20.37118     51.27079        11     1.077     0.872  47.12   0
       115    874.7158    675.0768 300.2374162 +22.8469645       149294     72.31512      1.701     3.48     5.310942     20.37118      11499.2       162     1.564     1.531 -74.35   0
       116   1021.5121    677.1008 300.2825685 +22.8914841     1208.215     66.95645      1.716     5.21     5.548741     20.37118     91.49741        20     1.469     1.006  48.66  24
       117    637.0817    678.5178 300.1622031 +22.7767983     409.1927     72.33347      1.538     5.31     4.980456     20.37118     36.41339         9     1.215     0.655  70.46   0
       118    727.0040    675.2767 300.1912852 +22.8027967      863.149     72.11283      1.680     4.19     5.012138     20.37118     83.21066        14     1.075     1.029  -1.29   0
       119    908.0223    668.5142 300.2499398 +22.8550483     308.8018     72.14965      1.695     3.75     5.488932     20.37118     44.37609         6     0.953     0.498   3.20   0
       120    560.8855    663.8573 300.1432244 +22.7497646      1716.79     72.31512      1.532     3.19     5.004488     20.37118     179.4768        25     1.194     1.126  12.22   0
       121    742.1584    661.0925 300.2006185 +22.8032589     9475.317     72.20485      1.585     3.18     5.073509     20.37118     809.9798        46     1.433     1.254  88.60   0
       122    243.5716    656.0741 300.0469663 +22.6524516     5114.831     72.22324      1.786     3.61     5.008235     20.37118     426.5483        41     1.448     1.271  50.59   0
       123    325.6281    654.1473 300.0731250 +22.6764910     1115.714     72.22324      1.618     3.66      4.75348     20.37118     94.29661        18     1.182     1.052  30.68   0
       124    201.1375    651.5966 300.0352206 +22.6384473     608.3885     72.20485      1.823     4.84     5.314713     20.37118     47.79384        11     1.224     0.872  49.49   0
       125    534.0452    649.9356 300.1393860 +22.7377260     912.4473     72.22324      1.765     3.98     5.112326     20.37118     75.08653        17     1.230     0.957   1.20   0
       126    525.5978    641.8947 300.1393669 +22.7328861     3246.541     72.11283      1.536     3.15     5.161532     20.37118     339.5659        29     1.227     1.108  42.92   0
       127    515.7036    635.4976 300.1383631 +22.7280849     1568.423     72.38853      1.681     3.44     5.202967     20.37118     162.7394        22     1.271     1.094  50.60   0
       128    909.7935    633.8818 300.2617442 +22.8456231     353.3614     72.13125      1.529     4.61     5.513463     20.37118     44.59162         8     1.089     0.744 -87.26   0
       129    444.9651    635.0535 300.1164773 +22.7067660       366.09     72.22324      1.458     4.07     5.267408     20.37118     32.15315         7     0.900     0.526 -43.58   0
       130    193.1727    630.3001 300.0396611 +22.6299475     667.8252     72.14965      1.694     6.27     5.420653     20.37118     72.28313        13     1.323     0.835  67.00   0
       131    178.8546    631.6917 300.0347558 +22.6260551     591.3278        72.26      1.511     4.66      5.50577     20.37118     84.80704        13     1.157     0.885  50.93   0
       132    962.8293    627.1735 300.2804734 +22.8595677     467.9778     72.20485      1.394     5.04     5.593541     20.37118     42.25604         9     1.091     0.672 -13.61   0
       133    219.1141    626.7536 300.0488823 +22.6367050     487.6909     72.18645      1.657     5.05     5.268533     20.37118     46.40221        13     1.227     1.028  60.51   0
       134    539.8778    625.7922 300.1490460 +22.7325383     414.3571     72.16806      1.372     3.64      5.19522     20.37118     61.07916         8     1.005     0.602  11.97   0
       135    440.6369    625.3560 300.1182797 +22.7026844     1793.929     72.27838      1.585     3.15     5.267525     20.37118     181.1057        22     1.165     1.066  36.93   0
       136   1016.4514    622.1337 300.2988474 +22.8741652     862.3231     72.22324      1.895     7.90     5.598221     20.37118      67.4781        17     1.854     0.942 -80.62  16
       137     94.5886    620.0441 300.0123356 +22.5974519      19846.2     72.20485      1.834     3.80     5.669539     20.37118     1545.642        62     1.526     1.465  34.64   0
       138     16.1273    621.4310 299.9874955 +22.5743260     587.7693     72.20485      1.848     4.09      6.03213     20.37118     57.25884        11     1.129     0.953 -73.01   0
       139    525.5960    620.6655 300.1462625 +22.7267879     1151.817     72.22324      1.652     3.56     5.229037     20.37118     111.6676        16     1.138     0.926   8.04   0
       140    560.5535    619.9171 300.1573955 +22.7370435     429.4254     72.18645      1.618     5.30     5.219812     20.37118     37.67129         7     1.311     0.604   6.85   0
       141    279.4734    611.9033 300.0724846 +22.6505316     357.9829     72.33347      1.456     5.54     4.831923     20.37118     38.82885         9     1.074     0.805 -57.06   0
       142    943.7383    607.1047 300.2810349 +22.8480843     1039.173     72.29675      1.611     4.01      5.58724     20.37118     92.05729        19     1.279     1.008 -46.17   0
       143    609.1763    608.4556 300.1762680 +22.7483132     247.3892     72.22324      1.552     4.19     5.301589     20.37118     28.79839         5     0.819     0.690 -54.16   0
       144    810.1727    605.5122 300.2398835 +22.8076488     375.2029     72.18645      1.438     5.23     5.373703     20.37118     43.41324         9     0.985     0.784   6.62   0
       145     40.6935    604.1559 300.0007417 +22.5767348     1540.816     72.22324      2.123     5.00     5.884329     20.37118     107.6376        29     1.581     1.271  88.77   0
       146    106.8243    603.9384 300.0213708 +22.5964980     406.5581     72.20485      1.932     6.12     5.625033     20.37118     35.03386         8     1.411     0.748  63.10   0
       147    489.1159    601.3542 300.1411728 +22.7103137     508.3435     72.18645      1.467     3.07      5.33992     20.37118     58.26414         7     0.742     0.643  42.98   0
       148    882.7432    599.5994 300.2644411 +22.8276715     1107.636     72.13125      2.444     7.38     5.435355     20.37118     76.42564        21     2.073     0.832   8.75   0
       149    628.1262    598.1348 300.1855255 +22.7510229     248.1911     72.24162      1.137     3.02     5.333819     20.37118     52.03546         6     0.835     0.607   0.14   0
       150    445.7891    593.5543 300.1302136 +22.6950947     725.5586     72.22324      1.469     3.02     5.365394     20.37118     70.07639        12     0.984     0.786 -56.18   0
       151    593.7355    592.0259 300.1767932 +22.7389688     522.4473     72.18645      1.545     3.55     5.377062     20.37118     52.00987         8     0.918     0.753  30.12   0
       152    641.1508    590.7628 300.1919790 +22.7528050     374.0709     72.20485      1.318     4.95     5.339512     20.37118     56.11462         9     0.955     0.725  79.27   0
       153    611.5576    590.1736 300.1829482 +22.7437739     531.8442     72.22324      1.342     3.24     5.386679     20.37118     65.75642        11     0.984     0.825 -36.52   0
       154    489.9889    589.3727 300.1453362 +22.7071338     830.0856     72.20485      1.400     3.10     5.442516     20.37118     105.1411        13     1.083     0.714  71.40   0
       155    923.7944    585.1169 300.2819535 +22.8357941     3240.181     72.13125      1.684     3.38     5.540109     20.37118     268.4565        32     1.298     1.260  79.57   0
       156    455.4241    584.7316 300.1360793 +22.6954470     1715.424     72.20485      1.508     3.05     5.440369     20.37118     210.4018        21     1.164     1.078 -87.35   0
       157   1022.0937    583.5071 300.3131559 +22.8647461     782.9088     64.45025      1.892     4.68     5.557983     20.37118     69.72382        15     1.333     0.895 -24.14  24
       158    820.3846    581.6693 300.2508129 +22.8038523     383.7715     72.22324      1.712     3.51     5.401898     20.37118     40.38456         7     0.871     0.636  68.35   0
       159    431.1641    580.5035 300.1298983 +22.6869653      291.739     72.20485      1.073     3.22     5.416912     20.37118     47.42515         5     0.753     0.444 -22.26   0
       160     17.2905    578.1716 300.0019063 +22.5622623     5043.537     72.18645      1.943     3.84     5.780117     20.37118     439.7875        45     1.562     1.417  29.02   0
       161    962.9741    574.9059 300.2974965 +22.8445828     297.7846     72.14965      1.363     5.59      5.53917     20.37118     36.79596         9     1.112     0.908  -2.89   0
       162    318.8203    571.4011 300.0978830 +22.6506933      9242.22     72.13125      1.627     3.23     5.061982     20.37118     901.6674        46     1.354     1.289  51.96   0
       163    441.2777    568.5866 300.1369176 +22.6865722     9007.049     72.22324      1.530     2.92     5.511656     20.37118     1052.919        39     1.242     1.196  50.57   0
       164    853.0895    562.8330 300.2671319 +22.8082266      1962.87     72.16806      1.633     3.27      5.42422     20.37118     162.1735        26     1.235     1.148 -76.10   0
       165    688.0274    565.4237 300.2148193 +22.7595597       269.81     72.18645      1.159     3.76     5.294912     20.37118     38.77449         6     0.829     0.641  35.96   0
       166    937.7186    560.1893 300.2943946 +22.8327937     12593.33     72.16806      1.671     3.28     5.514547     20.37118      1140.06        53     1.413     1.334  84.50   0
       167    501.9456    558.1951 300.1591855 +22.7017594     11802.22     72.20485      1.504     2.98     5.675809     20.37118     1179.767        50     1.300     1.238  71.25   0
       168    671.4957    554.0571 300.2133576 +22.7513436     564.3393     72.27837      1.531     3.45     5.304432     20.37118     60.00735         9     0.967     0.739  74.51   0
       169    229.2945    553.4470 300.0758571 +22.6187120     1360.175     72.22324      1.672     3.47     5.294248     20.37118      140.748        24     1.413     1.108  -1.76   0
       170    387.1123    552.7809 300.1251863 +22.6658067     294.7942     72.14965      1.332     4.75     5.380873     20.37118     39.25087         7     1.145     0.559 -20.28   0
       171    476.1188    551.3891 300.1533520 +22.6920687     165.1749     72.16806      1.120     4.27     5.775107     20.37118     48.42502         7     0.743     0.698  29.80   0
       172    433.6567    546.3144 300.1417772 +22.6778923     4368.893     72.31512      1.515     2.84     5.618371     20.37118     490.3892        32     1.201     1.148  24.24   0
       173    776.4688    546.6229 300.2484989 +22.7806329     777.1016     72.22324      1.383     3.12     5.385759     20.37118     92.51266        13     0.937     0.925 -33.73   0
       174    411.9466    544.8193 300.1355031 +22.6709596     1215.394     72.18645      1.512     3.31     5.522958     20.37118     116.7789        19     1.085     1.060 -81.19   0
       175    166.4020    543.7501 300.0594431 +22.5970802     726.5829     72.18645      1.641     3.56     5.582905     20.37118     64.70217        12     0.954     0.869 -88.08   0
       176    853.3615    542.2410 300.2739041 +22.8023881     1491.859     72.29675      1.554     3.21      5.44712     20.37118     134.0369        24     1.210     1.102  -7.54   0
       177    733.7518    539.1230 300.2376149 +22.7656899     892.3582     72.20485      1.427     3.52     5.304432     20.37118     89.46442        13     0.940     0.925   8.86   0
       178    374.1085    540.0148 300.1252836 +22.6582447      350.609     72.13125      1.622     4.01     5.383646     20.37118     43.34161         8     1.005     0.745  83.99   0
       179    550.2438    533.9500 300.1821034 +22.7092588       206982     72.24162      1.490     2.91     5.630407     20.37118     22125.84       200     1.517     1.444 -14.84   0
       180    511.2076    534.7089 300.1696970 +22.6977863     243.6255     72.11283      1.112     3.37     5.728849     20.37118     45.45041         5     1.122     0.293  55.52   0
       181    236.3015    533.7687 300.0844266 +22.6151620     3559.735     72.18645      1.638     3.06      5.29991     20.37118     394.4263        31     1.322     1.158  39.60   0
       182    802.2146    530.3135 300.2618242 +22.7836509     536.0453     72.14965      1.538     3.86     5.445535     20.37118     55.29998         7     0.864     0.624 -59.65   0
       183    820.6949    528.8879 300.2680508 +22.7887724      272.109     72.38853      1.380     4.22     5.448962     20.37118     35.60255         6     0.764     0.666 -23.48   0
       184    440.8086    514.5061 300.1543324 +22.6708978      2702.56     72.11283      1.544     3.01     5.616362     20.37118      251.514        32     1.459     1.123  89.85   0
       185    285.2184    516.6260 300.1052125 +22.6248969     448.8096     72.24162      1.478     2.81     5.267053     20.37118     57.45048         8     0.824     0.671 -61.93   0
       186    890.9818    514.6679 300.2945940 +22.8057189     261.3851     72.20485      1.186     3.92     5.477115     20.37118     35.92554         6     1.019     0.433 -11.63   0
       187    597.1061    512.1183 300.2037927 +22.7170186     387.1339     72.35183      1.858     5.11     5.618585     20.37118     31.51829         5     1.178     0.628  23.56   0
       188    852.3542    510.3800 300.2839357 +22.7929264      424.515        72.26      1.940     6.03     5.465421     20.37118     34.77831         9     1.172     0.872  66.02   0
       189    671.0675    510.1246 300.2274898 +22.7385898     284.8926     72.27837      1.337     4.22     5.457645     20.37118     39.91246         5     1.035     0.526  32.40   0
       190    758.3455    503.0903 300.2569832 +22.7626945      437.873        72.26      1.693     4.48     5.377857     20.37118      35.0192         7     0.898     0.635 -64.15   0
       191    837.8614    500.6021 300.2825897 +22.7857779     1757.998     72.18645      1.541     2.92     5.463657     20.37118     175.6712        21     1.128     1.008   7.85   0
       192    709.0977    498.2599 300.2431970 +22.7465645     2638.399     72.27838      1.444     2.76     5.418615     20.37118     271.9923        25     1.128     1.060 -74.49   0
       193    953.4760    495.4044 300.3203493 +22.8188790     423.0299     72.11283      1.695     6.04     5.492498     20.37118     48.17091        10     1.189     0.863  38.48   3
       194    952.2500    491.3951 300.3212685 +22.8173591     675.5437     72.18645      1.489     3.60     5.492546     20.37118     64.86992        13     1.049     0.845  -5.00   2
       195    613.9963    495.0718 300.2145904 +22.7171772     490.5967     72.14965      1.471     3.46     5.608052     20.37118     55.19967         9     0.901     0.741  69.76   0
       196    918.4603    495.4697 300.3094013 +22.8084208     263.6464     72.24162      1.452     3.75     5.490489     20.37118     26.45296         6     0.992     0.407  18.59   0
       197    966.4008    492.5451 300.3253114 +22.8219236     1204.997     72.13125      1.555     3.24     5.492573     20.37118     112.4824        18     1.173     0.960  79.31   0
       198    496.5670    493.7867 300.1784237 +22.6816451     711.7944     72.18645      1.491     4.24     5.655528     20.37118     78.89745        14     1.123     0.923 -55.65   0
       199    838.1498    490.6752 300.2859027 +22.7830101     2283.807     72.20485      1.762     3.77     5.467814     20.37118      187.671        30     1.519     1.097  77.04   0
       200    591.6780    488.5914 300.2097399 +22.7086326     671.6962     72.16806      1.687     2.66     5.619843     20.37118     87.11452        11     0.990     0.675 -42.98   2
       201    591.0637    485.0708 300.2106914 +22.7074370      323.234     72.24162      1.327     3.68     5.620094     20.37118      37.6334         5     0.633     0.616 -12.65   3
       202    377.4825    489.0263 300.1428888 +22.6446108     458.5107     72.18645      1.696     3.71     5.420685     20.37118     41.73101         8     0.904     0.717  13.89   0
       203    430.1456    487.3655 300.1598237 +22.6599077      265.157     72.22324      1.357     4.91     5.561155     20.37118     49.02879         7     1.153     0.614  79.06   0
       204    876.3341    485.8219 300.2993901 +22.7930413     4331.152     72.18645      1.550     3.07     5.488612     20.37118     433.8405        32     1.227     1.178  27.97   0
       205    516.7474    485.5923 300.1873697 +22.6853341     281.1945     72.20485      1.516     4.62     5.632685     20.37118     37.82911         8     1.148     0.662 -47.54   0
       206    613.9838    482.4817 300.2186740 +22.7135553        252.1     72.18645      1.431     4.79     5.612578     20.37118     34.11673         7     0.934     0.697 -64.13   0
       207    537.3539    481.2375 300.1952025 +22.6902534     332.5485     72.24162      1.507     2.74     5.629653     20.37118     38.08966         5     0.717     0.456  74.89   0
       208    283.6701    478.1104 300.1172347 +22.6133726     940.5609     72.37019      0.605     1.10     5.308796     20.37118     495.1085         5     0.520     0.313  -1.37   0
       209    967.7577    476.4355 300.3309652 +22.8176964     681.2709        72.26      1.549     3.85     5.492675     20.37118      64.5686        12     1.030     0.853  75.23   0
       210    108.2887    475.8013 300.0634316 +22.5601580     1043.225     72.13125      1.678     4.59      5.50047     20.37118     110.1089        20     1.314     1.190 -36.58   0
       211    769.0126    469.4784 300.2712220 +22.7562247     264.4811     72.20485      1.376     2.65     5.406507     20.37118     33.37542         6     0.761     0.499  -1.59   0
       212    100.9924    465.9432 300.0643630 +22.5551414     498.2922     72.18645      1.632     3.96     5.517647     20.37118     41.98945         9     0.939     0.789   4.13   0
       213    708.8303    459.8775 300.2555744 +22.7354516     488.8929     72.18645      1.512     3.31      5.42927     20.37118       61.604         8     0.892     0.774  86.52   0
       214    597.8193    457.5656 300.2217255 +22.7015552     342.2615     72.22324      1.612     4.51     5.607279     20.37118     45.16599         7     0.861     0.671  83.23   0
       215    649.6600    456.2120 300.2383202 +22.7166859     827.3006     72.18645      1.556     3.85     5.533852     20.37118     95.65276        12     1.169     0.789 -20.23   0
       216    964.4481    448.8803 300.3388777 +22.8087809     553.9523     72.22324      1.452     4.10     5.492675     20.37118     60.15166        10     0.941     0.830 -34.81   0
       217    710.4595    448.3413 300.2598271 +22.7326230     927.7286     72.27838      1.522     2.84     5.408539     20.37118     106.9783        16     1.042     0.924 -65.02   0
       218    867.6616    444.5428 300.3100852 +22.7785761     980.8057        72.26      1.488     3.60     5.491445     20.37118     104.6844        15     1.133     0.890  55.33   0
       219    852.0452    441.1395 300.3063183 +22.7729247     702.1036     72.22324      1.597     3.89     5.481524     20.37118     66.59827        13     1.077     0.933  31.63   0
       220    832.6895    441.5685 300.3001413 +22.7672562     332.8878     72.16806      1.636     5.19     5.467144     20.37118      35.1075         7     0.903     0.843  39.70   0
       221    596.3043    438.9062 300.2273102 +22.6957390     3272.755     72.38853      1.460     2.80     5.599013     20.37118     390.0232        29     1.224     1.051  79.76   0
       222    956.7516    438.0655 300.3399863 +22.8033678     497.4986     72.22324      1.707     3.99     5.492675     20.37118     45.69298        10     0.956     0.723  -0.53   0
       223     72.8673    430.2383 300.0672074 +22.5364627     422.4412     72.16806      1.546     3.95     5.528159     20.37118     47.25898         6     0.787     0.566 -57.59   0
       224    368.4643    426.6500 300.1603288 +22.6239921     291.3427        72.26      1.447     3.56     5.392222     20.37118     32.72089         5     1.331     0.275  44.64   0
       225   1007.9739    418.2439 300.3624079 +22.8129886      1300.14     72.22324      1.638     3.30     5.492675     20.37118       128.92        22     1.217     1.078 -43.05   0
       226    879.7036    418.0500 300.3224413 +22.7745603     566.4659     72.27837      1.557     3.53     5.491687     20.37118     61.08023        10     1.008     0.722   9.25   0
       227    966.2050    416.9000 300.3498067 +22.8001078     938.4683     72.09441      1.608     3.64     5.492675     20.37118      85.6846        15     1.116     0.927 -21.22   0
       228    706.9425    412.8708 300.2702437 +22.7213734      1106.87     72.22324      1.434     2.85     5.358049     20.37118     143.6515        17     1.060     0.957  17.35   0
       229    502.8290    413.3383 300.2064878 +22.6604049     424.1975     72.20485      1.400     4.41     5.611162     20.37118     57.41634         7     1.152     0.723 -68.66   0
       230    211.0155    411.1628 300.1163596 +22.5723801     625.5739     72.20485      1.592     4.22     5.408412     20.37118     65.52129        12     1.088     0.794  33.02   0
       231    273.2231    406.5808 300.1372006 +22.5896998     3800.762     72.20485      1.543     2.81     5.441643     20.37118     440.5486        28     1.222     1.102  52.63   0
       232   1006.4764    405.4109 300.3661056 +22.8088488     4372.731     72.20485      1.676     3.13     5.490265     20.37118     457.0073        37     1.356     1.235  78.08   0
       233    220.4929    401.3213 300.1225017 +22.5723931     7545.099     72.33347      1.598     2.89     5.477408     20.37118      872.251        40     1.278     1.259  77.25   0
       234    599.1687    401.3299 300.2403986 +22.6857966     208.1764     72.20485      1.103     2.95     5.533797     20.37118     39.05783         5     0.733     0.446  14.79   0
       235    986.4742    396.4153 300.3627816 +22.8002782     1766.073     72.20485      1.629     3.12     5.488458     20.37118     188.3651        24     1.303     1.031  69.51   0
       236    361.3064    395.5673 300.1681881 +22.6129191     4723.436     72.14965      1.499     2.72     5.539822     20.37118     586.5226        33     1.214     1.172  67.47   0
       237    605.4683    392.4206 300.2452529 +22.6851215     18973.03     72.20485      1.497     2.70     5.491589     20.37118     2285.074        65     1.404     1.265  28.31   0
       238    623.0640    392.7394 300.2506327 +22.6904802     818.5392     72.24162      2.022     6.28     5.459651     20.37118       56.365        14     1.564     0.708 -25.89   0
       239    232.7856    390.8459 300.1297253 +22.5730672     262.4192     72.22324      1.235     3.12     5.552723     20.37118     36.57312         6     0.742     0.570  42.88   0
       240    802.4366    382.7827 300.3097850 +22.7412995     435.8863     72.20485      1.483     5.39     5.399004     20.37118     49.93151         9     0.995     0.824  50.82   0
       241    939.4352    375.4268 300.3549122 +22.7801702     693.1154     72.22324      1.419     4.39     5.484242     20.37118     80.03392        12     1.036     0.890 -36.94   0
       242    649.5089    373.7662 300.2650315 +22.6929416      250.771     72.18645      1.197     3.01     5.379369     20.37118     39.64011         5     0.732     0.432  64.78   0
       243    476.2659    374.3271 300.2108744 +22.6412411     413.7715     72.24162      1.615     4.38     5.547328     20.37118     38.62526         5     0.787     0.694 -16.22   0
       244    160.0317    372.3065 300.1131103 +22.5459472     2025.823     72.13125      1.592     3.56     5.595541     20.37118     198.9048        27     1.361     1.172  58.47   0
       245    816.6968    364.1351 300.3202839 +22.7402036     311.6501     72.31512      1.361     4.42     5.380002     20.37118     34.73281         7     1.290     0.432 -64.68   0
       246    959.8352    362.4099 300.3655028 +22.7825276     1200.557     72.20485      1.617     3.55     5.481632     20.37118     124.0703        21     1.203     1.094  -2.87   0
       247    546.1691    361.8521 300.2366963 +22.6585839     6687.022     72.22324      1.445     2.87     5.608605     20.37118     719.0049        33     1.191     1.093  60.30   0
       248    261.5475    361.0442 300.1483440 +22.5731230     520.8893     72.22324      1.162     3.32     5.807663     20.37118     76.02805        10     1.026     0.682 -75.26   0
       249    118.6955    354.3032 300.1060969 +22.5283929     472.2115     72.38853      1.484     2.54      5.75959     20.37118     69.85333         9     0.851     0.699  -9.80   0
       250    750.3802    350.9081 300.3038946 +22.7165571     1308.355     72.13125      1.652     3.24     5.296654     20.37118     119.7874        22     1.365     0.992 -73.29   0
       251    660.3112    352.1081 300.2754261 +22.6899483     464.7422     72.37019      1.326     3.31       5.3541     20.37118     48.38496         9     0.877     0.702 -23.69   0
       252    452.7439    348.0630 300.2120711 +22.6266509     6265.048        72.26      1.463     2.84     5.563633     20.37118     667.9357        37     1.250     1.136  61.24   0
       253    942.0199    342.9747 300.3662494 +22.7716078     700.1801     72.20485      1.613     3.81     5.479825     20.37118     75.71161        12     1.228     0.692  39.96   0
       254    844.8528    342.7240 300.3360139 +22.7424695     1401.647     72.22324      1.595     2.88     5.372368     20.37118     155.0972        17     1.100     0.897 -30.15   0
       255    437.3706    336.7506 300.2109542 +22.6187972     464.3094     72.22324      1.514     3.93     5.605993     20.37118     70.32856         9     1.243     0.685 -56.18   0
       256    520.3016    335.1542 300.2373006 +22.6431667     469.7391     72.22324      1.268     2.46     5.587019     20.37118     60.41909         7     0.831     0.558 -31.93   0
       257    813.8006    334.5886 300.3289677 +22.7308396     1059.237      72.0207      0.720     1.14      5.36748     20.37118      397.851         6     0.527     0.475 -34.28   0
       258    817.7552    330.4055 300.3315584 +22.7308197     432.9579     72.20485      1.428     3.60     5.369098     20.37118     42.71472         9     0.877     0.753  17.53   0
       259    809.8185    331.0434 300.3288760 +22.7286286     1434.754     72.22324      0.490     0.84     5.367619     20.37118     1044.532         5     0.391     0.316 -17.14   0
       260    340.4498    327.1509 300.1838950 +22.5870172     2345.478     72.24162      1.460     2.94     5.915011     20.37118     293.8214        26     1.159     1.107  85.64   0
       261     58.8357    324.5838 300.0971272 +22.5019240     1075.077     72.20485      1.637     4.21     5.930455     20.37118     100.9401        19     1.363     1.029 -48.02   0
       262    688.0104    322.1273 300.2937876 +22.6896178     292.5281     72.20485      1.413     3.15     5.330455     20.37118     43.73285         5     0.638     0.588 -88.75   0
       263    309.7209    316.6367 300.1777420 +22.5747941     30053.01     72.14965      1.563     2.89     5.916042     20.37118     3631.345        67     1.391     1.272  61.48   0
       264    844.4544    314.5138 300.3450424 +22.7342362     1404.051        72.26      1.549     2.73      5.37443     20.37118      161.072        20     1.160     1.003 -89.74   0
       265      5.9551    304.3240 300.0872619 +22.4802620     4884.278     72.18645      1.810     3.64      5.95182     20.37118     477.3297        42     1.476     1.359  74.93  16
       266    760.0048    303.2489 300.3223584 +22.7057314     619.9075     72.18645      1.641     3.84     5.313576     20.37118     71.32578         8     0.985     0.752 -11.25   0
       267    184.3129    303.3177 300.1430442 +22.5334075     426.9288     72.33347      1.300     3.41     5.933928     20.37118     55.81444         5     0.764     0.441  13.84   0
       268    408.5076    302.3251 300.2131353 +22.6002625     488.7715     72.37019      1.203     2.86     5.711497     20.37118     82.21809         9     0.988     0.613  -6.73   0
       269    720.2211    296.7231 300.3120708 +22.6919512     1972.663     72.20485      1.467     2.61     5.294445     20.37118     230.0283        25     1.170     1.094 -87.72   0
       270    530.2924    291.6522 300.2545253 +22.6336532     789.4958        72.26      1.057     0.35     5.618298     20.37118     456.7445         9     1.189     0.482  25.30   0
       271    935.4500    289.7655 300.3814621 +22.7543348     591.0013     72.22324      1.369     2.80     5.479825     20.37118     88.06491        11     0.933     0.772  11.11   0
       272    381.9255    281.1404 300.2117312 +22.5862158     2112.255        72.26      1.574     3.34     5.801017     20.37118     229.3473        24     1.363     0.982  56.71   0
       273    594.0861    280.2161 300.2781105 +22.6494592     384.8854     72.16806      1.486     2.68     5.436368     20.37118       47.353         6     0.845     0.478  36.09   0
       274    821.0316    273.9506 300.3508949 +22.7155617     620.3093     72.24162      1.382     4.07     5.473751     20.37118     68.89526        11     1.012     0.759  66.20   0
       275    703.8101    271.9414 300.3149932 +22.6799143     403.4608     72.16806      1.424     4.90     5.428753     20.37118     53.66737        12     1.305     0.677  -0.95   0
       276    671.5369    271.2182 300.3051672 +22.6700495     372.1825     72.16806      1.449     3.73     5.464322     20.37118     38.42497         6     0.903     0.565  23.66   0
       277    457.7873    260.5101 300.2420435 +22.6029981     1205.355     72.14965      1.382     2.41     5.675782     20.37118     166.3453        20     1.103     0.998  42.43   0
       278    264.9958    260.4576 300.1820466 +22.5452598      300.979     72.16806      1.568     3.99     5.837606     20.37118     40.35713         5     0.790     0.604 -89.49   0
       279    543.0451    258.4080 300.2692812 +22.6279135     319.0583     72.22324      1.489     4.78     5.646691     20.37118      31.1005         5     1.234     0.526 -51.51   0
       280    969.2908    256.8969 300.4026852 +22.7549977     318.6882     72.38853      1.276     3.44     5.678615     20.37118     45.83382         7     0.903     0.672  83.69   0
       281    841.4559    253.6988 300.3638346 +22.7158454     257.5924     72.29675      1.595     3.50     5.603368     20.37118     34.15958         5     1.119     0.316  69.00   0
       282    702.6426    252.4765 300.3209426 +22.6739672     2122.423     72.18645      1.435     2.49     5.574409     20.37118     299.8196        22     1.176     0.974  76.14   0
       283    964.0807    246.9854 300.4042739 +22.7505877     3144.133     72.18645      1.536     3.11     5.733867     20.37118     300.0526        30     1.270     1.158  78.03   0
       284    410.7235    235.8145 300.2353976 +22.5818112     625.4276     72.22324      1.486     3.96     5.704382     20.37118     74.54561        13     1.151     0.820  54.25   0
       285     86.0737    230.3993 300.1361430 +22.4830367     1357.668     72.09441      1.785     3.28     6.342078     20.37118     151.7165        22     1.408     0.998 -42.69   0
       286    116.4801    230.1926 300.1456645 +22.4920853      576.919     72.13125      1.441     3.66     6.254484     20.37118     74.44023        12     1.108     0.830  17.45   0
       287    979.6300    227.4376 300.4154669 +22.7496120     474.1747     72.24162      1.636     4.41     5.887295     20.37118     52.00901         8     1.092     0.685 -88.02   0
       288    823.2974    224.0458 300.3677877 +22.7018835     430.7921     72.22324      1.887     5.78     5.791326     20.37118      47.3455        11     1.169     0.890  28.30   0
       289    169.9941    222.8217 300.1646973 +22.5059962     549.4009     72.18645      1.540     3.02      6.01554     20.37118     59.83681         6     0.859     0.488 -37.79   0
       290    965.0382    220.4024 300.4131941 +22.7432243     326.5481     72.22324      1.328     3.37     5.894403     20.37118     41.01035         5     0.746     0.442  20.71   0
       291     25.5634    219.5625 300.1208458 +22.4617976     388.0004     72.27838      1.891     6.02     6.391005     20.37118      30.5436         9     1.335     0.762 -77.90   0
       292    845.9675    216.1849 300.3774085 +22.7064025      346.435     72.18645      1.282     3.56     5.791544     20.37118     48.96742         8     0.824     0.769   6.41   0
       293    774.5305    214.0146 300.3558311 +22.6844108     587.0305     72.22324      1.335     3.48     5.764258     20.37118     68.03062        10     1.072     0.676 -38.53   0
       294    364.6016    213.2614 300.2283522 +22.5615218     333.1682     72.16806      1.281     3.52     5.701015     20.37118     40.24561         7     0.836     0.632 -14.34   0
       295    910.4683    207.2216 300.4004389 +22.7231134     229.2228     72.20485      1.593     4.46     5.823157     20.37118     27.50797         5     0.817     0.694 -46.22   0
       296    872.4678    202.9292 300.3899743 +22.7105142     2065.472     72.24162      1.552     3.17     5.797988     20.37118     196.1477        24     1.309     1.067  76.40   0
       297    291.0167    200.1411 300.2097035 +22.5357204     2132.496     72.16806      1.516     2.88     5.701015     20.37118     227.1229        26     1.197     1.105  16.87   0
       298    368.8471    195.4644 300.2354446 +22.5576778      1086.08     72.24162      1.504     3.48     5.701015     20.37118     103.6455        16     1.125     0.958 -27.92   0
       299    770.9371    194.9489 300.3608930 +22.6778514     544.9741        72.26      1.448     2.98     5.760096     20.37118     53.72689         9     0.786     0.762   8.06   0
       300    185.5970    187.5012 300.1810030 +22.5005218     819.9808     72.09441      1.680     3.68     6.030588     20.37118     80.02942        15     1.090     1.000  82.94   0
       301    788.6075    184.4017 300.3698237 +22.6801026     569.2219      72.0207      1.257     2.55     5.778827     20.37118     58.67929         8     0.756     0.735 -70.33   0
       302    723.5680    184.2762 300.3495833 +22.6606118     1813.676     72.20485      1.613     3.83      5.72365     20.37118     222.8167        24     1.234     1.113  44.90   0
       303    207.4684    180.6562 300.1900258 +22.5051047     503.0881     72.22324      1.290     2.83     6.005705     20.37118     76.21377         9     0.955     0.579 -11.21   0
       304    995.2153    176.8605 300.4367329 +22.7397157     936.4393     72.16806      1.676     3.98     6.283567     20.37118     82.50761        18     1.207     1.090 -66.88   0
       305    496.9288    176.8258 300.2813712 +22.5906570     346.0547     72.20485      1.592     4.04     5.723019     20.37118     45.17554         8     1.077     0.497  53.43   0
       306    727.6541    176.0782 300.3535154 +22.6594760     818.4677     72.24162      1.418     2.96     5.721506     20.37118     94.34046        10     1.020     0.645  17.56   0
       307    648.1146    175.0393 300.3290569 +22.6353823     1239.759     72.18645      1.406     2.92     5.692996     20.37118     148.0233        18     1.112     0.967  52.76   0
       308    469.7262    171.4032 300.2746569 +22.5809568     440.9275     72.11283      1.652     3.63     5.723426     20.37118     37.87317         6     0.712     0.660  55.91   0
       309    843.6904    166.6691 300.3927541 +22.6914749     1535.872     72.35183      1.579     2.95     5.792735     20.37118      176.143        20     1.161     1.020 -78.94   0
       310    574.3393    166.7346 300.3087587 +22.6109204     1058.056     72.24162      1.653     3.14     5.709293     20.37118     113.5544        15     1.091     0.900  62.46   0
       311    855.7798    165.8132 300.3968030 +22.6948441     718.6311     72.16806      1.505     3.41     5.793163     20.37118     88.94802        14     1.091     0.893   1.39   0
       312   1016.5831    156.7370 300.4499279 +22.7403116     1538.742     72.18645      1.693     3.38     6.546803     20.37118     139.3515        23     1.265     1.107  83.10  16
       313    972.4095    156.0641 300.4363573 +22.7269119     1081.463     72.18645      1.601     3.67     6.248456     20.37118     102.2996        17     1.231     0.937  55.71   0
       314    206.4067    148.8651 300.2000020 +22.4956521     744.1806     72.16806      1.607     4.35     6.177738     20.37118     78.84301        13     1.134     0.870 -87.74   0
       315     68.1100    143.4197 300.1587581 +22.4526723     2185.214     72.14965      1.834     3.86       6.6091     20.37118     232.1728        31     1.400     1.337  32.99   0
       316    891.3961    141.0701 300.4159368 +22.6983743     734.8154     72.14965      1.479     3.79     5.914924     20.37118     79.85847        12     1.004     0.838 -28.31   0
       317     18.0267    140.7004 300.1440705 +22.4368903     319.3482     72.14965      1.565     5.37     6.673368     20.37118     47.67823         7     1.081     0.752 -36.67   0
       318    225.6911    136.8119 300.2099085 +22.4979628     5643.051     72.14965      1.657     3.19     6.276637     20.37118     596.2524        43     1.428     1.267  66.43   0
       319      9.9934    131.2290 300.1446436 +22.4317636      1199.03     72.20485      1.716     3.57     6.690246     20.37118     115.7587        23     1.267     1.171  68.34   0
       320    209.2197    127.9588 300.2076539 +22.4904870     604.1243     72.24162      1.537     3.62     6.372417     20.37118     58.88601        11     1.130     0.671 -42.02   0
       321   1023.4795    124.6680 300.4624775 +22.7331417     8454.108     57.36432      1.308     4.09     6.528638     20.37118     1453.217        29     1.553     0.679  85.66  24
       322    869.9020    118.7332 300.4164717 +22.6855192     3464.602     72.29675      1.567     3.17     5.910014     20.37118     366.6394        33     1.294     1.192 -74.81   0
       323    973.5698    117.5939 300.4491910 +22.7161858     2876.688     72.20485      1.667     3.01     6.305357     20.37118     297.6371        30     1.336     1.158  81.07   0
       324    172.3601    114.6982 300.2004864 +22.4756401     329.4385     72.20485      1.611     4.19     6.492635     20.37118     34.19503         6     0.863     0.743  73.26   0
       325    419.1273    113.6652 300.2776171 +22.5492139     833.8441     72.24162      1.674     4.13     5.813721     20.37118     85.12886        13     1.053     0.968  78.63   0
       326    534.0031    111.9264 300.3139592 +22.5830900     280.6403     72.11283      1.246     3.62     5.724762     20.37118     40.41222         6     0.887     0.652  50.74   0
       327    343.4379    105.9861 300.2565422 +22.5243525     735.3843     72.22324      1.709     4.29      5.96858     20.37118     65.44772        13     1.164     0.852  66.08   2
       328    347.4641    103.9635 300.2584510 +22.5249762     517.9108     72.20485      1.612     4.86     5.938918     20.37118     39.09705         9     0.963     0.695 -20.60   3
       329    877.7144    104.5193 300.4235166 +22.6837646      249.188     72.35183      1.453     4.29     5.974341     20.37118       32.882         6     1.084     0.483   7.56   0
       330    398.5515    101.8877 300.2750280 +22.5396699     502.8465     72.20485      1.342     3.57     5.857337     20.37118     60.57717         9     1.001     0.712  37.12   0
       331    109.6423    102.5113 300.1849312 +22.4533581     729.1442     72.20485      1.753     3.43     6.623319     20.37118     81.20262        12     1.026     0.867 -49.70   0
       332    470.7361    101.0696 300.2977712 +22.5610369     1737.482     72.24162      1.441     2.87     5.741878     20.37118      192.671        23     1.138     1.092 -24.98   0
       333    532.6953    100.4252 300.3172796 +22.5793912     396.1408     72.13125      1.272     3.10     5.721886     20.37118     48.56636         5     0.732     0.439 -22.91   0
       334    294.4302     97.2642 300.2441159 +22.5071758     275.6013     72.22324      1.450     4.33     6.554178     20.37118      30.9076         5     0.887     0.603 -40.88   0
       335    214.2497     96.6444 300.2193684 +22.4829942     408.0574     72.24162      1.423     2.51     6.665554     20.37118     51.91178         5     0.719     0.445 -18.19   0
       336    759.1121     90.8433 300.3909555 +22.6443637     319.1812     72.20485      1.297     4.41     5.829106     20.37118     37.86803         6     0.961     0.576  26.65   0
       337    606.6174     87.4019 300.3445333 +22.5977615     220.2651     72.11283      1.354     3.49     5.694699     20.37118     29.20265         5     1.109     0.318  20.58   0
       338    904.5957     85.2169 300.4381604 +22.6862462      405.839     72.13125      1.572     3.63     6.177419     20.37118     45.49505         6     0.863     0.677   1.05   0
       339    751.4030     81.8231 300.3914751 +22.6394628     355.6081     72.14965      1.312     3.49     5.924923     20.37118     41.50687         5     0.748     0.469 -75.74   0
       340    244.6285     80.6807 300.2339935 +22.4875011     5901.888     72.22324      1.658     3.40     6.695459     20.37118     652.1448        40     1.452     1.201  64.82   0
       341     95.9062     80.5466 300.1877784 +22.4429341     640.3926        72.26      1.416     3.13     6.654562     20.37118     85.09777        11     1.047     0.790 -36.12   0
       342    873.5228     78.1457 300.4307571 +22.6749210     330.4493     72.24162      1.379     5.12     6.137929     20.37118     53.90233         7     1.224     0.604  56.62   0
       343    216.4294     74.4803 300.2272296 +22.4772771     287.6656     72.20485      1.397     5.31     6.717885     20.37118     39.17128         8     1.275     0.624 -60.20   0
       344    259.8748     71.8769 300.2415905 +22.4895347     414.9386     72.29675      1.533     4.69     6.711364     20.37118     46.47005         6     0.933     0.670  73.29   0
       345    490.8012     66.1613 300.3153343 +22.5570028     6373.106     72.22324      1.555     2.91     5.719109     20.37118     755.3582        41     1.372     1.176  82.19   0
       346    376.2008     65.9181 300.2797270 +22.5226396     620.0274     72.09441      1.418     3.22     5.886187     20.37118     89.43963        10     0.925     0.774 -59.48   0
       347    548.0178     61.1469 300.3347831 +22.5726792     432.8278     72.18645      1.553     3.61     5.705318     20.37118     42.17346         8     0.855     0.712   7.31   0
       348    743.4916     56.0868 300.3973490 +22.6296916     874.0308     72.37019      1.655     3.60      6.21416     20.37118     82.87792        13     1.028     0.906 -44.92   0
       349    684.8378     57.5990 300.3785721 +22.6125853     342.1958     72.20485      1.241     2.30     6.126994     20.37118     44.30302         5     0.689     0.468  16.68   0
       350    836.2104     55.0855 300.4265905 +22.6571283     416.4672     72.14965      1.325     5.12     6.281628     20.37118     55.62072        13     1.325     0.819 -17.33   0
       351    903.6401     52.9854 300.4483083 +22.6766833      186.396     72.22324      1.070     2.41     6.381716     20.37118     41.27747         5     0.837     0.477  85.42   0
       352    542.8503     49.3266 300.3370036 +22.5677336     443.8476     72.22324      1.516     4.75     5.701416     20.37118     56.92751        10     1.251     0.659  26.09   0
       353    184.1319     50.1809 300.2250567 +22.4606245     358.4154     72.20485      1.368     3.96     6.721752     20.37118     55.09177         9     1.221     0.514  -8.50   0
       354    619.2194     46.3463 300.3617658 +22.5897215     6300.285     72.18645      1.530     2.77     5.772357     20.37118     752.6515        38     1.360     1.152  74.39   0
       355    394.1231     45.3063 300.2919861 +22.5220769     1491.709     72.33347      1.493     3.20     5.873977     20.37118     163.8833        20     1.120     1.009 -86.97   0
       356    660.3142     43.6460 300.3754491 +22.6012363     854.0016     72.18645      1.393     3.62     6.104729     20.37118      112.719        17     1.246     0.910  73.95   0
       357    676.2516     40.2908 300.3815043 +22.6050377     668.7662     72.24162      1.663     2.20     6.244501     20.37118     75.69049         8     0.817     0.597 -82.06   0
       358    946.5375     37.8766 300.4665911 +22.6851574     479.5552        72.26      1.319     2.27     6.357154     20.37118     80.18719         9     0.880     0.628 -16.90   0
       359    142.9200     38.1282 300.2161439 +22.4448224     658.7588     72.33347      1.725     4.48     6.695575     20.37118     56.09545        10     1.066     0.691   7.25   0
       360    714.9700     35.3912 300.3951626 +22.6152073     452.8984     72.18645      1.376     2.50     6.389421     20.37118     66.51817         7     0.718     0.638 -11.82   0
       361    663.4399     31.2090 300.3804535 +22.5985930      2889.87     72.20485      1.568     2.74     6.204864     20.37118     323.7715        31     1.249     1.216  69.69   0
       362    678.6575     30.3295 300.3854821 +22.6028912     866.5905     72.22324      1.948     5.79      6.32528     20.37118     62.51757        20     1.656     0.878  45.79   0
       363    304.2068     32.3687 300.2681887 +22.4914477     295.0956     72.20485      1.016     3.34     6.612746     20.37118     45.14751         5     0.729     0.460  15.01   0
       364    196.6551   1001.7986 299.9199798 +22.7375747     1708.446     72.13125      3.371    20.86      83.9851     20.37118     47.38127        81     3.953     3.058 -18.93  19
       365    828.4423     17.9674 300.4361953 +22.6441228     352.8038        72.26      1.820     3.85     6.638052     20.37118     31.01162         5     0.761     0.612  -5.11   0
       366    154.0106   1017.2137 299.9017029 +22.7292022     532.4811     72.11283      2.808     3.90     97.91753     20.37118     34.13968         5     0.838     0.521 -55.73   0
       367    316.9823   1014.6400 299.9532357 +22.7773487     735.7938     72.22324      4.601     4.66     5.310342     20.37118     35.03228         5     1.230     0.502  72.80  17
       368     66.7187     15.5066 300.1997782 +22.4155065     491.8303     72.35183      1.603     3.13     6.702174     20.37118     46.45411         9     0.970     0.635 -83.26   0
       369    292.5572   1012.0728 299.9464707 +22.7692869     1436.565     72.18645      2.703     6.40     5.862156     20.37118     67.72927        28     1.503     1.422 -50.64   0
       370    161.0178    967.0765 299.9201920 +22.7169270     1186.665     72.20485      5.308     7.92     54.31196     20.37118     44.73787        17     1.902     0.923  31.68   3
       371    144.5298   1006.5281 299.9022312 +22.7232940     752.2725     72.27838      2.618     9.06     89.19641     20.37118     46.60886        12     1.832     1.251  55.49   2
