#   1 NUMBER                 Running object number                                     
#   2 X_IMAGE                Object position along x                                    [pixel]
#   3 Y_IMAGE                Object position along y                                    [pixel]
#   4 ALPHA_J2000            Right ascension of barycenter (J2000)                      [deg]
#   5 DELTA_J2000            Declination of barycenter (J2000)                          [deg]
#   6 FLUX_APER              Flux vector within fixed circular aperture(s)              [count]
#   7 FLUXERR_APER           RMS error vector for aperture flux(es)                     [count]
#   8 FLUX_RADIUS            Fraction-of-light radii                                    [pixel]
#   9 FWHM_IMAGE             FWHM assuming a gaussian core                              [pixel]
#  10 BACKGROUND             Background at centroid position                            [count]
#  11 THRESHOLD              Detection threshold above background                       [count]
#  12 FLUX_MAX               Peak flux above background                                 [count]
#  13 ISOAREA_IMAGE          Isophotal area above Analysis threshold                    [pixel**2]
#  14 A_IMAGE                Profile RMS along major axis                               [pixel]
#  15 B_IMAGE                Profile RMS along minor axis                               [pixel]
#  16 THETA_IMAGE            Position angle (CCW/x)                                     [deg]
#  17 FLAGS                  Extraction flags                                          
         1    636.3397      9.0274 300.4125588 +22.5515147     2459.075     72.47482      1.296     2.27     4.777771     20.44214     343.7718        19     1.046     0.886 -87.55   0
         2    732.6492      8.8041 300.4426287 +22.5802788     1073.522     72.43791      1.354     2.91      4.78218     20.44214     121.8732        14     1.024     0.802  50.91   0
         3    901.1691      1.9873 300.4973573 +22.6287470      182.617     60.02058      1.296     5.37     5.039266     20.44214     47.37135         7     1.328     0.614 -38.02  24
         4    535.1407   1009.6022 300.0560680 +22.8085642       497.46     72.43791      1.545     4.38     2.726505     20.44214     49.06237         6     0.833     0.657 -18.94   0
         5    934.1957   1023.5349 300.1758324 +22.9322514     889.5939     57.16787      1.559     4.80     3.612257     20.44214     114.8767        13     1.446     0.612   1.03  24
         6    584.9969   1022.1829 300.0674907 +22.8271319     397.8446     64.11407      1.839     4.61     2.702657     20.44214     28.17054         6     1.078     0.559  77.62  24
         7    126.0069   1023.6426 299.9242860 +22.6897781     604.7737     56.46178      5.387     5.14     13.54693     20.44214     49.16214         9     1.521     0.492   3.32  27
         8    125.8125   1020.4526 299.9252639 +22.6888055     905.8108     70.68135      9.220     8.87      13.1415     20.44214     32.86759        13     2.742     0.801  -4.44  26
         9     97.8488   1012.7645 299.9190796 +22.6782046     2028.095     72.49327     12.277    18.70     12.52683     20.44214      60.2953        78     4.077     2.382  -7.84  19
        10     88.8031   1022.7862 299.9130084 +22.6783600     1711.095     61.10252      8.233    15.38     12.68896     20.44214     57.82472        62     4.087     1.609  -6.38  27
        11     74.3624   1020.1190 299.9093913 +22.6732587     3348.378     71.49024      3.986    15.47     10.75658     20.44214     73.33163        75     3.139     2.118  71.36  19
        12     82.0986   1016.7219 299.9128996 +22.6746087     3777.005     72.58544      9.976    31.16      11.3665     20.44214     72.37399       228     8.329     3.236 -18.15  27
        13    779.9019   1002.1620 300.1347033 +22.8798508     11480.74     72.45637      1.917     4.32      3.00447     20.44214     682.9036        56     1.533     1.471 -33.30   0
        14    826.7615   1001.5120 300.1495153 +22.8937165     462.6987     72.43791      2.079     4.30     2.995256     20.44214     35.47635         6     0.911     0.598  67.40   0
        15     91.5986    994.1293 299.9232028 +22.6709871     683.6264     72.38251      1.992     5.86      10.1171     20.44214       47.841        14     1.333     0.945 -47.70   0
        16    485.1385    990.6170 300.0466874 +22.7881150     578.5541     72.41945      2.017     5.59     2.760413     20.44214     36.25706         8     1.057     0.833 -56.64   0
        17    831.5047    989.4673 300.1549136 +22.8916814     457.1583     72.60387      2.235     4.64     3.067052     20.44214     30.44652         7     1.570     0.389 -31.81   0
        18    788.4029    984.1474 300.1432150 +22.8772296     1476.101     72.45637      2.014     5.14     3.084361     20.44214     81.45984        25     1.444     1.253  47.67   0
        19    294.9751    982.0503 299.9903317 +22.7285862     2621.801     72.47482      0.415     2.15     4.068066     20.44214     2274.966         6     0.392     0.362   1.64   0
        20    640.4304    981.2238 300.0980791 +22.8320104     447.3213     72.45637      1.858     5.33     2.842914     20.44214     43.72441         7     1.337     0.601  -8.28   0
        21    826.4607    977.6916 300.1571744 +22.8867887      897.194     72.54858      1.953     5.41     3.125758     20.44214     53.41578        20     1.288     1.181  32.68   0
        22    166.8893    977.6663 299.9519496 +22.6888766     396.8365     72.56702      2.083     3.71     8.831205     20.44214     37.52934         5     0.832     0.475  51.66   0
        23    875.0778    968.8610 300.1751996 +22.8988307     513.0676     72.51171      1.969     7.10     3.276175     20.44214      32.0621        11     1.264     1.118  19.55   0
        24    726.8224    967.9841 300.1292918 +22.8541231     756.1124     72.45637      1.945     4.61      3.12856     20.44214     60.70186        13     1.136     0.980  23.25   0
        25    438.8175    964.4310 300.0407979 +22.7667045     4259.097     72.43791      1.741     3.59     3.047721     20.44214     333.4116        35     1.344     1.319  86.40   0
        26    737.7099    964.9576 300.1336680 +22.8565196     693.7117     72.47482      2.070     5.88      3.16869     20.44214     52.26904        12     1.233     0.789   9.96   0
        27    482.1542    952.0112 300.0583220 +22.7761456     399.9365     72.45637      2.094     3.82     2.880183     20.44214      30.8215         5     0.833     0.504  25.91   0
        28    164.1142    950.0344 299.9600785 +22.6801226     748.5999     72.41945      1.975     6.26     6.268656     20.44214     57.84453        14     1.344     0.921 -85.93   0
        29     72.1625    948.8166 299.9319105 +22.6521643     410.5169     72.45637      1.945     5.77     5.085614     20.44214     37.99152         5     1.516     0.618 -16.14   0
        30    141.2393    946.9335 299.9539804 +22.6723659     1553.922     72.41945      1.889     4.35     5.859211     20.44214     139.9942        28     1.456     1.258  33.23   0
        31   1013.1382    936.0126 300.2289330 +22.9307837     2059.347     72.41945      1.978     4.83     3.660725     20.44214     114.3396        32     1.468     1.388 -19.84   0
        32     17.0075    937.1339 299.9185834 +22.6322532     388.4345     72.47482      2.146     3.64     3.527063     20.44214     40.83299         5     0.676     0.565 -89.58   0
        33    967.2142    934.3904 300.2151400 +22.9165534     2092.908     72.36403      1.942     4.65     3.649565     20.44214      133.027        34     1.496     1.362  43.93   0
        34    673.6460    934.7972 300.1235298 +22.8286504     498.8369     72.45637      1.968     3.35     3.228331     20.44214     38.88187         5     0.757     0.432  70.68   0
        35    444.2198    934.0511 300.0523638 +22.7596115     279.8545     72.43791      1.459     3.93     3.184151     20.44214      28.4079         6     0.951     0.465  52.57   0
        36    174.3129    929.1809 299.9700322 +22.6772064     314.3057     72.40098      1.390     3.85     4.280612     20.44214     33.03527         6     1.070     0.397 -76.02   0
        37    750.4875    928.3506 300.1495604 +22.8498443     724.5073     72.45637      1.759     5.87     3.332484     20.44214     54.40413        16     1.295     0.992  85.57   0
        38    618.8663    922.4825 300.1104800 +22.8086863     4852.887     72.56702      1.673     3.56     3.035198     20.44214     379.0103        41     1.349     1.282  27.04   0
        39    109.3031    923.5251 299.9516751 +22.6560672     416.9319     72.60387      1.460     3.17     3.718744     20.44214     55.33285         8     0.951     0.551  72.40   0
        40    421.1628    919.5233 300.0499180 +22.7485259     506.4144     72.41945      1.408     4.28     3.406451     20.44214     53.61858         8     1.123     0.464 -10.37   0
        41    169.0427    916.3595 299.9725658 +22.6719486     1282.438     72.54858      1.799     4.42     4.159712     20.44214     116.0743        21     1.301     1.157  57.12   0
        42    639.4366    915.0062 300.1193169 +22.8127106     830.7656     72.47482      1.655     4.05     3.175847     20.44214     70.34142        17     1.177     0.994  88.88   0
        43    437.7721    914.5004 300.0567189 +22.7520687     246.8649     72.40098      1.344     4.41     3.328903     20.44214      31.3961         5     1.197     0.462  57.26   0
        44    188.0941    913.4822 299.9794217 +22.6768430      371.852     72.62228      1.725     3.55     4.145731     20.44214     40.34251         6     0.938     0.821  80.67   0
        45    555.5591    906.0419 300.0961221 +22.7849792     304.7401     72.54858      1.792     5.96     3.123215     20.44214     38.42607         7     1.401     0.713 -36.67   0
        46    794.9496    902.1684 300.1719310 +22.8556601     4218.535     72.49327      1.743     3.60     3.573273     20.44214     280.3032        38     1.431     1.275  -9.26   0
        47   1011.9610    902.2302 300.2395581 +22.9207282     1136.911     72.45637      1.834     5.22     3.605737     20.44214     66.48595        22     1.315     1.173  38.23   0
        48    203.6333    896.2578 299.9898539 +22.6765692     362.5192     72.47482      1.553     3.52     4.070029     20.44214     48.93508         7     0.930     0.801  64.75   0
        49    511.9037    894.7870 300.0861973 +22.7686542     595.8557     72.34555      1.540     4.48     3.246128     20.44214     58.75783        11     1.001     0.807  37.35   0
        50    158.3892    892.8004 299.9769196 +22.6619962     1054.113     72.27158      1.928     5.63     3.890872     20.44214     78.04225        19     1.291     1.222  66.82   0
        51    307.9221    884.8263 300.0259894 +22.7045925     52788.22     72.45637      1.706     3.44     3.964986     20.44214     4806.765        95     1.505     1.469  -3.39   0
        52    573.5780    887.8959 300.1076340 +22.7851773     524.6569     72.36403      1.632     5.58     3.281656     20.44214     43.81586        12     0.985     0.940  20.46   0
        53    565.8938    883.7673 300.1065852 +22.7816877     1614.393     72.40098      1.641     3.45     3.314836     20.44214     138.2675        23     1.224     1.114  32.87   0
        54    978.7216    883.0592 300.2354297 +22.9052604     760.9037     72.49327      1.694     4.41     3.697235     20.44214     63.98349        17     1.277     0.966 -23.06   0
        55    236.3670    882.8232 300.0043973 +22.6825424     459.4249     72.45637      1.823     5.39     4.087656     20.44214     47.35835         8     1.187     0.690  51.47   0
        56    594.6266    879.9460 300.1167723 +22.7892093     803.9001     72.49327      1.560     3.66     3.355869     20.44214     82.96481        15     1.108     0.906  39.14   0
        57    606.0872    878.0345 300.1209619 +22.7920980     644.8752     72.43791      1.634     4.23     3.375974     20.44214     64.40173        12     1.099     0.891 -24.49   0
        58    711.4619    874.7525 300.1548421 +22.8227569     341.5515     72.49327      1.512     4.10     3.462651     20.44214      44.8613         5     0.833     0.654  52.69   0
        59    506.1621    871.8983 300.0918563 +22.7603646     331.3532     72.45637      1.552     3.97     3.461429     20.44214     35.31962         5     1.022     0.440 -43.50   0
        60    748.7780    864.8320 300.1696928 +22.8310980     770.9348     72.45637      1.670     3.87     3.578058     20.44214     64.02659        16     1.150     0.979  50.15   0
        61    357.6444    862.0732 300.0488513 +22.7129874     31431.28     72.43791      1.653     3.30     3.802791     20.44214      2895.96        78     1.435     1.407 -63.23   0
        62    371.8716    862.6702 300.0530816 +22.7174276     1970.853     72.53015      1.597     3.46     3.763832     20.44214     183.4189        21     1.137     1.074 -58.32   0
        63    880.7953    857.7535 300.2131324 +22.8686424     2800.165     72.43791      1.735     3.74     4.271914     20.44214     178.7366        29     1.268     1.237  -8.28   0
        64    369.0114    856.4341 300.0542205 +22.7147806     775.2108     72.43791      1.841     3.51     3.756449     20.44214     68.84566        12     1.008     0.861 -81.23   0
        65    638.5286    853.7907 300.1389484 +22.7948694     931.0015     72.43791      1.569     3.87     3.538943     20.44214     82.86606        16     1.095     0.947  47.51   0
        66    475.0698    853.8846 300.0880410 +22.7458688     476.0997     72.56702      1.494     4.00     3.642751     20.44214     61.62415         8     0.952     0.748  54.03   0
        67    240.0610    853.7876 300.0149897 +22.6753249     895.1531     72.41945      1.761     4.61     4.008769     20.44214     85.72098        17     1.235     1.066  18.90   0
        68    485.6939    848.8415 300.0929870 +22.7476089     918.6368     72.47482      1.728     3.17     3.678286     20.44214     89.07569        15     1.030     0.945 -74.33   0
        69     45.4401    849.2656 299.9559945 +22.6156065     429.1134     72.41945      1.614     3.70     3.567063     20.44214     43.13106         7     0.965     0.492 -85.39   0
        70    634.8446    846.3588 300.1402187 +22.7916315     366.6785     72.53015      2.273     4.46     3.582343     20.44214     27.52108         5     1.221     0.463 -56.68   0
        71    886.8312    845.6978 300.2189353 +22.8669895     431.2003     72.41945      1.523     5.50     4.275973     20.44214      56.0556         9     1.053     0.809 -71.78   0
        72    387.8982    844.4913 300.0639788 +22.7170216     356.6139     72.64069      1.827     4.58     3.712814     20.44214     31.35724         5     1.130     0.528  58.65   0
        73    344.3821    844.7754 300.0503533 +22.7040462     357.3662     72.45637      1.342     3.63     3.774354     20.44214     35.65853         6     0.720     0.651  31.05   0
        74    431.4901    843.6129 300.0778239 +22.7298480      422.963     72.40098      1.752     3.82      3.69536     20.44214     47.98698         7     0.952     0.759  54.04   0
        75     73.6004    843.2166 299.9667076 +22.6223269     435.5253     72.34555      1.775     4.59     3.619287     20.44214      50.6881         9     1.352     0.626  46.55   0
        76    640.1712    842.8763 300.1430100 +22.7922293      421.489     72.43791      1.742     4.28     3.583457     20.44214      34.0501         5     0.754     0.697  68.89   0
        77    238.4031    838.4578 300.0194602 +22.6704311     462.8769     72.41945      1.725     3.80     3.956765     20.44214     51.17401         7     1.049     0.798  89.36   0
        78    561.3681    828.3966 300.1231870 +22.7644404     468.9541     72.43791      1.489     5.77     3.892843     20.44214     51.29048        11     1.277     0.735 -66.29   0
        79    530.9460    826.9608 300.1141854 +22.7549039     599.7538     72.45637      1.559     5.78     3.920375     20.44214     48.64712        12     1.111     0.847 -30.45   0
        80    440.0862    825.8023 300.0862906 +22.7273168     204.3617     72.38251      1.501     4.56     3.785807     20.44214     40.09831         7     1.084     0.545  65.95   0
        81    947.1074    823.1875 300.2450479 +22.8785894     4495.528     72.40098      1.677     3.40     4.106489     20.44214     326.7837        38     1.385     1.268 -40.83   0
        82    552.6945    824.2073 300.1218497 +22.7606367     1112.171     72.34555      1.421     3.33     3.958148     20.44214      116.241        16     1.116     0.881 -17.76   0
        83    473.0119    823.7183 300.0972121 +22.7365959     412.9122     72.43791      1.418     3.20     3.853039     20.44214     47.98478         7     0.764     0.617  21.03   0
        84    935.6213    814.5184 300.2442863 +22.8726572      1706.56     72.41945      1.723     4.02     4.220325     20.44214     133.7992        25     1.293     1.208 -54.19   0
        85    164.9857    809.6794 300.0060031 +22.6401435     332.4894     72.45637      1.474     4.04     3.805097     20.44214       34.258         5     1.074     0.435  68.90   0
        86    298.6289    808.5722 300.0479009 +22.6799328     764.1523     72.41945      1.489     3.34     3.813982     20.44214     81.11507        14     1.060     0.842  39.31   0
        87    762.0146    805.9036 300.1929830 +22.8181477     2405.051     72.36403      1.545     4.24     3.800723     20.44214     212.9535        28     1.403     1.104  -5.10   0
        88    966.8770    804.5958 300.2572587 +22.8791733     1529.065     72.36403      1.675     3.78     4.070294     20.44214     121.3125        26     1.302     1.211 -16.61   0
        89    844.2397    791.9208 300.2231510 +22.8387796     629.6602     72.43791      1.650     3.95     4.269363     20.44214     55.17913        12     1.014     0.852  51.29   0
        90    146.9380    792.7703 300.0058939 +22.6298778     677.6434     72.47482      1.791     5.09     3.833732     20.44214     72.66893        13     1.278     0.856   8.94   0
        91    880.4350    782.7966 300.2373992 +22.8470072     147050.4     72.45637      1.625     3.36      4.38958     20.44214     12533.39       147     1.494     1.463 -62.94   0
        92    642.5925    786.7781 300.1620081 +22.7768524     316.1558     72.43791      1.321     2.86     3.854502     20.44214     56.77765         9     0.849     0.753 -48.81   0
        93    732.6859    783.1913 300.1912327 +22.8028340     789.5527     72.38251      1.585     3.16     3.776785     20.44214     72.58496        12     0.941     0.834  -8.61   0
        94    912.9022    775.7555 300.2498096 +22.8547146     389.1467     72.45637      1.525     5.32     4.268933     20.44214     39.91191        10     1.076     0.742  42.08   0
        95    566.5773    771.7068 300.1432436 +22.7497321     1527.637     72.38251      1.402     2.82      4.38842     20.44214     184.2472        17     0.999     0.967 -78.23   0
        96    747.8976    768.9037 300.2006171 +22.8032917     9336.692     72.64069      1.495     2.99      3.83789     20.44214     923.6133        42     1.233     1.218  86.87   0
        97    230.0858    770.1304 300.0390935 +22.6483387     208.0314     72.56702      1.275     4.04     3.831732     20.44214     45.14983         5     1.268     0.368  26.21   0
        98    249.3608    764.1791 300.0470197 +22.6524156     4924.827     72.49327      1.550     2.83     3.823677     20.44214     539.0776        35     1.262     1.215  75.61   0
        99    331.3572    762.2579 300.0731364 +22.6764667     1116.685     72.43791      1.473     2.99     3.735546     20.44214     137.1802        16     1.155     0.822 -14.45   0
       100    207.0241    759.8929 300.0352546 +22.6384819     460.5891     72.38251      1.527     4.02     3.833436     20.44214     58.77798        10     0.928     0.895  -4.79   0
       101    539.5917    757.6669 300.1394093 +22.7376097     765.1677     72.45637      1.590     3.48     4.499682     20.44214     84.20377        14     1.058     0.916  58.59   0
       102    531.3354    749.7802 300.1394039 +22.7328701      3147.72     72.43791      1.458     2.63     4.502028     20.44214     391.8354        29     1.181     1.101  52.67   0
       103    521.5643    743.5559 300.1383866 +22.7281533     1301.127     72.51171      1.382     2.66     4.489248     20.44214     168.4562        16     0.969     0.914  19.39   0
       104    450.0417    742.9882 300.1163160 +22.7065399     280.9839     72.45637      1.424     3.78     4.154531     20.44214     39.40168         5     1.005     0.409  26.77   0
       105    915.2184    741.3840 300.2617078 +22.8455353     501.7911     72.43791      1.641     4.77     4.112381     20.44214     46.02157         6     1.092     0.592 -19.23   0
       106    184.9963    739.6725 300.0349827 +22.6260722     658.0672     72.40098      1.566     3.19     3.833436     20.44214     67.08089        11     0.964     0.757  70.70   0
       107     85.3834    738.5750 300.0043915 +22.5958619     458.7041     72.47482      1.871     4.86     3.834791     20.44214     33.82243         7     1.377     0.485 -88.77   0
       108    199.1032    738.1436 300.0398637 +22.6298669     561.7907     72.54858      1.428     3.86     3.833436     20.44214     60.30339        10     1.074     0.649  23.49   0
       109    256.0862    735.3114 300.0584953 +22.6461529     458.5938     72.62228      1.393     3.43     3.823525     20.44214     54.62544        10     1.011     0.664 -61.13   0
       110    225.0250    735.3167 300.0488388 +22.6368344     498.6626     72.41945      1.496     4.37     3.855182     20.44214     44.52758        11     1.072     0.823  -3.51   0
       111    545.3599    733.8787 300.1489386 +22.7325114      466.772     72.43791      1.490     5.09     4.667545     20.44214     49.48544        13     1.164     0.966 -13.21   0
       112    446.2156    733.2791 300.1182821 +22.7026060     1851.679     72.47482      1.473     2.75     4.173101     20.44214      212.237        24     1.124     1.088  42.47   0
       113    968.3812    734.2495 300.2806027 +22.8594148     453.1664     72.45637      1.701     5.45     3.980713     20.44214      40.3067        10     1.222     0.686  15.53   0
       114   1021.9962    730.7316 300.2984667 +22.8744667     841.2838     65.04586      1.618     3.76     3.912651     20.44214     68.96326        16     1.111     0.985  10.26  24
       115    100.2786    728.3465 300.0123433 +22.5973994     19613.18     72.49327      1.712     3.19     3.884836     20.44214     1960.443        64     1.455     1.392  19.77   0
       116     21.7159    730.3458 299.9872932 +22.5743917     681.7167     72.51171      1.506     2.65     3.828473     20.44214     71.46614         9     0.828     0.711 -88.04   0
       117    531.3634    728.4543 300.1463458 +22.7267573     986.0798     72.47482      1.451     3.78     4.627738     20.44214      116.929        16     1.199     0.816 -55.20   0
       118    566.4126    727.5563 300.1575468 +22.7370095     412.4913     72.43791      1.444     4.27     4.710141     20.44214     36.70977         6     1.103     0.470   9.23   0
       119    285.0680    720.7057 300.0722528 +22.6506583     256.1942     72.60386      1.365     5.20     3.812657     20.44214     36.03867         6     1.042     0.733   0.30   0
       120    949.4175    714.5336 300.2810996 +22.8480686     1178.687     72.43791      1.687     4.00     4.076314     20.44214     96.18409        19     1.264     1.051  58.10   0
       121     46.3010    712.5089 300.0007259 +22.5766569     1555.382     72.62228      2.007     5.62     3.860389     20.44214     126.6089        28     1.664     1.153  81.21   0
       122    112.9149    712.8165 300.0213168 +22.5967382     390.3487     72.41945      1.468     5.55     4.001029     20.44214     43.98543         8     1.054     0.824  51.45   0
       123    815.8713    713.1498 300.2399225 +22.8076537     389.3194     72.45637      1.407     4.49     3.883166     20.44214     42.73063         8     0.896     0.639  47.60   0
       124    889.3702    707.5776 300.2646409 +22.8280784     692.4794     72.43791      1.498     3.68     4.289054     20.44214     74.08966        14     1.036     0.971 -75.50   0
       125    494.6288    709.1082 300.1412031 +22.7101884     447.3949     72.41945      1.351     2.94     4.569254     20.44214      64.7769         8     0.855     0.636 -33.92   0
       126    286.9848    708.7451 300.0767366 +22.6478020     380.6354     72.43791      1.539     4.27      3.81842     20.44214     30.99342         7     0.756     0.687   4.70   0
       127    885.1325    706.9470 300.2635250 +22.8266274     505.6198     72.47482      1.561     4.53     4.302967     20.44214      36.7092         8     0.832     0.701  49.43   1
       128    451.3989    701.4631 300.1302373 +22.6950297     731.8077     72.43791      1.439     2.85     4.316448     20.44214     92.67549        14     0.955     0.914  37.26   0
       129    599.3836    700.2026 300.1767027 +22.7390427     602.7709     72.36403      1.406     3.74     4.957928     20.44214     60.90608        10     0.859     0.836 -62.88   0
       130    646.5359    698.2669 300.1920129 +22.7526232     456.7463     72.51171      1.337     3.79     4.563279     20.44214     57.53341         9     1.022     0.730 -70.58   0
       131    617.1381    698.2492 300.1828652 +22.7438048     578.5023     72.51171      1.300     2.41     4.904209     20.44214      70.7348         7     0.700     0.653  18.54   0
       132    495.5882    697.2760 300.1453477 +22.7070799     820.5949     72.47482      1.355     2.61      4.65429     20.44214     97.09325        14     0.930     0.871  -7.94   0
       133    929.3915    692.8139 300.2819166 +22.8358283     3435.223     72.36403      1.606     3.19     4.236608     20.44214     316.3277        31     1.282     1.138 -28.35   0
       134    461.1129    692.8354 300.1360640 +22.6954666     1789.475     72.43791      1.404     2.67     4.436704     20.44214     227.9658        22     1.130     1.041 -48.55   0
       135     23.0608    686.5643 300.0019413 +22.5622419     5099.667     72.47482      1.760     3.10     3.793768     20.44214     548.4742        41     1.447     1.337 -72.98   0
       136    436.3244    687.8578 300.1299698 +22.6866039     202.6432     72.51171      1.046     3.44     4.221829     20.44214     53.18553         5     0.869     0.451 -39.92   0
       137    490.5523    683.6335 300.1482151 +22.7016538     286.1413     72.49327      1.046     3.51     4.721145     20.44214     53.84271         7     0.874     0.759  32.79   0
       138    324.4665    679.5797 300.0978702 +22.6506779     9038.503     72.43791      1.458     2.64     3.929132     20.44214     1180.595        41     1.214     1.174  42.87   0
       139    446.9825    676.5568 300.1369587 +22.6865568     9090.486     72.47482      1.400     2.57     4.363605     20.44214      1118.99        43     1.183     1.162  28.56   0
       140    211.6370    673.9495 300.0646248 +22.6152138      153.382     72.45637      1.328     4.67     4.532987     20.44214     30.76012         5     1.071     0.577  14.84   0
       141    858.6664    670.4432 300.2671417 +22.8082103      1843.87     72.43791      1.514     2.78     4.287076     20.44214     217.8598        21     1.112     1.026 -76.41   0
       142    943.3381    667.8395 300.2943829 +22.8328310     12437.57     72.45637      1.551     3.12        4.266     20.44214     1174.017        51     1.298     1.281 -73.37   0
       143    507.5280    666.1798 300.1591705 +22.7017340     11522.15     72.49327      1.344     2.46     4.853466     20.44214     1423.975        39     1.151     1.115  79.82   0
       144    677.0758    662.0272 300.2133024 +22.7513718      368.799     72.43791      1.213     2.81     4.461908     20.44214     65.76467         7     0.802     0.661 -61.77   0
       145    234.8515    661.7177 300.0758153 +22.6186695     1325.768     72.47482      1.528     3.01     4.435266     20.44214     157.5567        17     1.069     0.971  27.21   0
       146    392.3544    660.9861 300.1250258 +22.6657046     314.0233     72.47482      1.414     4.99     4.099435     20.44214     37.92399         5     1.204     0.586  10.78   0
       147    481.9208    659.6226 300.1533331 +22.6921732     503.5941     72.40098      1.483     3.48     4.761966     20.44214     64.48228         8     1.043     0.578  15.54   0
       148    439.2237    654.3802 300.1417524 +22.6778647     4367.562     72.45637      1.379     2.53     4.353375     20.44214     487.9781        29     1.128     1.041  39.64   0
       149    782.0236    654.3985 300.2484730 +22.7806347     704.2888     72.40098      1.487     3.29     4.068151     20.44214      82.5435        15     1.103     0.942  37.78   0
       150    417.4196    652.7571 300.1354968 +22.6708601     1357.729     72.47482      1.548     2.73     4.146399     20.44214     154.8674        15     0.979     0.907  35.73   0
       151    171.7012    652.4432 300.0592033 +22.5970621     876.6816     72.45637      1.819     4.12      4.38652     20.44214     71.68414        12     1.071     0.954 -81.18   0
       152    859.0494    649.7327 300.2739924 +22.8023753     1813.061     72.45637      1.632     3.14     4.323133     20.44214     180.5099        23     1.262     1.051 -20.24   0
       153    555.8402    641.8975 300.1820983 +22.7092482     198682.6     72.45637      1.362     2.44     4.960862     20.44214     27814.37       194     1.429     1.367 -33.06   0
       154    105.5159    649.9639 300.0394456 +22.5764914     290.8928     72.43791      1.323     2.42     4.087161     20.44214     59.36273         5     0.767     0.550  -3.51   0
       155    959.7596    648.6458 300.3057415 +22.8322352     266.4303     72.53015      1.490     4.21     4.168755     20.44214      33.0582         6     1.111     0.454  -8.55   0
       156    379.5342    647.8890 300.1252947 +22.6581009     340.9933     72.56702      1.286     4.72     4.159388     20.44214      47.3817         7     1.038     0.608  69.40   0
       157    739.4326    646.8517 300.2376568 +22.7657031     664.7036     72.47482      1.381     2.59     4.337291     20.44214     128.4112        13     1.090     0.854 -41.48   0
       158    944.2269    643.0723 300.3027098 +22.8259805     251.5255     72.45637      1.320     5.49      4.25483     20.44214     33.04301         7     1.042     0.815 -16.67   0
       159    241.9628    641.9120 300.0844620 +22.6151206      3437.67     72.43791      1.450     2.79     4.414843     20.44214      385.058        27     1.167     1.104  35.13   0
       160    807.7439    638.2367 300.2617397 +22.7836996     588.3187     72.45637      1.591     3.25     4.161811     20.44214     58.46901         9     0.931     0.710  39.99   0
       161    587.5797    628.7624 300.1962468 +22.7149921     267.1157     72.47482      1.292     3.50     5.012231     20.44214     26.71327         5     0.779     0.455  72.34   0
       162    446.3749    622.1700 300.1544445 +22.6707635     2763.321     72.45637      1.422     2.46     4.514004     20.44214     333.4352        26     1.101     1.040 -40.41   2
       163    290.8604    624.8820 300.1051967 +22.6249020     494.3609     72.54858      1.258     2.26     4.243886     20.44214     69.02367         8     0.755     0.668 -42.98   0
       164    858.0326    618.5591 300.2838065 +22.7931143     405.7691     72.51171      1.257     2.17     4.378612     20.44214     60.61098         6     0.750     0.496  -0.78   0
       165    763.7588    610.7748 300.2569592 +22.7626303     404.9295     72.51171      1.503     2.61      4.40529     20.44214     53.77925         6     0.741     0.538  43.19   0
       166    843.3602    608.3240 300.2825596 +22.7857776     1745.868     72.41945      1.426     2.56     4.417476     20.44214       178.71        19     1.032     0.971 -34.88   0
       167    714.6490    606.0414 300.2431988 +22.7465538     2565.283     72.47482      1.355     2.38     4.408176     20.44214     328.9031        24     1.089     0.988 -79.76   0
       168    353.1698    605.5448 300.1308548 +22.6380411     216.7301     72.47482      1.020     4.34     4.315506     20.44214     40.36347         6     0.944     0.568  69.55   0
       169     74.2501    606.3143 300.0439166 +22.5545895     312.7012     72.43791      1.540     4.42     4.009055     20.44214     37.44911         5     0.793     0.700 -19.88   0
       170    958.6987    603.4911 300.3200851 +22.8189411      603.407     72.64069      1.925     4.50     4.124097     20.44214     53.92952         8     0.850     0.783 -53.21   2
       171    957.5045    599.0182 300.3211661 +22.8172980     690.4691     72.36403      1.448     3.04     4.109582     20.44214     79.20412        10     0.916     0.823  -0.93   2
       172    923.5452    603.0295 300.3092746 +22.8082784     356.1374     72.45637      1.299     2.44     4.313687     20.44214     45.31425         6     0.764     0.497  87.15   0
       173    619.2889    602.8135 300.2145509 +22.7170458     450.3344     72.40098      1.218     3.50     4.866472     20.44214     64.30885         8     0.965     0.606  27.07   0
       174    501.8973    602.0716 300.1782512 +22.6816414     651.2658     72.58544      1.275     2.64     4.797778     20.44214     99.46368        11     0.900     0.744  50.21   0
       175    971.9435    599.8801 300.3253885 +22.8218706     1266.007     72.49327      1.502     3.26     4.029406     20.44214     142.6491        19     1.103     1.003 -38.01   0
       176    843.7537    598.4399 300.2858940 +22.7830557     2295.809     72.53015      1.616     3.04     4.418397     20.44214      251.864        29     1.536     1.013  75.83   0
       177    597.1042    595.4308 300.2100428 +22.7082759     953.3419     72.40098      2.186     7.26     4.862859     20.44214     76.66168        15     2.005     0.736  89.86   0
       178    382.9878    596.6729 300.1430111 +22.6444368     203.9064     72.47482      1.266     4.20     4.338481     20.44214      37.2286         7     0.768     0.655  10.89   0
       179    435.2941    595.2005 300.1597602 +22.6596990     364.5393     72.32706      1.304     3.60     4.492802     20.44214     57.80563         9     1.086     0.687  37.18   0
       180    881.9305    593.4655 300.2994094 +22.7930638     4382.386     72.51171      1.424     2.64      4.35758     20.44214      538.579        31     1.197     1.116 -26.43   0
       181    523.0356    592.9919 300.1877797 +22.6853718     232.0194     72.45637      1.231     3.47     4.830948     20.44214     45.86146         5     0.795     0.497  68.02   0
       182    619.3851    590.2957 300.2186482 +22.7134798     250.0757     72.38251      1.358     3.93      4.75828     20.44214     32.18564         6     0.971     0.454   2.75   0
       183    542.6464    589.2939 300.1950848 +22.6901891     449.3676     72.47482      1.541     4.07     4.853965     20.44214     49.85873         6     1.053     0.449 -38.03   0
       184    113.9050    583.8823 300.0635227 +22.5600533     1097.586     72.62228      1.571     3.11     4.051867     20.44214     110.4896        18     1.069     1.055  47.58   0
       185    973.5645    583.7316 300.3311412 +22.8177150      869.855     72.45637      1.609     3.64     3.935189     20.44214     90.08951        16     1.092     0.971 -44.30   0
       186    743.7784    581.5462 300.2602318 +22.7482468     264.0098     72.45637      1.226     3.42     4.399253     20.44214     30.03663         5     0.741     0.457  19.80   0
       187    380.5891    577.1924 300.1485941 +22.6381259     264.6578     72.32706      1.416     3.28     4.318464     20.44214     35.37017         5     0.750     0.431 -67.18   0
       188    106.9449    574.1222 300.0645312 +22.5551652     451.1355     72.49327      1.439     3.16     4.137775     20.44214     55.30292         8     0.928     0.688  20.51   0
       189    970.3459    573.1880 300.3335633 +22.8137206     307.1525     72.45637      1.326     3.76     3.902993     20.44214     39.23637         6     0.755     0.629 -26.95   0
       190    713.8829    568.4058 300.2551885 +22.7355135     511.1054     72.38251      1.364     3.62     4.404051     20.44214     65.66095         8     0.931     0.661 -33.20   0
       191    623.6230    564.8147 300.2282463 +22.7074321     708.3333     72.45637      3.356     7.49      4.53731     20.44214     39.14936        10     1.940     0.810  39.03   0
       192    602.9012    565.9670 300.2214203 +22.7015522     367.7085     72.43791      1.233     2.12     4.610997     20.44214      73.1764         7     0.700     0.626 -10.17   0
       193    655.2209    563.9416 300.2383690 +22.7166514     786.8986     72.43791      1.328     2.83     4.453609     20.44214     103.4955        11     0.886     0.781  79.41   0
       194    634.3184    562.1893 300.2324294 +22.7098836     293.9518     72.41945      1.298     1.94     4.492336     20.44214      52.5921         5     0.694     0.439  73.20   0
       195    969.5697    556.1934 300.3388427 +22.8086035     655.6234     72.45637      1.566     5.32     3.815724     20.44214     65.35715        12     1.319     0.772  60.79   0
       196    716.1392    556.0588 300.2599026 +22.7326428      1010.39     72.51171      1.447     3.09      4.40249     20.44214     129.1954        15     1.112     0.848  53.79   0
       197    873.2615    552.4101 300.3100463 +22.7786693     938.1712     72.38251      1.204     2.48     4.362178     20.44214     127.8853        15     0.982     0.872  73.03   0
       198    857.4891    548.9023 300.3062698 +22.7729365     604.8735     72.64069      1.296     2.41     4.416602     20.44214     85.85627        11     0.919     0.745  48.35   0
       199    837.7985    548.9440 300.3001193 +22.7670497     372.4261     72.38251      1.407     4.45      4.43483     20.44214     36.22464         6     0.813     0.694  84.41   0
       200    601.8247    546.7095 300.2273412 +22.6956989     3331.896     72.40098      1.334     2.33     4.452548     20.44214     508.6514        27     1.107     1.030  55.89   0
       201    900.9188    541.4419 300.3222308 +22.7838018     1377.577     72.41945      0.775     1.50     4.161561     20.44214     446.3638         6     0.605     0.478  21.51   0
       202    708.9796    539.5404 300.2630387 +22.7257522     155.0657     72.40098      1.516     4.70     4.392873     20.44214     33.69191         5     1.109     0.565  76.62   0
       203     77.9401    538.7455 300.0670127 +22.5363143     310.8804     72.51171      1.563     6.14     4.406868     20.44214      36.0821         9     1.053     1.008 -37.44   0
       204    962.5680    545.0687 300.3402736 +22.8033090     577.8298     72.43791      1.523     5.04     3.801268     20.44214     62.86955        11     1.168     1.014 -56.61   0
       205    441.7162    533.7433 300.1817236 +22.6439810     388.3173     72.54858      1.264     3.24      4.54809     20.44214     56.31127        10     0.932     0.739 -39.01   0
       206    373.7400    534.1390 300.1604498 +22.6237134      268.979     72.49327      1.295     4.58     4.279067     20.44214     43.21568         8     1.008     0.616  30.53   0
       207   1013.2037    525.9435 300.3622776 +22.8129756      1436.89     72.41945      1.623     3.29      3.52714     20.44214     144.7991        21     1.205     1.109  -1.24   0
       208    885.0699    525.6196 300.3224301 +22.7745073     497.8326     72.47482      1.448     3.45     4.175097     20.44214     64.89421         8     0.856     0.697  46.58   0
       209    971.5202    524.5209 300.3497402 +22.8000839     808.1398     72.58544      1.294     2.85     3.718564     20.44214     113.1016        14     1.034     0.821  36.62   0
       210    621.7985    522.3570 300.2414705 +22.6946907     329.9883     72.45637      1.289     3.85     4.330027     20.44214     33.42594         7     0.849     0.608  28.25   0
       211    712.3931    520.6688 300.2702321 +22.7213536     1132.499     72.41945      1.244     2.33     4.373198     20.44214     167.8513        14     0.913     0.845 -51.98   0
       212    508.0774    521.3383 300.2064020 +22.6603130     408.6282     72.51171      1.161     2.58     4.707807     20.44214     66.99866         7     0.698     0.671 -45.54   0
       213    216.5519    518.8698 300.1165371 +22.5721918     812.9979     72.43791      1.583     3.78     4.255182     20.44214     101.0832        13     1.131     0.926  43.84   0
       214    278.7003    514.7806 300.1371841 +22.5896572     3635.047     72.36403      1.389     2.44     4.236894     20.44214     528.9053        28     1.130     1.123  30.32   0
       215   1011.8698    513.0602 300.3660465 +22.8088725     4371.423     72.49327      1.446     2.71     3.548715     20.44214     450.1437        33     1.201     1.156 -75.90   0
       216    225.9626    509.5685 300.1224830 +22.5723450     7616.769     72.45637      1.422     2.63     4.224599     20.44214     939.9017        39     1.214     1.144  66.57   0
       217    731.0385    509.7014 300.2796024 +22.7237893     188.2499     72.45637      1.334     2.83     4.378368     20.44214     37.17469         5     0.789     0.477 -58.52   0
       218    991.7910    504.1651 300.3626737 +22.8003028     1826.118     72.43791      1.407     2.76     3.624418     20.44214     198.5831        20     1.020     1.003 -13.08   0
       219    366.7441    503.7321 300.1681501 +22.6128868     4773.588     72.49327      1.324     2.23     4.273828     20.44214     744.8597        32     1.142     1.046  46.89   0
       220    610.9288    500.3448 300.2452359 +22.6851105     18212.41     72.47482      1.289     2.23     4.272175     20.44214     2638.473        52     1.206     1.127  12.62   0
       221    458.3482    502.2030 300.1971427 +22.6399111     224.0352     72.45637      1.209     2.21     4.534357     20.44214     49.07802         5     0.724     0.428  68.91   0
       222    628.5134    500.3324 300.2507150 +22.6903767     901.5303     72.56702      1.913     5.08     4.282726     20.44214     91.34071        16     1.514     0.753 -40.83   0
       223    238.1004    498.5244 300.1298426 +22.5728156     278.4744     72.58544      1.363     4.02     4.184439     20.44214      44.4826         7     0.946     0.787 -37.39   0
       224    854.8345    496.5582 300.3224455 +22.7570988     225.7513     72.51171      1.019     2.99     4.156347     20.44214      41.1704         5     0.731     0.452  21.07   0
       225    807.8841    490.5406 300.3097680 +22.7413057     376.5587     72.56702      1.245     2.51     4.381222     20.44214     79.68882         6     0.772     0.669  85.36   0
       226    375.8065    487.4916 300.1762432 +22.6109414     787.8513     72.36403      0.728     0.98     4.312391     20.44214     324.8694         5     0.502     0.462 -75.74   0
       227    231.0277    487.3705 300.1312665 +22.5674933     385.3276     72.43791      1.426     2.60     4.125309     20.44214     50.88633         7     0.698     0.679   4.36   0
       228    944.5956    483.0932 300.3548008 +22.7801122      805.154     72.34555      1.370     3.25      3.70602     20.44214     97.85018        14     1.073     0.857 -21.59   0
       229    481.5610    482.4648 300.2107759 +22.6412016     341.8583     72.43791      1.299     3.62       4.4669     20.44214     44.32949         6     0.917     0.430  18.14   0
       230    165.7166    480.6145 300.1131626 +22.5459663      1997.48     72.41945      1.493     2.68     3.858706     20.44214     266.0156        21     1.129     1.008  27.72   0
       231    965.3285    470.1209 300.3654788 +22.7825917     1189.478     72.56702      1.432     2.81     3.677326     20.44214     160.2998        16     1.012     0.943  70.59   0
       232    551.5842    469.7869 300.2366857 +22.6585483     6456.215     72.40098      1.254     2.17     4.422847     20.44214     1001.545        29     1.061     0.986  60.08   0
       233    266.6869    469.1994 300.1482522 +22.5729714     560.6529     72.34555      1.232     2.46     4.258774     20.44214     86.73276         8     0.765     0.643  64.89   0
       234    811.7260    461.9214 300.3202598 +22.7342320     438.5271     72.56702      1.576     3.75     4.328255     20.44214     42.56681         7     0.850     0.654  35.49   0
       235    123.7117    462.1619 300.1061030 +22.5280720     581.4405     72.43791      1.590     4.25     4.003685     20.44214      64.0345        10     1.202     0.854  32.63   0
       236    755.9299    458.8012 300.3038879 +22.7166214     1162.356     72.38251      1.350     2.53     4.387983     20.44214     168.2102        15     0.986     0.866  73.57   0
       237    665.4050    460.1335 300.2752582 +22.6898831     553.4957     72.45637      1.347     2.73       4.3005     20.44214     66.09093         9     0.872     0.664 -22.56   0
       238    458.1386    456.0486 300.2120662 +22.6265948     6511.117     72.51171      1.334     3.28     4.464392     20.44214     804.8334        34     1.121     1.033  57.17   0
       239    850.1837    450.4438 300.3359723 +22.7424522     1438.718     72.47482      1.393     2.33     4.010267     20.44214     170.5945        21     1.099     1.057 -80.26   0
       240    947.6047    450.5430 300.3663101 +22.7716561     600.0779     72.41945      1.373     2.57     3.709637     20.44214     83.40448        11     0.903     0.761 -82.87   0
       241    442.8359    444.6753 300.2109981 +22.6187417     464.4174     72.41945      1.277     2.82     4.547116     20.44214     71.89399         7     0.859     0.563  77.53   0
       242    525.3677    442.7899 300.2372924 +22.6429371     399.0836     72.45637      1.082     2.27     4.390028     20.44214     64.75975         6     0.683     0.606  31.79   0
       243    803.8697    441.3000 300.3245081 +22.7259523     190.8454     72.54858      1.120     3.87     4.384138     20.44214     45.05374         5     0.871     0.494 -54.38   0
       244    822.9833    438.0620 300.3315158 +22.7307467     517.2667     72.43791      1.223     2.52     4.215017     20.44214     74.21172         9     0.761     0.731 -71.72   0
       245    345.7979    435.3619 300.1838379 +22.5869778     2575.235     72.47482      1.302     2.49     4.279424     20.44214     347.4412        23     1.086     0.966  73.94   0
       246     64.2316    432.7960 300.0971604 +22.5018040     1089.054     72.43791      1.561     3.24     4.448035     20.44214     128.9655        17     1.102     1.039 -17.43   0
       247    315.1201    424.7867 300.1777315 +22.5747441      29246.6     72.43791      1.351     2.37     4.474701     20.44214     4027.751        68     1.272     1.177  64.49   0
       248    849.6901    422.1396 300.3450092 +22.7341690     1315.516     72.54858      1.302     2.40     3.929015     20.44214     177.6728        16     0.959     0.872  48.39   0
       249     11.4649    412.7185 300.0872907 +22.4802145     4811.387     72.56702      1.640     2.91      4.71394     20.44214     596.3433        34     1.299     1.219  50.49   0
       250    765.1306    411.1222 300.3222362 +22.7056758     551.6996     72.56702      1.304     3.54     4.411149     20.44214     72.98816        11     1.008     0.796  60.41   0
       251    189.5006    411.1661 300.1431029 +22.5331676      427.518     72.43791      1.391     3.71     4.391662     20.44214     51.58403         9     0.918     0.862 -59.48   0
       252    413.6987    409.9944 300.2131936 +22.6000486      500.534     72.34555      1.269     2.41     4.785551     20.44214     81.53026         9     0.841     0.688 -12.89   0
       253    725.4387    404.4408 300.3120400 +22.6918662     1735.043     72.53015      1.173     2.12     4.407301     20.44214     270.1392        20     0.967     0.932  10.37   0
       254    533.6544    399.1767 300.2540317 +22.6328931     242.8203     72.47482      1.207     1.88      4.33568     20.44214     65.01085         6     0.673     0.563  26.77   0
       255    940.6213    396.9873 300.3815223 +22.7541679     555.2596     72.43791      1.392     2.66     3.730618     20.44214     81.71071        13     0.919     0.863   8.48   0
       256    387.3253    389.1343 300.2117618 +22.5861528     2171.478     72.51171      1.448     3.04      4.49265     20.44214     235.8141        22     1.191     0.955  68.33   0
       257    599.9670    388.2027 300.2782370 +22.6496106      258.914     72.41945      1.221     2.36     4.256437     20.44214     59.94742         7     0.714     0.655  31.75   0
       258    826.7573    381.7379 300.3509791 +22.7156877     710.8508     72.45637      1.383     2.32      4.20439     20.44214      92.4397        10     0.866     0.704 -86.40   0
       259    708.6475    379.6592 300.3148549 +22.6797148     379.6538     72.51171      1.290     3.20     4.404584     20.44214     62.29699         6     0.838     0.501 -39.29   0
       260    787.5269    372.0960 300.3418842 +22.7011672     298.8438     72.58544      1.349     4.99     4.417154     20.44214     40.42225         6     1.031     0.682 -37.88   0
       261    463.2215    368.5614 300.2420515 +22.6029918     1166.814     72.47482      1.275     2.42     4.319666     20.44214     164.0948        14     0.886     0.833  56.00   0
       262    975.0037    364.3556 300.4028372 +22.7550792     375.5162     72.47482      1.446     3.76     3.732346     20.44214     42.54317         7     0.866     0.583 -32.56   0
       263    708.0422    360.2424 300.3209694 +22.6739534     2042.891     72.56702      1.233     2.24     4.407392     20.44214     311.8521        23     1.088     1.027 -43.69   0
       264    969.2847    354.5358 300.4042415 +22.7505434     3143.633     72.54858      1.432     2.56     3.734205     20.44214     439.2122        27     1.136     1.060  70.58   0
       265    416.3882    344.0765 300.2354280 +22.5819234      635.995     72.47482      1.229     2.46     4.379092     20.44214     84.14977        11     0.878     0.771   4.80   0
       266     91.0594    338.5509 300.1360860 +22.4828042     1359.157     72.51171      1.619     3.64     4.299411     20.44214     148.3129        21     1.347     1.026 -18.91   0
       267    121.9633    338.3546 300.1457507 +22.4920154     585.5973     72.49327      1.443     3.37     4.310343     20.44214     69.85409        10     1.009     0.750 -22.34   0
       268    984.8117    335.0807 300.4153986 +22.7495969     549.1575     72.43791      1.413     3.94      3.73612     20.44214     65.30228         9     1.026     0.649  45.43   0
       269    175.1487    330.4298 300.1648488 +22.5056884     434.7551     72.47482      1.291     2.84     4.377733     20.44214     69.50182        11     0.947     0.742  72.67   0
       270    828.6760    331.6462 300.3678371 +22.7018625     235.0938     72.45637      1.109     4.75     4.238837     20.44214     33.24834         8     0.979     0.655   0.73   0
       271     30.8216    327.4623 300.1209742 +22.4615562     373.7284     72.43791      1.869     4.89     4.626648     20.44214     29.05504         6     1.319     0.514 -40.45   0
       272    851.4232    324.0732 300.3773846 +22.7064967     491.1193     72.49327      1.358     2.26     4.096433     20.44214     70.83475         8     0.787     0.638  -4.46   0
       273    779.5047    321.7280 300.3557335 +22.6842866     629.6769     72.56702      1.323     2.95     4.416024     20.44214     89.95957        13     1.000     0.839 -57.80   0
       274    370.1518    321.5822 300.2283461 +22.5616053     459.3331     72.49327      1.332     3.12     4.387846     20.44214     59.62306         6     0.731     0.608  33.91   0
       275    916.0402    315.4832 300.4003153 +22.7233735     256.1556     72.41945      1.266     3.98     3.819868     20.44214     34.36024         5     1.080     0.420  63.73   0
       276    877.7365    310.7131 300.3899224 +22.7105341     2014.724     72.56702      1.303     2.32     3.959052     20.44214     295.6663        18     0.963     0.931  86.23   0
       277    296.3400    308.1864 300.2097393 +22.5356344     2066.371     72.41945      1.283     2.39     4.470603     20.44214     254.5564        21     1.062     0.910  52.61   0
       278    374.4266    303.2671 300.2356194 +22.5576262     983.8629     72.43791      1.520     3.52     4.386146     20.44214     98.41901        17     1.165     0.959  29.97   0
       279    125.9808    303.8432 300.1581985 +22.4833137      324.273     72.47482      1.424     4.74     4.357372     20.44214      48.3766         6     1.057     0.609  -2.02   0
       280    776.2750    302.4908 300.3609704 +22.6777894     506.7711     72.60387      1.144     2.40     4.412136     20.44214     88.14484        11     0.856     0.791 -76.40   0
       281    883.4922    298.9586 300.3955314 +22.7088775      344.701     72.45637      1.183     4.07     3.943718     20.44214     46.75233         6     0.973     0.498 -87.38   0
       282    190.9894    295.6770 300.1810494 +22.5004607     749.7798     72.45637      1.338     2.69     4.376118     20.44214     107.2635        11     0.952     0.751  -9.88   0
       283    728.8150    292.2162 300.3495186 +22.6606230     1580.364     72.41945      1.237     2.51     4.395607     20.44214     236.5023        17     0.969     0.925 -86.33   0
       284    308.8797    294.4104 300.2181088 +22.5354370     352.7179     72.43791      1.382     4.15     4.407776     20.44214     44.82072         6     0.777     0.634  53.94   0
       285    793.7440    291.7555 300.3698975 +22.6799343     541.5679     72.47482      1.256     2.51     4.417419     20.44214     85.67395        11     0.882     0.769  26.71   0
       286    212.3517    288.9670 300.1898661 +22.5049384     399.5834     72.49327      1.167     2.77     4.375185     20.44214     68.56779         9     0.861     0.664 -13.77   0
       287   1000.4034    284.5391 300.4366644 +22.7397282     836.9869     72.43791      1.471     2.71      3.77331     20.44214     119.2371        15     1.055     0.911 -45.75   0
       288    502.2061    284.6062 300.2814301 +22.5905558     430.2105     72.30857      1.306     3.34     4.431409     20.44214     53.16158         6     0.879     0.562  72.96   0
       289    732.9320    283.3541 300.3536770 +22.6593085     637.6347     72.43791      1.222     2.38     4.394106     20.44214     110.3516        10     0.832     0.736  80.55   0
       290    653.4165    282.9647 300.3290366 +22.6353819     1212.654     72.45637      1.239     2.15     4.403495     20.44214     178.3145        15     0.933     0.811  43.09   0
       291    474.8511    279.5484 300.2745586 +22.5809066     264.1632     72.49327      1.370     2.09      4.46566     20.44214     49.33182         5     0.693     0.441  25.60   0
       292    849.0624    274.2715 300.3928107 +22.6914709     1377.132     72.49327      1.325     2.51     4.145236     20.44214     199.6266        16     1.057     0.816 -76.26   0
       293    579.5935    274.8423 300.3086863 +22.6109346     892.4421     72.47482      1.199     2.43     4.447654     20.44214     135.1373        13     0.921     0.798  -5.20   0
       294    860.8626    273.5229 300.3967317 +22.6947886     828.0487     72.53015      1.380     2.83      4.07802     20.44214     103.9294        11     0.911     0.786 -37.99   0
       295    907.3839    272.2544 300.4116452 +22.7083511     196.1022     72.41945      1.137     3.50     3.959641     20.44214     32.29129         5     0.800     0.442  72.29   0
       296   1021.9361    264.2972 300.4499489 +22.7403506     1640.109     65.37396      1.399     2.94      3.96454     20.44214     178.0421        20     1.075     0.995 -47.40  24
       297    977.6240    263.7265 300.4363139 +22.7269239     1235.716     72.49327      1.585     2.76     3.961951     20.44214     133.3186        19     1.131     0.993  89.73   0
       298      1.7516    260.7798 300.1335832 +22.4337002     500.2172     58.78245      1.205     3.17     4.866672     20.44214     73.01169         7     0.851     0.565 -41.70  24
       299    211.7870    256.7823 300.2001332 +22.4955278     689.9897     72.41945      1.284     3.04      4.36264     20.44214     92.75993        12     1.037     0.746  65.53   0
       300     73.7000    251.9029 300.1588090 +22.4527274     2178.967      72.6591      1.452     2.54     4.504546     20.44214      315.778        23     1.180     0.982 -88.33   0
       301    896.8522    248.6947 300.4160065 +22.6984232     782.2973     72.53015      1.346     2.97     4.098698     20.44214     91.30007        10     0.913     0.758  24.44   0
       302     23.0963    248.5931 300.1441654 +22.4366033     517.4688     72.34555      1.558     3.66     4.802509     20.44214     54.19064         8     0.983     0.787  77.32   0
       303    231.0034    245.0580 300.2099099 +22.4979214     5567.441     72.41945      1.401     2.66     4.349934     20.44214     673.7054        35     1.213     1.120  86.87   0
       304    213.0848    245.5967 300.2041655 +22.4927049      413.196     72.38251      2.572     5.38     4.358328     20.44214     47.56362        10     1.272     0.641 -88.44   0
       305     15.2370    239.5751 300.1446501 +22.4316581      1134.98     72.47482      1.472     2.84     4.885674     20.44214     138.7256        20     1.135     1.074 -74.32   0
       306    214.1598    235.7816 300.2076838 +22.4902087     697.7506     72.47482      1.465     3.43     4.354408     20.44214     75.26126        12     0.977     0.841  32.89   0
       307    875.1391    226.4658 300.4164499 +22.6855307     3487.594     72.49327      1.305     2.23     4.214468     20.44214     582.7579        28     1.090     1.062  27.77   0
       308    978.6973    225.2577 300.4491301 +22.7161802     2734.214     72.54858      1.293     2.31     4.287093     20.44214     355.3018        24     1.072     1.023 -57.02   0
       309    424.3829    221.8313 300.2775816 +22.5492030     692.9123     72.43791      1.345     2.41     4.455422     20.44214     94.25155        10     0.876     0.721 -50.84   0
       310    177.7583    222.5534 300.2006614 +22.4754985     249.7843     72.51171      1.107     3.10     4.348858     20.44214     39.78311         5     0.727     0.450  21.69   0
       311    539.0359    219.8704 300.3138963 +22.5829880     258.8469     72.47482      1.046     2.66     4.562323     20.44214     47.79014         5     0.617     0.589  82.25   0
       312    348.5204    213.5534 300.2566693 +22.5240934     732.4728     72.47482      1.985     3.17     4.366125     20.44214     66.14412        13     1.003     0.888  18.92   0
       313    114.9095    210.8641 300.1849240 +22.4533012     450.6215     72.54858      1.229     2.34     4.380318     20.44214     95.26495         8     0.787     0.664 -43.25   0
       314    475.8815    209.0217 300.2977605 +22.5609516     1652.513     72.41945      1.288     2.49     4.951312     20.44214     237.4768        19     0.990     0.921 -54.57   0
       315    404.0113    209.7884 300.2751507 +22.5396393     500.6002     72.34555      1.316     3.82     4.385893     20.44214     53.78485         8     0.807     0.694  31.13   0
       316    537.3793    208.3052 300.3171323 +22.5791683     347.1863     72.36403      1.157     2.58     4.585737     20.44214     53.86959         6     0.729     0.537  43.09   0
       317    219.2300    204.6788 300.2193491 +22.4827966     378.9662     72.45637      1.197     3.33     4.312417     20.44214     53.94509         8     0.927     0.606 -13.48   0
       318    981.3898    203.4493 300.4570448 +22.7107127     128.6011     72.47482      1.192     4.13     4.365301     20.44214     32.32936         5     0.963     0.505 -45.02   0
       319    764.3638    198.2887 300.3910683 +22.6442647     416.3843     72.43791      1.362     3.23     4.408344     20.44214     55.15135         7     0.840     0.634   9.83   0
       320    654.6401    193.1529 300.3585557 +22.6099333      173.274     72.51171      1.205     3.54     4.353944     20.44214     32.81554         5     0.809     0.448 -75.19   0
       321    249.9515    188.9770 300.2339919 +22.4874949      5925.65     72.45637      1.391     2.59     4.252632     20.44214     768.7593        37     1.266     1.066  63.59   0
       322    756.5922    189.2928 300.3915650 +22.6393513     302.3125     72.36403      0.983     3.19     4.424287     20.44214     56.16668         5     0.806     0.454 -42.77   0
       323    100.9640    188.2891 300.1879136 +22.4426388     861.0425     72.43791      1.727     3.21     4.416692     20.44214     87.39897        13     1.056     0.831   1.44   0
       324    879.2168    186.1856 300.4307879 +22.6751669     382.9109     72.40098      1.400     3.26     4.280635     20.44214       52.963         6     0.896     0.562  26.47   0
       325    265.1173    180.2385 300.2415410 +22.4895302       326.97     72.41945      1.150     4.58     4.231726     20.44214     46.40282         8     1.079     0.621  68.65   0
       326    725.9417    180.1696 300.3849754 +22.6275512     260.0169     72.47482      1.159     3.09      4.43909     20.44214     40.48897         6     0.864     0.488 -31.79   0
       327     11.3117    179.9203 300.1627807 +22.4133572     283.7619     72.60386      1.280     3.79     4.955889     20.44214     44.45147         6     0.910     0.453 -50.93   0
       328    496.0255    174.2141 300.3153194 +22.5569838     6082.207     72.47482      1.311     2.36     4.894642     20.44214     844.7017        33     1.164     1.009  81.67   0
       329    381.2856    174.0987 300.2796577 +22.5225766     704.1878     72.62228      1.398     2.97     4.375762     20.44214     82.57965        10     0.839     0.816   8.87   0
       330    553.0137    168.9478 300.3347650 +22.5725399     294.2708     72.49327      1.242     3.84     4.557055     20.44214     42.29213         7     0.897     0.517 -41.43   0
       331    516.4371    167.6375 300.3238050 +22.5612078     189.1242     72.53015      1.449     4.70     4.758117     20.44214     30.99706         6     0.952     0.668  22.15   0
       332    249.9762    168.2042 300.2407369 +22.4815359     262.9534     72.41945      1.241     3.47     4.225953     20.44214     35.12266         5     0.796     0.500  57.34   0
       333    748.6187    163.8977 300.3973178 +22.6296621     782.9902     72.38251      1.347     2.49     4.466909     20.44214     108.8712        10     0.933     0.649 -49.62   0
       334    840.8516    162.3251 300.4265688 +22.6568208     479.3726     72.47482      1.411     2.61     4.320023     20.44214     91.44934         8     0.888     0.692  88.39   0
       335    188.8414    158.4560 300.2248955 +22.4604138     508.0561     72.41945      1.268     2.95     4.323874     20.44214     64.01427         7     0.964     0.477 -46.43   0
       336    547.4351    156.7155 300.3369957 +22.5673533     398.6313     72.41945      1.147     2.59     4.564522     20.44214     66.38076         7     0.800     0.620  19.17   0
       337    624.3548    154.2821 300.3617323 +22.5896899     6202.066     72.41945      1.237     2.22       4.5247     20.44214     862.3726        34     1.146     1.005  79.45   0
       338    399.3355    153.4581 300.2919666 +22.5220540     1416.258     72.49327      1.241     2.41     4.398611     20.44214     176.5701        14     0.899     0.849  22.83   0
       339    665.4869    151.6190 300.3754050 +22.6012412     911.7248     72.40098      1.358     2.73     4.368016     20.44214     127.9962        11     0.910     0.822  64.58   0
       340    735.7144    149.2131 300.3980602 +22.6215762     300.4222     72.40098      1.150     2.78     4.555197     20.44214     50.79023         6     0.744     0.548 -32.45   0
       341    681.3066    147.6982 300.3816036 +22.6048507     632.1528     72.64069      1.289     2.45      4.39222     20.44214     87.11723        10     0.884     0.725 -87.61   0
       342    990.3456    145.2740 300.4787076 +22.6966566     349.1604     72.47482      1.564     3.41     4.542025     20.44214     41.20987         6     0.852     0.692  83.68   0
       343    951.5665    145.0265 300.4666946 +22.6849811      627.171     72.47482      1.520     3.72     4.404081     20.44214     78.63815        13     1.128     0.891 -57.86   0
       344    148.4106    145.6682 300.2164779 +22.4446230     730.5051     72.45637      1.484     3.51     4.510231     20.44214     93.09145        12     1.087     0.820  67.88   0
       345    206.1849    144.6658 300.2347580 +22.4616512     260.3536     72.43791      1.354     4.96     4.454323     20.44214     26.95467         5     1.121     0.622 -59.62   0
       346    719.5858    143.2652 300.3949648 +22.6150372     388.8398     72.41945      1.066     2.25     4.537939     20.44214     75.03961         7     0.862     0.504  33.10   0
       347    683.6741    138.0345 300.3854750 +22.6027811     881.0306     72.43791      1.673     3.78     4.475541     20.44214     102.4669        15     1.406     0.778  58.51   0
       348    668.6058    139.0865 300.3804408 +22.5985719     2661.651     72.38251      1.279     2.37     4.452533     20.44214     336.7633        21     1.066     0.934  83.90   0
       349    309.6928    140.0279 300.2684414 +22.4913371     441.6109     72.38251      1.249     3.40     4.480227     20.44214     51.84837         8     0.940     0.602 -27.81   0
       350    754.9928    130.7236 300.4100625 +22.6220310     1452.118     72.40098      1.297     2.13     4.573165     20.44214     252.9811        18     1.025     0.930  53.78   0
       351    668.7095    125.8030 300.3847808 +22.5947838      165.264     72.36403      1.162     4.39     4.553202     20.44214      29.9743         5     0.750     0.732 -37.35   0
       352    832.9467    124.8234 300.4362674 +22.6436687     378.9261     72.47482      1.765     4.38     4.424351     20.44214     38.67044         7     1.141     0.479 -57.99   0
       353    498.6898    123.3859 300.3326324 +22.5431741     1037.713     72.40098      1.208     2.41     4.691089     20.44214     142.3507        15     1.113     0.768  46.13   0
       354    692.9922    123.8152 300.3929885 +22.6014826     800.3771     72.36403      1.325     2.86     4.594655     20.44214     115.0266        11     0.952     0.768 -78.31   0
       355     71.3773    122.8705 300.1999370 +22.4149857     562.0405     72.47482      1.817     4.46     4.741128     20.44214     66.82224        11     1.233     0.998  53.54   0
       356    402.3562    121.3284 300.3033255 +22.5137268     908.1248     72.41945      1.498     3.09     4.452012     20.44214      99.1161        13     0.995     0.816  57.43   0
       357    784.7567    119.9396 300.4228335 +22.6278396     440.5286     72.45637      1.328     2.64     4.500814     20.44214     62.33625         8     0.820     0.626 -37.91   0
       358    173.8996    111.5135 300.2354738 +22.4424535     3740.738     72.62228      1.469     2.35       4.8592     20.44214     523.9348        29     1.214     1.070  52.74   0
       359    741.8546    112.0846 300.4120135 +22.6127379     548.4475     72.53015      1.242     2.22     4.702105     20.44214     89.86281        10     0.824     0.701   3.19   0
       360    596.0735    108.4885 300.3677768 +22.5680565      425.784     72.62228      1.137     3.76     4.705105     20.44214     44.97521         6     0.814     0.499  -3.17   0
       361    735.0853    103.8291 300.4125816 +22.6083374     875.1292     72.45637      1.266     2.37     4.756824     20.44214     135.8777        11     0.887     0.733  73.23   0
       362    289.8374    103.5548 300.2740941 +22.4749096     1058.657     72.49327      1.348     2.26      4.84573     20.44214     182.7598        17     1.088     0.922  75.09   0
       363    221.6230    103.0124 300.2530630 +22.4543136     217.5702     72.45637      1.098     3.84     4.986259     20.44214     31.42377         5     1.255     0.336  41.39   0
       364    828.7001    100.8035 300.4427328 +22.6354889     240.8921     72.32706      1.468     3.83     4.493526     20.44214     34.63258         5     0.733     0.701 -20.09   0
       365    516.4569    100.8849 300.3454581 +22.5420281     202.7312     72.54858      1.042     3.39     4.576421     20.44214     44.61924         5     0.757     0.461 -71.69   0
       366    772.9187     99.1240 300.4258946 +22.6183095       664.67     72.56702      1.432     3.88     4.622166     20.44214     69.49828        12     1.100     0.806  60.92   0
       367    696.5252     98.5655 300.4022765 +22.5952800     593.8812     72.45637      1.359     2.79     4.768616     20.44214     69.74057         9     0.916     0.723 -47.19   0
       368    793.0026     95.1177 300.4334517 +22.6231690     2091.885     72.36403      1.298     2.33     4.548166     20.44214     293.6564        22     1.032     0.979  89.61   0
       369    498.7420     93.4081 300.3423690 +22.5345735     452.1023     72.43791      1.251     3.05     4.557349     20.44214     67.72965        10     1.059     0.590  -9.72   0
       370    176.3688     90.4455 300.2430719 +22.4371423     987.0989     72.51171      1.540     3.10     5.034109     20.44214     98.09562        13     1.049     0.812  55.03   0
       371    967.7415     88.3086 300.4901311 +22.6735031     753.6415     72.53015      1.424     2.69     4.530843     20.44214     96.66353        12     0.961     0.768  35.14   0
       372    741.4370     87.5520 300.4198381 +22.6055578     946.4006     72.49327      1.363     2.67     4.773101     20.44214      116.975        14     0.943     0.904  66.90   0
       373    448.6266     85.8092 300.3292377 +22.5173795     302.7906     72.45637      1.434     4.32     4.440358     20.44214     46.33876         9     1.005     0.712 -35.82   0
       374    499.2369     80.1492 300.3468218 +22.5309107     445.0789     72.47482      1.401     2.68     4.535394     20.44214     57.19987         5     0.887     0.342 -47.84   0
       375    326.2250     77.4518 300.2938721 +22.4783119     431.2061     72.47482      1.294     2.98      4.94345     20.44214     53.46792         7     0.913     0.486  -7.96   0
       376    593.9149     72.5344 300.3787621 +22.5570736      787.285     72.56702      1.180     2.26     4.746472     20.44214     122.4265        10     0.910     0.680  26.90   0
       377    729.1740     70.1589 300.4216569 +22.5968849     386.0183     72.51171      1.450     3.35     4.785858     20.44214     46.76652         7     0.808     0.761  22.67   0
       378    203.2858     70.1453 300.2580189 +22.4393775     476.9079     72.51171      1.302     3.05     5.069187     20.44214     66.29462         8     0.996     0.534 -32.79   0
       379    757.0688     67.2804 300.4312807 +22.6044069     738.9928     72.56702      1.293     3.05     4.739647     20.44214     100.0729        12     1.021     0.807 -77.46   0
       380    387.8365     68.2200 300.3160278 +22.4941159     232.2085     72.47482      1.298     3.96     4.608309     20.44214      36.8471         6     0.759     0.592 -50.28   0
       381    565.6382     65.4858 300.3722439 +22.5465802     1907.024     72.43791      1.277     2.17     4.705992     20.44214      304.659        21     1.051     0.948  61.02   0
       382    288.3206     62.8144 300.2868307 +22.4627502     692.4562     72.45637      1.593     2.96     5.007302     20.44214     88.74937        12     0.991     0.911  76.06   0
       383      2.9014     61.7341 300.1984896 +22.3769043     745.3607     64.61269      1.755     3.99     4.785636     20.44214     77.56667        13     1.186     0.960 -84.63  24
       384     99.1922     60.4757 300.2288066 +22.4054050     233.6754     72.41945      1.525     3.10     4.945904     20.44214     43.39923         5     0.952     0.380 -83.07   0
       385    523.0746     59.4541 300.3609502 +22.5321006     1415.172     72.47482      1.328     2.37     4.599601     20.44214     196.9547        15     1.040     0.810 -71.22   0
       386    628.2643     56.0634 300.3947972 +22.5626224     1308.469     72.49327      1.245     2.50     4.777771     20.44214     165.7802        15     0.960     0.850  72.97   0
       387    723.7449     55.2732 300.4247916 +22.5909787     291.8438     72.45637      1.335     3.80     4.784246     20.44214     30.21999         5     0.891     0.464 -45.42   0
       388    223.7160     55.0468 300.2692638 +22.4411620     488.2635     72.43791      1.342     2.09      5.08639     20.44214     90.36794         7     0.778     0.568 -67.85   0
       389    272.4495     53.3258 300.2849719 +22.4552690     402.9313     72.45637      1.082     2.54     5.045742     20.44214     59.84041         7     0.870     0.487 -82.09   0
       390    448.6851     49.8877 300.3409013 +22.5070726     2172.751     72.58544      1.385     2.62     4.365474     20.44214     278.9735        22     1.117     0.958  77.48   0
       391     95.9316     47.8136 300.2318981 +22.4007912     1461.189     72.47482      1.533     2.99     4.971893     20.44214     158.9376        19     1.092     1.017 -46.87   0
       392    939.6146     47.4961 300.4945923 +22.6533444     345.4436     72.36403      1.246     3.42     4.754475     20.44214     50.62532         5     0.793     0.427 -22.83   0
       393    579.4822     44.4776 300.3833643 +22.5446856     541.5312     72.56702      1.412     3.20     4.760556     20.44214     68.52887        11     0.968     0.832  60.47   0
       394    923.0692     38.4998 300.4923498 +22.6458054     391.4787     72.54858      1.272     2.55     4.792554     20.44214     64.75854         7     0.873     0.543  57.25   0
       395    290.4985     35.1380 300.2964795 +22.4554506     352.7097     72.54858      1.236     4.92     5.072348     20.44214      54.2676         8     1.050     0.653 -54.01   0
       396    156.6200     29.5123 300.2566871 +22.4137216     1267.122     72.38251      1.730     3.10     5.095592     20.44214     132.0477        19     1.204     0.973  38.73   0
       397    398.3683     23.6603 300.3337484 +22.4844643     325.3055     72.49327      1.231     2.84     4.502868     20.44214     55.45615         8     0.891     0.637  86.30   0
       398    118.1535     20.6484 300.2476073 +22.3996484     314.0541     72.47482      1.316     1.97     5.067467     20.44214      51.7348         5     0.691     0.444 -19.38   0
       399    100.8617     15.4061 300.2439339 +22.3929607     384.9205     72.41945      1.390     3.23     5.065206     20.44214     62.42029         7     1.058     0.623   7.85   0
       400    723.1617   1014.3305 300.1130676 +22.8663258     772.6744     72.41945      2.084     7.41     2.884111     20.44214     50.06017        14     1.675     0.926  33.01  16
       401    757.7787   1008.6135 300.1257113 +22.8750676     1084.387     72.43791      1.899     5.73     2.973402     20.44214     75.68417        18     1.204     1.121 -22.95   0
