#   1 NUMBER                 Running object number                                     
#   2 X_IMAGE                Object position along x                                    [pixel]
#   3 Y_IMAGE                Object position along y                                    [pixel]
#   4 ALPHA_J2000            Right ascension of barycenter (J2000)                      [deg]
#   5 DELTA_J2000            Declination of barycenter (J2000)                          [deg]
#   6 FLUX_APER              Flux vector within fixed circular aperture(s)              [count]
#   7 FLUXERR_APER           RMS error vector for aperture flux(es)                     [count]
#   8 FLUX_RADIUS            Fraction-of-light radii                                    [pixel]
#   9 FWHM_IMAGE             FWHM assuming a gaussian core                              [pixel]
#  10 BACKGROUND             Background at centroid position                            [count]
#  11 THRESHOLD              Detection threshold above background                       [count]
#  12 FLUX_MAX               Peak flux above background                                 [count]
#  13 ISOAREA_IMAGE          Isophotal area above Analysis threshold                    [pixel**2]
#  14 A_IMAGE                Profile RMS along major axis                               [pixel]
#  15 B_IMAGE                Profile RMS along minor axis                               [pixel]
#  16 THETA_IMAGE            Position angle (CCW/x)                                     [deg]
#  17 FLAGS                  Extraction flags                                          
         1    232.3697     21.4627 300.2354378 +22.4424267     3832.585     72.44137      1.536     2.71     5.124579      20.4327     473.9338        35     1.364     1.118  43.81   0
         2    793.6669     13.9798 300.4125895 +22.6083451     990.4666     72.40447      1.451     2.78     5.347355      20.4327     130.3545        16     1.250     0.883  68.53   0
         3    348.6225     13.5345 300.2741604 +22.4749737     1370.214     72.40447      1.595     3.08     4.685305      20.4327     146.7942        19     1.082     1.015  85.19   0
         4    831.9621      9.1017 300.4261067 +22.6184015     650.5337     72.42292      1.517     4.49     5.387349      20.4327     68.77135        13     1.241     0.766  67.70   0
         5    755.4582      8.6102 300.4024220 +22.5953659      694.298     72.38602      1.938     4.40     4.711983      20.4327     70.11939        10     1.221     0.766 -46.02   0
         6    851.6428      5.3025 300.4334730 +22.6231976     2155.165     72.23821      1.430     2.62     5.338109      20.4327     255.3431        23     1.097     1.039  74.40  16
         7    557.2894      3.4040 300.3423824 +22.5345495     525.4333     66.65949      1.417     3.11     4.255373      20.4327     83.95181        10     1.110     0.593 -89.76  24
         8    235.0163      1.4202 300.2427550 +22.4374615     541.8328     56.86023      1.070     2.25      5.16433      20.4327     112.9576         8     0.887     0.591   2.02  24
         9    796.2938   1005.2681 300.0915030 +22.8939495     440.9701     72.57035      1.439     2.83     3.024948      20.4327     56.18916         7     0.859     0.601 -72.08   3
        10    262.8817   1020.7044 299.9204522 +22.7383294     1924.648     70.04099      5.978    21.86      75.7505      20.4327     55.70383       103     5.258     2.525  -6.37  27
        11    261.0984   1004.6017 299.9251374 +22.7331781     3715.794     72.33063      7.143    23.29     64.71141      20.4327     82.01424       221     4.817     4.489  68.73  19
        12    280.3062   1003.4423 299.9314863 +22.7386119     4683.255     72.44137      9.054    28.73     60.94298      20.4327     94.93199       410     6.839     4.976 -41.72  19
        13    299.5279    991.8884 299.9412222 +22.7410695     7358.265     72.58875      8.194    33.29     43.97076      20.4327      169.576       642    10.500     4.524  65.00  18
        14    233.3278   1016.4258 299.9126570 +22.7282304     3476.347     72.44137      5.303    22.57     75.92604      20.4327     71.92639       151     4.550     3.313  14.25  19
        15    234.8557   1009.2321 299.9154727 +22.7266271     2139.116     72.44137      5.394    13.05     70.75116      20.4327     63.80081        53     2.834     2.036 -72.07  19
        16    210.9717   1023.5717 299.9033828 +22.7235665     394.5942     56.88372      2.545     7.15     79.95192      20.4327     43.50252        10     2.138     0.669   0.07  24
        17    192.6609   1023.2802 299.8977866 +22.7179852     957.4338     58.64151      2.786     8.37     75.98143      20.4327     60.36423        22     2.271     0.881 -17.51  26
        18    138.2600    934.1496 299.9098779 +22.6761055      3543.22     72.47824     15.418    48.44     14.43621      20.4327     87.05522       783    10.347     6.324 -37.56   3
        19    141.5010   1013.9622 299.8849201 +22.6999532     5344.935     72.42292     12.927    47.67     52.94332      20.4327     124.3329      1125    12.083     7.621  13.17  27
        20    137.7069    974.0162 299.8967376 +22.6873658     5190.523      72.3491     24.205    84.24     32.42959      20.4327     106.5217      3585    19.813    15.678 -22.13  19
        21    621.4916    962.2873 300.0510364 +22.8291897       1487.6     72.58875      1.727     4.17     3.671006      20.4327     120.6119        23     1.314     1.236 -89.19   0
        22    793.7581   1005.2941 300.0907044 +22.8931965     454.3052     72.44137      1.746     5.16     3.052251      20.4327     39.12036         8     1.456     0.517 -59.90   2
        23    228.2203    994.5048 299.9182018 +22.7204136     1947.122     72.33063      4.987    16.57     61.76661      20.4327     61.02773        70     3.913     1.951  74.18   3
        24    515.4774    958.6094 300.0192293 +22.7963315     991.4342     72.38602      1.708     4.24      3.59061      20.4327     88.22556        18     1.203     1.017 -69.62   0
        25    445.8788    956.6909 299.9981949 +22.7748988     6611.029     72.57035      1.843     5.13     3.580278      20.4327     533.6559        45     1.623     1.315  44.45   0
        26    559.2040    994.8444 300.0210509 +22.8198443     287.3013     72.44137      1.649     5.15     3.786055      20.4327     34.46339         7     1.205     0.622 -84.56   0
        27    478.6978    943.6573 300.0126471 +22.7810077     406.3885      72.5151      1.805     6.34     3.580498      20.4327      37.4593        10     1.140     0.991  50.48   0
        28     43.8223    991.0082 299.8620438 +22.6640428     372.3118     72.42292      1.394     3.76     6.616524      20.4327     36.88406         5     1.430     0.283 -79.45   0
        29    987.3325    988.2875 300.1565855 +22.9463510     794.4244     72.53352      1.965     6.88     3.165459      20.4327     50.16709        17     1.260     1.055 -71.90   0
        30    992.2597    935.6799 300.1752388 +22.9327220     1982.924     72.47824      1.945     4.75     4.055631      20.4327     132.3887        28     1.415     1.250 -35.02   0
        31    642.6786    932.7394 300.0672466 +22.8270665     275.5317     72.49667      1.668     3.47      3.54959      20.4327     41.72602         5     0.766     0.454  79.83   0
        32    490.1195    931.7343 300.0200801 +22.7810145     353.6366     72.53352      1.565     5.08     3.702086      20.4327      31.3362         7     1.235     0.591  32.71   0
        33    781.0244    924.6752 300.1129662 +22.8662395     746.4861     72.44137      2.063     6.47     3.822647      20.4327     47.79425        14     1.369     0.859  34.58   0
        34     15.8937    977.6243 299.8577240 +22.6518203     678.3327      72.3491      3.262     6.82    0.4396426      20.4327     31.68716        11     1.761     0.740  81.25   0
        35    815.7812    918.6678 300.1257516 +22.8749360     1004.716     72.42292      1.754     4.68     3.762874      20.4327     72.07658        17     1.251     0.980 -21.54   0
        36    593.0054    919.5980 300.0560540 +22.8083968     393.4625     72.23821      1.470     4.38     3.589614      20.4327     38.67856         7     1.061     0.635  41.65   0
        37    838.1154    912.3568 300.1347654 +22.8798201     11211.22     72.38602      1.793     3.78     3.699283      20.4327     688.7469        51     1.467     1.405 -46.55   0
        38    207.4587    973.9864 299.9184240 +22.7082992     1428.547     72.40447      3.857     9.22     45.78976      20.4327     56.03589        19     2.187     1.126 -63.03   2
        39    712.9833    971.6336 300.0764905 +22.8593129     6931.618     72.40447      1.895     3.87     3.779702      20.4327      448.239        50     1.495     1.458  30.14   0
        40     26.0689    914.8809 299.8812929 +22.6368970     594.2161     72.53352      1.808     5.84     3.294503      20.4327      53.2587        10     1.610     0.736 -70.28   0
        41    884.0375    912.4478 300.1490505 +22.8936128     394.5851     72.44137      1.551     5.91     3.591251      20.4327     35.10285        10     1.295     0.759  17.47   0
        42    222.2476   1015.6632 299.9094610 +22.7246852     1035.916     72.44137      2.604    10.62     76.40529      20.4327      49.7742        20     2.357     1.334 -79.26  19
        43    149.3647    904.3918 299.9230071 +22.6709094     956.9766     72.42292      2.805     4.99     10.63753      20.4327     67.24257        16     1.195     1.142  17.84   0
        44    889.8386    900.5003 300.1547453 +22.8919214      442.543     72.44137      1.672     5.64     3.697317      20.4327     30.32124        11     1.301     0.690 -80.48   0
        45    543.0623    900.7042 300.0466514 +22.7879951      395.904      72.5151      1.576     5.06     3.819504      20.4327     47.98532         9     1.143     0.635 -36.57   0
        46    139.1639    896.3347 299.9224577 +22.6655375     390.8681     72.42292      1.464     4.16     8.725152      20.4327     35.48616         5     1.192     0.415 -11.61   0
        47    846.7448    894.4107 300.1432925 +22.8772549      1382.94     72.42292      1.759     4.07      3.77006      20.4327     92.51727        19     1.156     1.086 -20.72   0
        48    698.4003    891.0324 300.0981677 +22.8318082      375.665     72.38602      1.740     4.61     3.592234      20.4327     30.30744         5     1.021     0.590  14.38   0
        49    885.1235    887.7286 300.1574296 +22.8868410     822.1218      72.5151      1.975     6.64     3.821289      20.4327     53.71799        16     1.378     0.988 -43.59   0
        50    223.1425    887.3990 299.9514632 +22.6881843     736.0948     72.36756      3.206     5.63     9.477059      20.4327     38.72807         8     1.353     0.661  69.15   0
        51    932.9336    879.5418 300.1749987 +22.8988204      546.455     72.45981      1.781     4.72     3.999578      20.4327     42.15824         9     1.158     0.753 -25.80   0
        52    784.5444    878.3785 300.1291219 +22.8540052     706.8463     72.44137      1.712     4.40     3.773356      20.4327     57.44513        11     0.985     0.821 -18.53   0
        53    497.1556    874.5033 300.0408843 +22.7667073       3963.8     72.44137      1.609     3.17     3.976069      20.4327     379.5606        33     1.285     1.206  64.40   0
        54    795.5892    875.4481 300.1335168 +22.8564752     602.0769     72.44137      1.644     6.31     3.809923      20.4327     47.67384        14     1.249     0.896  50.61   0
        55    276.1502    863.0957 299.9758457 +22.6971246      348.844     72.47824      1.614     4.93     5.229294      20.4327     33.43944         7     1.045     0.658  88.56   0
        56    204.0056    973.5777 299.9174837 +22.7071453     1008.387     72.40447      4.713     5.00     45.52692      20.4327     45.24697        12     1.230     0.739 -20.44   3
        57    540.5482    862.5175 300.0582881 +22.7762846     330.9695     72.45981      1.553     3.09     3.942658      20.4327     48.02274         6     0.862     0.696   3.83   0
        58    593.6771    965.5316 300.0413204 +22.8217771     325.8588     72.53352      1.532     4.65      3.70625      20.4327      34.3363         7     0.919     0.669  74.17   0
        59    222.3358    860.1980 299.9600580 +22.6801430     714.8776     72.42292      1.581     5.14     6.034231      20.4327     71.35832        15     1.133     1.014 -23.81   0
        60    199.5607    857.0605 299.9539990 +22.6724077     1585.499     72.42292      1.709     3.95     5.837001      20.4327     134.9622        25     1.344     1.168  53.85   0
        61     75.1623    846.9800 299.9186225 +22.6321761     402.1858     72.44137      1.375     3.90     3.979428      20.4327     40.10001         5     0.847     0.514 -29.18   0
        62   1023.8600    844.9780 300.2145978 +22.9161420     495.0047     55.19101      1.168     3.35     4.173846      20.4327     104.3144         7     1.115     0.344  87.38  24
        63    731.3719    844.5110 300.1235686 +22.8283413     372.2873     72.40447      1.953     4.17      3.68092      20.4327     43.21391         6     1.125     0.440 -52.78   0
        64    808.9927    838.6581 300.1496583 +22.8499310     607.1106     72.40447      1.610     3.30     3.912825      20.4327     68.88965        12     0.974     0.868 -50.74   0
        65    231.7515    838.7592 299.9699560 +22.6768215     488.1501     72.47824      1.753     4.78     5.247593      20.4327     42.77886         8     0.958     0.676  69.47   0
        66    677.1494    832.6159 300.1105460 +22.8086692     4648.111     72.44137      1.539     3.10     3.743664      20.4327     450.0313        34     1.225     1.201 -29.58   0
        67    166.7777    833.4385 299.9514911 +22.6557951     367.0092     72.44137      1.728     4.46     4.977003      20.4327     40.38381         6     1.127     0.602 -46.35   0
        68    479.3775    829.8016 300.0498878 +22.7485494     756.5605     72.36756      1.638     3.71     4.057027      20.4327     74.93874        14     1.032     0.949 -47.57   0
        69    227.3979    826.3931 299.9726233 +22.6719689      1395.34     72.23821      1.684     3.74     4.851252      20.4327     132.1575        20     1.206     1.037 -13.04   0
        70    697.8940    824.7911 300.1195519 +22.8126431     774.9155      72.3491      1.590     4.02     3.797767      20.4327     69.91458        11     1.152     0.762 -28.65   0
        71    246.3165    822.9604 299.9796206 +22.6766620     341.9282     72.38602      1.466     4.76     4.673332      20.4327     41.60307         8     1.392     0.462  46.66   0
        72    614.5932    816.2147 300.0963971 +22.7852039     277.7798     72.33063      1.466     4.94     3.861127      20.4327      23.2861         5     1.095     0.632 -27.18   0
        73    853.2576    812.4487 300.1719772 +22.8556736     3918.377     72.47824      1.631     3.27     4.087141      20.4327     304.5476        34     1.286     1.223  52.23   0
        74    261.5441    806.3302 299.9897615 +22.6764623     403.0013     72.44137      1.568     5.24     4.238925      20.4327     43.50653         7     0.896     0.865  82.86   0
        75    570.1725    804.9153 300.0862403 +22.7686401     664.5036     72.42292      1.475     2.98     4.002359      20.4327     85.95489        13     1.028     0.810 -23.18   0
        76    216.6075    802.7434 299.9769580 +22.6619488     1023.976     72.40447      1.662     3.57     4.061245      20.4327      95.3399        17     1.110     1.046 -70.24   0
        77    366.2176    794.8968 300.0260294 +22.7045894     53323.85     72.33063      1.599     3.05     4.202811      20.4327     5582.856        89     1.424     1.382  41.60   0
        78    631.8646    797.7819 300.1077685 +22.7850923     525.6067     72.40447      1.496     4.48     3.959652      20.4327     61.70373        13     1.119     0.875  60.21   0
        79    624.0001    793.9065 300.1065794 +22.7816218     1740.822     72.29368      1.478     3.05     3.973083      20.4327     166.3137        19     1.066     1.009 -22.50   0
        80    294.2515    792.8129 300.0043255 +22.6823998     607.7208     72.45981      1.819     4.53     4.201459      20.4327     58.95659        11     1.224     0.822  -6.35   0
        81    653.1730    790.0344 300.1169233 +22.7892576      956.765     72.44137      1.433     2.90     3.970584      20.4327     102.3376        14     1.019     0.839 -74.99   0
        82     52.4281    789.6097 299.9302120 +22.6089054      900.585     72.42292      1.959     4.04     3.958224      20.4327     78.14079        18     1.197     1.112  87.42   0
        83     19.5300    789.3912 299.9200650 +22.5989669     857.0037     72.40447      1.902     3.92     3.907699      20.4327     86.87192        15     1.223     0.991  43.98   0
        84    664.3044    788.5081 300.1208863 +22.7921569     520.5885     72.60715      1.369     3.06      3.96871      20.4327     56.10127        12     0.988     0.795  37.36   0
        85    984.3519    785.8310 300.2215070 +22.8873142     279.0471     72.45981      1.540     6.25     4.093893      20.4327     32.15973         9     1.171     0.937  84.87   0
        86    769.3466    784.7349 300.1548365 +22.8225643     458.4581     72.45981      1.484     4.42     3.982537      20.4327     51.44051         9     0.973     0.783 -41.87   0
        87    564.5114    782.1415 300.0918818 +22.7604064      124.599     72.49667      1.272     5.24     4.037849      20.4327     27.46037         6     1.016     0.803  44.39   0
        88    807.0259    774.9936 300.1697452 +22.8310613     751.1237     72.42292      1.428     3.33     4.004888      20.4327     81.94143        13     1.010     0.881 -64.84   0
        89    415.9415    772.1397 300.0488956 +22.7129770      31491.1     72.49667      1.519     2.90     4.127621      20.4327     2994.606        71     1.363     1.321  53.46   0
        90    939.1272    768.0444 300.2131858 +22.8686542     2723.949     72.40447      1.593     3.19     4.166795      20.4327     205.6035        31     1.290     1.235 -57.05   0
        91    427.1086    766.3507 300.0542517 +22.7146658     677.2667     72.45981      2.028     4.36      4.07953      20.4327     59.19949        11     1.050     0.917 -23.81   0
        92    696.9298    764.1431 300.1389693 +22.7949437     984.0019     72.44137      1.506     2.94     4.017461      20.4327     101.9953        12     0.948     0.808 -63.31   0
        93    533.3903    764.2034 300.0880252 +22.7459256     494.2165     72.23821      1.259     3.48     4.025364      20.4327     57.07472         5     0.759     0.462  74.80   0
        94    298.4894    763.8435 300.0150604 +22.6753620     757.2964     72.44137      1.528     3.66     4.086044      20.4327     80.68667        12     1.079     0.790  43.41   0
        95    103.1534    759.6115 299.9557209 +22.6155310      487.434     72.42292      1.809     3.87      4.06793      20.4327     52.14271         7     1.065     0.683  60.66   0
        96    544.2314    758.7503 300.0931725 +22.7476116     886.1684     72.45981      1.420     3.19     4.049295      20.4327     103.9062        14     1.023     0.947 -63.28   0
        97    465.0244    758.3856 300.0686387 +22.7237527      227.835     72.44137      1.320     5.45     3.937039      20.4327     37.27335         6     1.146     0.879 -17.87   0
        98    945.2228    755.9706 300.2190116 +22.8670125     498.7882     72.42292      1.498     3.87     4.096493      20.4327     48.80831         9     1.074     0.688  23.66   0
        99    489.8482    754.1261 300.0777485 +22.7299754     393.5585     72.42292      1.442     4.63     3.897911      20.4327     48.47194         9     1.090     0.914  56.93   0
       100    446.6308    755.3756 300.0638935 +22.7173722     307.0807     72.42292      1.596     4.92     3.981881      20.4327     44.01691         8     1.181     0.581  22.40   0
       101    430.1719    772.6342 300.0531623 +22.7173875     2087.996     72.44137      1.616     3.05     4.093508      20.4327     201.4139        24     1.234     1.061 -37.61   0
       102    132.2574    753.2641 299.9668269 +22.6224460      335.543     72.47824      1.264     4.09     4.036405      20.4327     43.55645         7     1.088     0.439  63.05   0
       103    923.0926    751.0546 300.2137090 +22.8589694     540.9378     72.47824      1.643     5.11     4.172231      20.4327     53.38909        12     1.356     0.652  -9.28   0
       104    295.9000    748.0735 300.0193810 +22.6700615     529.5614     72.55193      1.428     5.30     4.024402      20.4327     71.65328        11     1.035     1.024 -73.30   0
       105    369.8404    744.8164 300.0434355 +22.6913089     249.1199     72.44137      1.418     4.31     3.982241      20.4327     32.15609         5     0.758     0.700 -50.32   0
       106    619.5357    739.0103 300.1230346 +22.7645256     423.2773     72.36756      1.612     3.94     4.105035      20.4327     43.89131         7     0.847     0.713  19.53   0
       107    588.9905    736.9567 300.1141910 +22.7547777     438.5283     72.44137      1.354     3.58     4.091652      20.4327     70.90524        12     1.004     0.920  51.30   0
       108    498.3445    736.2747 300.0861951 +22.7274005     351.5037     72.45981      1.491     4.22     3.874878      20.4327     41.03895         5     0.956     0.530 -35.19   0
       109   1005.4438    733.3795 300.2451370 +22.8785650     4462.069     72.47824      1.668     3.52     3.641346      20.4327      354.414        33     1.266     1.250  15.45   0
       110    610.9129    734.3818 300.1218539 +22.7606116     1353.547     72.36756      1.388     2.89     4.130768      20.4327     141.8225        20     1.084     0.988  -0.92   0
       111    530.5768    734.1855 300.0969066 +22.7364668     195.7125     72.42292      1.191     3.86     4.017028      20.4327     49.01419         7     1.034     0.714  25.07   0
       112    993.8533    724.7672 300.2443212 +22.8726184     1708.141     72.44137      1.703     3.76     3.811808      20.4327     113.0683        24     1.296     1.115 -47.00   0
       113    356.8987    718.6523 300.0479137 +22.6799202     765.6266      72.5151      1.364     3.09     3.961609      20.4327     82.34767        12     1.045     0.750  55.30   0
       114    222.8565    719.1119 300.0060841 +22.6398388     355.4522     72.47824      1.631     4.85     3.941922      20.4327     35.08098         7     0.882     0.757  55.03   0
       115    820.3660    716.0613 300.1930592 +22.8181353     2607.843     72.44137      1.635     3.19     4.043275      20.4327     220.1377        28     1.399     1.037   5.76   0
       116   1023.7687    714.9993 300.2568275 +22.8787736     654.4445     55.72101      1.189     2.96     3.786515      20.4327     123.5989         8     1.054     0.421 -88.86  24
       117     42.8134    706.2675 299.9543126 +22.5821255     815.8053     72.44137      1.719     4.67     4.151815      20.4327     70.01279        16     1.261     1.000 -17.71   0
       118    902.6956    702.1987 300.2232292 +22.8388238     591.0732     72.33063      1.628     3.94     4.253241      20.4327     56.93557        12     1.129     0.791  14.96   0
       119    205.7876    702.4379 300.0061969 +22.6299348      639.811     72.42292      1.803     4.03      3.97222      20.4327     63.99168        13     1.150     0.992  -5.71   0
       120    938.7528    693.0298 300.2374520 +22.8469929     149003.1     72.44137      1.586     3.04     4.317596      20.4327     12639.19       159     1.502     1.475  64.07   0
       121    790.9763    693.3888 300.1912684 +22.8028161      702.204     72.42292      1.488     3.53     3.993017      20.4327     63.69268        12     1.076     0.749  78.56   0
       122    701.2675    696.6670 300.1622523 +22.7768704      372.693     72.47824      1.414     2.50     4.222362      20.4327     70.50678         5     0.933     0.343  71.20   0
       123    971.8386    685.9765 300.2500624 +22.8548784     424.6884     72.44137      1.478     5.97     4.307665      20.4327     37.71563        11     1.049     0.955 -62.62   0
       124    806.2078    679.1583 300.2006398 +22.8032936     9446.604     72.44137      1.458     2.72     4.007565      20.4327     922.4976        46     1.258     1.242 -46.81   0
       125    625.0342    681.8264 300.1433315 +22.7497575     1653.085     72.44137      1.420     2.91     4.494761      20.4327     193.4153        18     1.064     0.925  -0.36   0
       126    307.6768    674.0870 300.0470873 +22.6523691     4949.879     72.55193      1.512     2.81     4.017549      20.4327      534.189        39     1.296     1.230  67.13   0
       127     21.3994    672.6154 299.9585962 +22.5660494     1665.826     72.27519      1.786     3.73     4.200731      20.4327     163.3544        27     1.324     1.228 -22.69   0
       128    389.7959    672.2263 300.0732335 +22.6764661     1219.605     72.38602      1.443     2.61     4.307111      20.4327     162.5463        20     1.190     0.954  37.96   0
       129    265.8832    670.0478 300.0354041 +22.6386732     482.1901     72.42292      1.470     3.34      4.01342      20.4327     66.48183        10     1.040     0.833  13.25   0
       130    597.8912    667.9951 300.1393739 +22.7376496      645.007     72.33063      1.309     3.51     4.585684      20.4327     89.17827         9     0.992     0.631 -41.23   0
       131    589.6917    659.9825 300.1394244 +22.7328911     3176.947      72.3491      1.396     2.44     4.628496      20.4327      427.374        27     1.159     1.040  68.59   0
       132    580.0085    653.6867 300.1384552 +22.7281807     1374.461      72.3491      1.335     2.49     4.657734      20.4327     172.0655        18     1.005     0.928 -56.91   0
       133    973.9327    651.5611 300.2618991 +22.8456172     566.8923     72.38602      1.835     4.04       4.4294      20.4327     54.59459         9     1.177     0.656   4.75   0
       134    490.6685    650.8148 300.1115778 +22.7005706     289.6601     72.44137      1.362     4.62     4.159495      20.4327     41.60845         8     1.008     0.602 -21.00   0
       135    242.9827    649.9949 300.0347996 +22.6260504     586.1942     72.36756      1.472     3.63     4.085739      20.4327     70.43898        13     1.140     0.793  25.53   0
       136    257.4711    648.2230 300.0398797 +22.6298883     642.4117     72.45981      1.421     2.99     4.070595      20.4327      75.3679        11     0.943     0.825 -17.69   0
       137    603.7713    644.1540 300.1489513 +22.7325674     527.2325     72.45981      1.463     3.18     4.722844      20.4327      68.9238        10     0.956     0.766 -59.50   0
       138    504.6973    643.4324 300.1183427 +22.7026579     1780.702     72.40447      1.437     2.62     4.360963      20.4327     187.7017        23     1.129     1.022  50.73   0
       139    314.4332    645.5104 300.0584732 +22.6461965     356.6123     72.38602      1.097     3.16     4.045641      20.4327     55.24193         6     0.869     0.459 -15.54   0
       140    283.0066    645.1956 300.0488029 +22.6366797     572.6595     72.27519      1.446     3.71     4.029638      20.4327     59.82035         9     0.978     0.653 -28.16   0
       141    158.6307    638.3113 300.0123761 +22.5973923     19743.56     72.40447      1.606     2.96     4.193327      20.4327     1962.621        63     1.407     1.315  25.19   0
       142     79.3747    639.6863 299.9873030 +22.5740055     735.7352     72.36756      1.847     4.26     4.235764      20.4327     72.44701        15     1.328     0.959   8.55   0
       143    589.6235    638.4584 300.1463967 +22.7266910     1032.337     72.42292      1.491     4.35     4.748204      20.4327     129.8686        16     1.228     0.953 -55.25   0
       144    625.3329    637.9094 300.1576944 +22.7372378     313.3246     72.55193      1.376     2.99     4.748276      20.4327     33.55952         5     0.862     0.470  87.40   0
       145    342.8724    630.1696 300.0723020 +22.6503244     182.6752     72.42292      1.324     3.70     4.112288      20.4327     37.95094         6     0.916     0.591  25.02   0
       146   1007.5656    625.2597 300.2809354 +22.8481332     1134.147     72.44137      1.704     3.45     4.429459      20.4327     104.4286        19     1.094     1.075 -29.16   0
       147    672.9851    626.3276 300.1762983 +22.7481951     301.0762     72.42292      1.415     3.84       4.7658      20.4327     40.22943         5     0.863     0.490 -44.21   0
       148    104.5763    622.5120 300.0007119 +22.5766420     1524.385      72.3491      1.909     5.42     4.298637      20.4327     114.0298        26     1.711     1.020  85.10   0
       149    874.0181    622.8278 300.2400799 +22.8074302     491.9418     72.42292      1.341     3.78     4.246722      20.4327     51.39192         8     1.010     0.537  49.21   0
       150    171.0781    623.0178 300.0212128 +22.5967399     412.5274     72.42292      1.314     2.00     4.262946      20.4327     60.45237         5     0.597     0.567  -2.33   0
       151    553.0234    619.6576 300.1411097 +22.7103212     433.7492     72.42292      1.307     3.43      4.81095      20.4327      65.0484        12     1.041     0.844 -46.51   0
       152    947.1722    617.8634 300.2645023 +22.8279184     929.1624     72.42292      1.982     6.52     4.429474      20.4327     83.56818        14     1.676     0.712  -1.62   0
       153    692.1924    615.8411 300.1856880 +22.7509402     281.3192     72.44137      1.437     4.28     4.753505      20.4327     33.95398         5     0.777     0.670  52.32   0
       154    509.7807    611.6382 300.1302542 +22.6950550     742.6348     72.44137      1.404     2.58     4.664294      20.4327     93.62696        12     0.878     0.838  58.77   0
       155    657.7430    610.0468 300.1768401 +22.7389514     436.6042     72.45981      1.334     3.33     4.856643      20.4327      54.1485         9     0.939     0.652  68.25   0
       156    705.2021    608.6925 300.1920631 +22.7527860       414.55     72.33063      1.299     4.61     4.767903      20.4327      49.7588         8     0.922     0.654  86.34   0
       157    675.5396    608.4893 300.1828892 +22.7438380     536.3286      72.5151      1.209     2.72     4.837778      20.4327     69.17423        12     0.980     0.762  38.02   0
       158    554.1027    607.6079 300.1453602 +22.7071853     1042.219     72.31216      1.573     3.77     4.867498      20.4327     115.1252        17     1.292     0.911  31.37   0
       159    987.7255    603.1204 300.2819397 +22.8358285     3312.348     72.53352      1.510     2.82     4.429745      20.4327     308.3084        29     1.235     1.104  73.77   0
       160    519.5256    602.8824 300.1361317 +22.6954629     1683.465     72.53352      1.315     2.29     4.743662      20.4327     244.3745        19     1.046     0.909  48.75   0
       161    884.9503    600.5964 300.2507106 +22.8043180     347.3902     72.42292      1.764     4.55     4.305852      20.4327     33.65695         6     0.891     0.660  32.20   0
       162     81.3635    596.5309 300.0019394 +22.5622252     5097.673     72.40447      1.679     2.94     4.294873      20.4327     546.5421        41     1.392     1.275  -8.78   0
       163    495.1058    598.2296 300.1300424 +22.6868061     172.9984      72.3491      1.308     4.49     4.623605      20.4327      31.8185         7     0.908     0.632 -30.14   0
       164    382.8669    589.6591 300.0979021 +22.6506925     9135.158     72.45981      1.424     2.55     4.309331      20.4327     1155.129        43     1.205     1.180   7.19   0
       165    505.3744    586.7074 300.1369812 +22.6865768     8897.908     72.36756      1.351     2.36     4.681876      20.4327     1155.155        42     1.200     1.090  57.10   0
       166    475.1911    587.3029 300.1273939 +22.6776987     255.7933     72.33063      1.603     4.63      4.54073      20.4327     26.46351         6     0.926     0.658  75.80   0
       167    917.0668    580.7265 300.2671789 +22.8082293     1984.565     72.47824      1.459     2.78     4.422097      20.4327     229.8615        22     1.100     1.028  11.60   0
       168   1001.7167    578.1000 300.2944318 +22.8328281     12466.08     72.58875      1.530     2.89     4.427153      20.4327     1096.696        49     1.312     1.258  79.74   0
       169    565.8979    576.2907 300.1592053 +22.7017293     11555.12     72.60715      1.327     2.43     5.013512      20.4327     1392.921        43     1.177     1.103  87.72   0
       170    735.3447    571.7974 300.2134388 +22.7512216      685.537     72.36756      1.599     4.11     4.659788      20.4327     72.21016        13     1.163     0.924  74.48   0
       171    293.3270    571.6976 300.0758872 +22.6186857     1380.511     72.55193      1.426     2.52     4.150764      20.4327     198.5721        19     1.059     1.001  64.07   0
       172    540.2650    569.2609 300.1535086 +22.6920272     355.8453     72.45981      1.307     2.96     4.901497      20.4327     52.84346         6     0.714     0.637  82.13   0
       173    497.6561    564.4808 300.1417983 +22.6778818     4470.865     72.45981      1.358     2.23     4.656033      20.4327     574.3179        34     1.155     1.074 -64.08   0
       174    840.5677    564.4669 300.2486111 +22.7806416     837.6598     72.42292      1.393     2.68     4.439335      20.4327     104.2026        14     0.927     0.909  32.89   0
       175    475.9384    563.1132 300.1354834 +22.6709784     1286.372      72.5151      1.347     2.80     4.534712      20.4327     147.1193        15     0.965     0.862 -79.71   0
       176    917.5505    559.9472 300.2740794 +22.8024031     1582.406     72.45981      1.540     3.20     4.447236      20.4327     159.9048        21     1.198     1.010 -48.26   0
       177    230.2030    562.1162 300.0593725 +22.5970038     573.7678      72.3491      1.320     2.73     4.320573      20.4327     78.11988        10     0.878     0.739  22.88   0
       178    614.2265    552.0486 300.1821270 +22.7092534     199679.4     72.44137      1.352     2.36     5.387239      20.4327     25333.58       208     1.443     1.417   7.83   0
       179    163.4403    559.9709 300.0393173 +22.5763620     374.9226     72.44137      1.475     5.09     4.332382      20.4327     38.93542         8     1.331     0.550  71.53   0
       180    798.1844    557.0778 300.2378012 +22.7658212        926.7     72.44137      1.436     2.84     4.534296      20.4327     116.5807        13     1.005     0.822 -40.44   0
       181    437.9554    557.9083 300.1253541 +22.6580966     241.9388     72.40447      1.036     3.33     4.380481      20.4327     63.88136         5     1.124     0.304 -63.95   0
       182    891.6909    555.3188 300.2675198 +22.7933273      170.525     72.53352      1.265     4.75     4.439277      20.4327     30.57256         6     0.901     0.711 -81.86   0
       183    300.2631    551.9644 300.0844530 +22.6151029     3608.154     72.42292      1.433     2.49     4.218256      20.4327     440.4451        31     1.184     1.097  33.68   0
       184    575.5123    552.3458 300.1699758 +22.6977354     277.2398     72.44137      1.168     4.30     5.182289      20.4327     29.09902         6     1.126     0.467 -34.65   0
       185    866.4079    547.9841 300.2620199 +22.7836464     652.1839      72.3491      1.831     3.64     4.452433      20.4327     57.02951        10     1.034     0.691 -37.75   0
       186    645.6256    538.4593 300.1963188 +22.7147607     152.7014     72.42292      1.259     4.16     5.249899      20.4327     33.82913         5     0.968     0.511  44.67   0
       187    504.8934    532.7325 300.1543618 +22.6709360     2803.853     72.57035      1.460     2.58     4.717747      20.4327     338.6786        28     1.520     0.947 -86.25   0
       188    349.2425    534.5696 300.1053349 +22.6247981     473.3604     72.45981      1.703     4.76     4.235493      20.4327     41.89727        10     1.231     0.560  53.04   0
       189    916.3967    528.2269 300.2840220 +22.7929419     412.4719     72.38602      1.621     5.15     4.463988      20.4327     45.87628         8     1.233     0.670  50.97   0
       190    735.9247    528.0531 300.2278271 +22.7388295     220.3067     72.44137      1.269     4.97     4.626946      20.4327     38.46497         7     1.057     0.660 -64.95   0
       191    901.9617    518.6550 300.2826296 +22.7858677     1667.046     72.42292      1.356     2.44     4.464274      20.4327     227.2537        22     1.106     1.017 -64.85   0
       192    821.8377    520.9972 300.2568913 +22.7625408     369.1198     72.45981      1.169     1.82     4.531171      20.4327     70.35417         5     0.723     0.429  21.57   0
       193     31.8785    517.0452 300.0123806 +22.5245790     795.6039     72.42292      1.575     3.76     4.496415      20.4327     77.67947        13     1.061     0.913 -22.41   0
       194    773.0532    516.2341 300.2432343 +22.7465578     2482.045     72.44137      1.300     2.36     4.591393      20.4327     331.3384        24     1.056     0.993 -20.90   0
       195    132.2619    517.1033 300.0435487 +22.5547107     268.3914      72.5151      1.584     6.14     4.334394      20.4327     40.07113         6     1.321     0.802  12.44   0
       196   1017.2603    513.6681 300.3202076 +22.8189630     596.2578     72.45981      1.588     3.69     4.333312      20.4327     54.82677        10     0.982     0.773 -18.52  18
       197   1015.9147    509.3482 300.3211907 +22.8173183     820.3043     72.44137      1.596     3.78     4.321513      20.4327      90.6647        11     1.052     0.754  70.33   3
       198    677.9917    512.7635 300.2147445 +22.7170789     574.8747     72.42292      1.560     3.12     5.049537      20.4327     70.00297        10     0.925     0.712  89.68   0
       199    560.4429    512.1126 300.1783500 +22.6816652     708.9705     72.42292      1.303     2.61     5.082079      20.4327     105.0457        11     0.961     0.751  78.31   0
       200    902.2349    508.6357 300.2859686 +22.7830701     2230.072     72.49667      1.609     3.60     4.464435      20.4327     244.1756        28     1.492     1.024  70.71   0
       201    655.7552    506.6065 300.2098177 +22.7086473     859.8172     72.44137      1.978     3.59     5.189089      20.4327      75.8354        12     1.063     0.921 -81.35   2
       202    441.3256    506.4206 300.1431231 +22.6443257     386.4643     72.42292      1.412     3.42     4.372606      20.4327     36.12529         5     0.743     0.454  19.14   0
       203    940.2619    503.7683 300.2994068 +22.7930599     4278.538     72.44137      1.447     2.52      4.44418      20.4327     544.1786        31     1.154     1.126 -14.48   0
       204    493.9526    505.4237 300.1598246 +22.6598152     384.0447     72.44137      1.295     2.21     4.668367      20.4327     60.33959         6     0.757     0.493  -3.85   0
       205    601.0317    499.6922 300.1950208 +22.6902625     411.0128     72.36756      1.382     4.05      5.41007      20.4327     48.05461         9     1.088     0.619  34.92   0
       206    172.2663    493.9093 300.0635119 +22.5600552     1002.217     72.55193      1.440     3.04      4.24793      20.4327     113.3704        17     1.077     0.978 -80.40   0
       207    833.5375    487.6545 300.2713653 +22.7564646     221.5043     72.47824      1.295     2.93     4.525877      20.4327     61.13726         6     0.899     0.419  70.08   0
       208    438.2799    487.3751 300.1483595 +22.6379445     295.2617     72.40447      2.071     5.25     4.362484      20.4327     37.70911         7     1.501     0.519  62.02   0
       209    192.3540    486.3640 300.0722053 +22.5639149     329.0733     72.45981      1.867     4.52     4.234682      20.4327      32.9687         6     1.580     0.368 -25.15   0
       210    164.1448    483.8915 300.0642402 +22.5547448      454.749     72.47824      1.420     4.96      4.23137      20.4327     53.12328         9     1.034     0.674  30.07   0
       211    772.5641    478.4974 300.2553356 +22.7355689       450.51     72.42292      1.345     2.57     4.606511      20.4327     61.03795         6     0.794     0.494 -86.55   0
       212    713.6464    473.9935 300.2384403 +22.7166243     745.6366     72.44137      1.312     2.76     4.772156      20.4327      108.616        14     1.007     0.898 -77.83   0
       213    501.5752    472.7311 300.1728121 +22.6527123     302.3945     72.42292      1.759     4.86      4.73288      20.4327     35.68349         6     0.938     0.713  61.75   0
       214    774.4443    466.3260 300.2598734 +22.7326349     801.9421     72.40447      1.300     2.42      4.59279      20.4327     104.3053        13     0.905     0.842  49.77   0
       215    931.8326    462.6159 300.3101406 +22.7787073     983.5678     72.40447      1.377     2.43     4.491566      20.4327     144.5026        14     1.059     0.780  79.12   0
       216    915.7577    458.9192 300.3063282 +22.7728309     589.2877     72.40447      1.323     2.53     4.511669      20.4327     89.44978        11     0.882     0.795  32.29   0
       217    660.2632    456.8948 300.2273627 +22.6957181     3253.539      72.5151      1.309     2.16     5.047103      20.4327     472.0848        26     1.066     1.015  83.62   0
       218   1020.6435    455.9375 300.3400088 +22.8033797     519.5179     70.09818      1.467     4.15     4.212249      20.4327     74.95198        10     1.017     0.764  62.52  16
       219    136.1597    448.1320 300.0671521 +22.5360902     475.0158     72.38602      1.644     5.08     4.425703      20.4327     42.27591         7     1.012     0.722 -12.56   0
       220    665.6096    444.9024 300.2329212 +22.6938748     207.3601     72.33063      1.198     3.36      4.97231      20.4327     39.22895         5     0.770     0.424  67.97   0
       221    500.3242    444.0579 300.1817314 +22.6441033     417.5268     72.45981      1.165     2.64     4.748395      20.4327     56.72884         7     0.803     0.583 -66.54   0
       222    943.3608    435.6370 300.3224945 +22.7744041     533.5746     72.49667      1.411     3.47     4.501077      20.4327     69.97395        12     1.107     0.818  85.75   0
       223    680.0086    432.9652 300.2412815 +22.6947593      237.898     72.40447      1.257     3.63      4.86518      20.4327     38.99781         5     0.980     0.387 -29.52   0
       224    566.8013    431.4605 300.2065149 +22.6604073     367.0738     72.38602      1.282     3.17     4.907277      20.4327     57.17771         8     0.890     0.620  51.73   0
       225    770.8781    430.8141 300.2702910 +22.7213624     1111.659     72.44137      1.321     2.30     4.549386      20.4327     169.0316        15     0.966     0.848  28.48   0
       226    275.2292    429.2670 300.1165058 +22.5723800      503.774     72.42292      1.291     2.48     4.807194      20.4327     86.30291        10     0.862     0.739 -43.56   0
       227    337.1830    424.8528 300.1372055 +22.5896873     3481.899     72.40447      1.313     2.53     4.953563      20.4327     446.3109        25     1.117     0.959  57.64   0
       228    284.4279    419.5335 300.1225255 +22.5723439     7701.896     72.40447      1.378     2.43     4.977993      20.4327     1000.624        38     1.162     1.148  78.44   0
       229    425.2085    413.7839 300.1681824 +22.6128959     4654.371      72.3491      1.308     2.23     4.750741      20.4327     659.6777        27     1.103     0.991  62.51   0
       230    669.4134    410.5073 300.2452713 +22.6851328     18704.22      72.3491      1.277     2.20     4.850161      20.4327     2469.428        55     1.237     1.101  64.52   0
       231    516.9797    412.2144 300.1972523 +22.6399495      247.082     72.38602      1.028     3.22     4.801458      20.4327     43.45217         6     0.905     0.438 -37.38   0
       232    686.9283    410.7137 300.2506600 +22.6904392     803.2863     72.53352      1.965     5.71     4.763166      20.4327      62.0748        13     1.483     0.620 -36.90   0
       233    912.8357    406.2833 300.3225046 +22.7568259     218.5498     72.40447      1.403     4.57     4.579436      20.4327     31.79343         6     0.917     0.648  63.36   0
       234    866.3794    401.1938 300.3096724 +22.7414518      337.898     72.40447      1.081     1.72     4.586605      20.4327     57.48609         5     0.658     0.453  68.72   0
       235   1002.7736    393.3687 300.3547459 +22.7800404     762.8505     72.42292      1.456     3.05     4.271733      20.4327      81.6273        13     0.986     0.854  -4.80   0
       236    713.1805    391.7519 300.2649930 +22.6928549     209.4108     72.44137      1.217     2.89     4.584082      20.4327     32.69995         5     0.817     0.641 -48.19   0
       237    540.2294    392.0958 300.2110198 +22.6411379      315.304     72.36756      1.328     4.23      4.83625      20.4327     42.06009         7     0.736     0.693 -66.90   0
       238    224.1187    390.5871 300.1131691 +22.5459524      2002.01     72.40447      1.422     2.74     4.524687      20.4327      226.018        24     1.139     1.032  51.12   0
       239    610.1144    379.9665 300.2367156 +22.6585930     6652.414     72.38602      1.323     2.26     4.844185      20.4327     959.3337        35     1.152     1.042 -84.71   0
       240   1023.3536    380.2250 300.3654320 +22.7824218     949.0375     58.16112      1.252     2.92     4.213606      20.4327     126.5124        13     1.203     0.682  86.68  24
       241    324.9490    379.4543 300.1481351 +22.5729858     688.6415     72.45981      1.219     2.16     5.056182      20.4327      93.8974         8     0.739     0.669  87.60   0
       242    182.4664    372.1639 300.1062002 +22.5281751     542.7913     72.42292      1.505     3.74     4.524132      20.4327     72.24393        10     1.014     0.894 -84.12   0
       243     29.6768    370.0555 300.0594095 +22.4817493     1389.965     72.45981      1.682     3.83      4.87264      20.4327      125.765        23     1.240     1.140  25.43   0
       244    814.3459    368.9854 300.3039064 +22.7166119      1181.22     72.42292      1.334     2.63      4.44287      20.4327     147.3202        17     1.140     0.826 -78.33   0
       245    724.0276    370.0584 300.2754131 +22.6898702     502.6382     72.42292      1.248     2.91     4.486627      20.4327     73.50069        10     0.906     0.723 -64.68   0
       246    516.7640    366.2069 300.2121172 +22.6266703     5991.374     72.44137      1.257     2.27     4.830856      20.4327     825.3143        33     1.129     1.009  69.17   0
       247    908.6994    360.6026 300.3360413 +22.7424552     1480.301     72.31216      1.385     2.40     4.480707      20.4327     190.7192        19     1.028     0.969 -53.47   0
       248   1005.9905    361.0211 300.3662483 +22.7717022     445.2451     72.40447      1.270     2.31     4.280932      20.4327     83.54572         9     0.770     0.736 -51.63   0
       249      8.4408    355.4039 300.0575679 +22.4711758     386.6681     72.44137      1.408     3.67     4.985171      20.4327     47.83228         7     0.934     0.666 -45.52   0
       250    501.5752    354.8071 300.2110888 +22.6188444     490.9652     72.42292      1.411     2.87     4.837151      20.4327     68.46603         9     0.870     0.710  15.47   0
       251    583.8103    352.9098 300.2373055 +22.6429391     453.5046     72.36756      1.209     2.71     4.839165      20.4327     72.52111        10     0.914     0.699  25.47   0
       252     28.0124    351.6251 300.0648730 +22.4759617     1034.104     72.42292      1.619     3.54     4.883905      20.4327     137.1817        19     1.194     1.073  38.26   0
       253    881.5783    348.1864 300.3316146 +22.7307654     482.8264     72.40447      1.308     2.68     4.482552      20.4327     65.97888         7     0.739     0.622 -86.16   0
       254    404.1345    345.3306 300.1838410 +22.5869220     2565.325     72.47824      1.308     2.40     4.960049      20.4327     314.2594        23     1.077     1.015  27.98   0
       255    122.5269    342.6517 300.0971484 +22.5017312      1109.26     72.44137      1.722     2.97     4.594613      20.4327     130.2112        17     1.111     0.958   3.02   0
       256    751.5731    339.5430 300.2938986 +22.6893506     337.4811     72.42292      1.468     4.60     4.371746      20.4327     34.16151         7     0.898     0.670  65.71   0
       257    373.5966    334.8316 300.1777472 +22.5747545      29774.6     72.40447      1.369     2.30     4.984375      20.4327     4329.698        69     1.314     1.161  60.08   0
       258    908.1854    332.4313 300.3450231 +22.7342021     1442.141     72.42292      1.346     2.46     4.502187      20.4327     167.2025        18     1.060     0.899  60.78   0
       259    863.6606    330.1275 300.3318887 +22.7202089     287.1659     72.45981      1.100     2.54     4.588777      20.4327     47.00505         5     0.738     0.429 -70.57   0
       260     69.8334    322.6272 300.0872731 +22.4801827     4931.257     72.44137      1.596     2.95     4.824473      20.4327     541.4907        39     1.430     1.162  61.25   0
       261    823.7623    321.3635 300.3222952 +22.7057430     500.9699     72.49667      1.215     3.39     4.469467      20.4327     69.76028         8     0.997     0.629  -9.92   0
       262    247.5589    321.1982 300.1429729 +22.5330604     402.6534     72.42292      1.339     3.51      4.79164      20.4327     47.48378         8     0.886     0.665 -40.06   0
       263    472.0724    320.0971 300.2131692 +22.6000338     579.3066     72.55193      1.372     2.24     4.874671      20.4327     80.29971         9     0.753     0.727 -76.58   0
       264    650.6363    317.4901 300.2696095 +22.6527811     166.1715     72.40447      0.980     2.99     4.841772      20.4327     43.94364         5     0.929     0.489 -44.82   0
       265    784.0292    314.5359 300.3121270 +22.6918826     1984.151     72.44137      1.370     2.39     4.371746      20.4327     291.3978        21     1.141     0.897 -88.50   0
       266    592.1957    309.4275 300.2540257 +22.6329584     331.8464     72.38602      1.271     2.04     4.841275      20.4327     51.15402         5     0.664     0.478  15.86   0
       267    998.9584    307.3891 300.3814585 +22.7541744     531.2577     72.42292      1.277     3.06     4.389359      20.4327     79.15054         9     0.927     0.701 -79.42   0
       268    445.7776    299.1618 300.2117785 +22.5861412     2089.113     72.44137      1.416     2.96     4.894447      20.4327     271.6417        23     1.274     0.929  64.03   0
       269    658.3735    298.2107 300.2782746 +22.6495584     309.3402     72.42292      1.320     1.61     4.842133      20.4327     63.56508         5     0.649     0.450  67.74   0
       270    884.9670    292.0082 300.3508998 +22.7156286      671.363     72.42292      1.456     3.40      4.70142      20.4327      79.8668        13     1.085     0.811 -88.84   0
       271    877.0670    293.2901 300.3480208 +22.7136321     231.0435     72.55193      1.284     4.23     4.739979      20.4327     36.94127         7     0.782     0.652  -9.12   0
       272     17.8732    290.3810 300.0815933 +22.4553463     868.1173     72.42292      1.883     5.74     5.003307      20.4327      109.233        13     1.688     0.833 -35.20   0
       273    784.5522    289.9543 300.3202655 +22.6849732     241.7566     72.45981      0.994     4.13     4.371746      20.4327     35.87354         5     0.768     0.634   7.79   0
       274    767.2595    289.8459 300.3149116 +22.6797639     418.5539     72.45981      1.391     2.75     4.371746      20.4327     54.12654         6     0.725     0.578 -44.40   0
       275    798.4462    285.2715 300.3261149 +22.6877874     262.0591     72.40447      1.864     4.91     4.400415      20.4327      27.2634         5     1.064     0.641  26.15   0
       276    521.6240    278.6008 300.2420551 +22.6029597     1159.796     72.36756      1.252     2.20     4.864863      20.4327      183.658        16     1.054     0.801  65.54   0
       277    236.0215    280.1704 300.1526960 +22.5178223      229.338     72.42292      1.403     4.63     4.856816      20.4327     32.70687         5     0.917     0.663  24.55   0
       278    766.6022    270.5877 300.3209546 +22.6740312     2193.295     72.23821      1.247     2.24     4.512039      20.4327     315.6612        22     1.148     0.889  76.49   0
       279      1.3903    255.9645 300.0876374 +22.4405264     21045.69     56.67194      1.044     2.37     4.911435      20.4327     5705.679        46     1.426     0.741  89.80  24
       280    474.7905    254.1368 300.2354136 +22.5819002     703.5934     72.38602      1.410     3.27     4.884238      20.4327     82.27879        11     0.943     0.801   6.01   0
       281    149.8091    248.6034 300.1361366 +22.4829149     1490.382     72.23821      1.650     3.55     4.922769      20.4327     138.5343        25     1.320     1.094 -15.14   0
       282    180.5707    248.6993 300.1456665 +22.4921642     717.9905      72.3491      1.524     3.32     4.894785      20.4327     73.21839        12     1.045     0.771  23.99   0
       283    887.2744    242.2942 300.3677468 +22.7020248     365.2978     72.57035      1.148     3.00     4.692565      20.4327     52.08793         6     0.750     0.534  44.33   0
       284    233.8887    240.3719 300.1649421 +22.5057556     472.4721     72.40447      1.215     2.97     4.846529      20.4327     59.09576         7     0.800     0.620  19.09   0
       285     89.3770    237.7472 300.1208786 +22.4616805     352.9587     72.44137      1.190     3.57      4.93118      20.4327     46.11548         5     0.817     0.449 -74.53   0
       286    909.4224    233.9671 300.3773536 +22.7062599     330.7562     72.42292      1.481     3.99     4.555385      20.4327     42.86264         6     1.077     0.423  75.11   0
       287    838.0963    232.1534 300.3557046 +22.6843870     598.9036     72.44137      1.195     2.57      4.80559      20.4327     90.19238        10     0.897     0.684  59.26   0
       288    428.0480    231.3793 300.2282489 +22.5613579     370.0823     72.45981      1.216     4.75     4.884345      20.4327     58.55673         7     0.955     0.670  13.83   0
       289    929.4496    224.6705 300.3866141 +22.7095808     312.2367     72.42292      1.709     4.78     4.426932      20.4327      42.2059         7     1.120     0.578 -43.07   0
       290    936.4446    220.9893 300.3899895 +22.7106158     2067.468     72.42292      1.405     2.51     4.449136      20.4327     275.5493        21     1.152     0.923 -79.61   0
       291    432.8538    213.3823 300.2355812 +22.5576275     1028.771     72.40447      1.530     2.93     4.884233      20.4327     110.2364        15     1.159     0.758 -26.02   0
       292    834.7493    212.5579 300.3610170 +22.6777507     544.3657     72.44137      1.367     2.81     4.826511      20.4327     80.56686        12     1.026     0.726  57.59   0
       293    874.7510    212.2596 300.3735840 +22.6896392     175.0297     72.47824      1.375     3.93     4.776793      20.4327      28.5572         5     0.950     0.465 -45.22   0
       294    354.8812    218.2132 300.2097556 +22.5356526     2222.472     72.40447      1.416     2.65     4.855505      20.4327     263.0768        24     1.119     1.015  64.32   0
       295    249.4627    205.4174 300.1811205 +22.5003859     805.6338     72.40447      1.419     3.24     4.860836      20.4327     105.6598        15     1.075     0.970 -66.48   0
       296    367.6450    205.1216 300.2179718 +22.5357167     366.2914     72.42292      1.268     1.76     4.864738      20.4327     56.54995         5     0.679     0.434 -67.23   0
       297    787.5167    202.3827 300.3495953 +22.6606850     1725.143     72.38602      1.245     2.34     4.839493      20.4327     226.6089        17     1.008     0.877 -77.05   0
       298    852.0930    201.8273 300.3699037 +22.6798570     553.9446     72.36756      1.300     2.28     4.826522      20.4327     99.76245        10     0.860     0.710  88.68   0
       299    271.2013    198.7689 300.1900360 +22.5049915     614.2695     72.38602      1.507     2.73     4.859925      20.4327     77.99519        10     0.959     0.658  49.47   0
       300    791.8635    193.7582 300.3537470 +22.6595066     713.7875     72.40447      1.317     2.66     4.834468      20.4327     113.0074        13     1.117     0.892 -22.65   0
       301    712.0112    193.1125 300.3290740 +22.6354134     1231.785     72.36756      1.294     2.29     4.893975      20.4327     203.8708        15     1.019     0.801  89.67   0
       302    561.0914    194.4618 300.2816325 +22.5906057     291.5989      72.5151      1.102     4.48     4.933945      20.4327     41.90981         7     1.264     0.452 -27.32   0
       303    533.1949    189.4522 300.2745721 +22.5808105     461.6768     72.40447      1.592     4.36     4.930414      20.4327     39.87312         7     0.863     0.628  74.71   0
       304    907.5273    184.4451 300.3928241 +22.6914507     1466.451     72.40447      1.363     2.46     4.729761      20.4327     190.0126        18     1.025     0.976  64.82   0
       305    638.1234    184.8597 300.3087340 +22.6109160     951.3646     72.47824      1.333     2.56      4.93056      20.4327     131.3071        13     0.917     0.866  60.36   0
       306    919.4603    183.6880 300.3967906 +22.6948044     867.9451     72.49667      1.509     3.21     4.704995      20.4327     104.4656        16     1.152     0.875  25.49   0
       307      9.5233    173.1967 300.1170041 +22.4192093     410.3187     72.33063      1.585     2.69     4.726012      20.4327     62.53419         6     0.884     0.486 -45.56   0
       308     59.9135    170.7162 300.1334614 +22.4336048     493.0063     72.53352      1.621     4.09     4.862177      20.4327     53.36964         8     0.893     0.765 -76.90   0
       309    270.3557    166.9560 300.2000887 +22.4956013     719.8196     72.45981      1.390     3.01     4.881313      20.4327     102.0937        12     0.925     0.916  20.52   0
       310    132.0809    161.9011 300.1587433 +22.4527076     2402.113     72.55193      1.523     2.78     4.973528      20.4327     240.8933        28     1.290     1.087 -69.18   0
       311    955.1527    159.1235 300.4158873 +22.6984205     739.0649     72.42292      1.430     3.52     4.668338      20.4327     87.06736         9     0.942     0.686   6.35   0
       312     81.7725    158.6059 300.1441791 +22.4366810     728.4822     72.42292      1.866     3.84     4.927314      20.4327     59.73298        13     1.003     0.945 -88.85   0
       313    289.5347    155.1365 300.2098851 +22.4979536     5619.376     72.45981      1.422     2.41     4.873204      20.4327     679.4741        33     1.193     1.114  61.92   0
       314    271.6019    156.1309 300.2039861 +22.4928656     305.9822     72.38602      1.563     4.13      4.88503      20.4327     33.57846         6     0.750     0.649  29.81   0
       315     73.6112    149.3987 300.1446285 +22.4315911      1325.43     72.23821      1.797     3.52     4.902201      20.4327     151.6042        21     1.349     0.993  55.56   0
       316     35.4301    151.2009 300.1321827 +22.4206624     286.1454     72.38602      1.298     4.16     4.779772      20.4327     39.55843         5     0.900     0.550 -39.08   0
       317    272.8188    145.8692 300.2076915 +22.4902828     694.2791     72.42292      1.445     2.70     4.886621      20.4327     96.81915        13     1.044     0.799  23.23   0
       318    933.6622    136.7357 300.4164442 +22.6855496     3576.115     72.45981      1.402     2.39     4.805188      20.4327     500.0171        30     1.161     1.073 -71.15   0
       319    483.1620    132.0840 300.2775991 +22.5493386      637.369     72.40447      1.334     1.93     4.896655      20.4327     107.5954         8     0.754     0.617 -49.76   0
       320    235.8251    132.4760 300.2005310 +22.4753504     364.4963     72.44137      1.301     3.39     4.917457      20.4327     46.44247         5     0.793     0.418 -23.90   0
       321    597.7045    129.7508 300.3140153 +22.5829719     322.9026     72.47824      1.252     2.37     4.973611      20.4327     49.19415         6     0.687     0.614 -26.96   0
       322    407.2088    123.8038 300.2566473 +22.5242082     494.2317     72.25671      1.290     2.97     4.878654      20.4327     72.34521        11     0.961     0.762  38.46   0
       323    411.2969    122.3772 300.2583818 +22.5250229      462.728      72.3491      1.516     4.40     4.878738      20.4327      42.4507         7     0.942     0.585  56.11   0
       324    173.3994    120.6669 300.1849530 +22.4532510     509.1534     72.38602      1.187     2.38     5.026234      20.4327     78.78467         9     0.893     0.637  35.88   0
       325    534.4334    119.1277 300.2977593 +22.5609709     1605.215     72.42292      1.333     2.40     4.958765      20.4327     206.5202        21     1.080     0.938  74.37   0
       326    462.4994    119.9494 300.2751023 +22.5396626     498.6969      72.5151      1.358     2.07     4.885142      20.4327     66.52205         6     0.725     0.499  87.29   0
       327     13.5431    118.7147 300.1359155 +22.4047747     363.8819     72.53352      1.286     3.43     4.713849      20.4327     33.02235         5     0.730     0.466  71.65   0
       328    596.5123    118.5520 300.3172747 +22.5793958     325.8037     72.42292      1.170     4.55     4.973611      20.4327     56.62324         8     1.199     0.490  -4.34   0
       329    277.4321    114.3284 300.2193513 +22.4826054      445.938     72.42292      1.577     3.01     4.890869      20.4327     61.17247         5     0.747     0.654  42.09   0
       330    822.9055    108.9352 300.3909257 +22.6444067     487.6552     72.53352      1.501     5.01     4.825883      20.4327     41.24122         9     0.951     0.774 -11.15   0
       331    968.8832    103.5943 300.4381736 +22.6865549     484.9348      72.3491      1.727     2.50     4.776353      20.4327     40.65083         6     0.796     0.703 -12.85   0
       332    713.5445    103.7946 300.3585118 +22.6101931     191.0954     72.40447      1.146     3.09     4.876989      20.4327      33.1994         5     0.728     0.464  71.17   0
       333    308.4875     98.9844 300.2339831 +22.4875023     6029.014     72.36756      1.394     2.52     4.881868      20.4327     742.6171        36     1.263     1.063  66.12   0
       334    814.8961     99.5009 300.3914876 +22.6392962      383.985     72.60715      1.161     2.53     4.825843      20.4327     48.07012         6     0.753     0.500  -1.02   0
       335    159.7124     98.3317 300.1879390 +22.4427348     749.2105     72.55193      1.454     3.22     5.089526      20.4327     76.81321        13     1.076     0.863  67.26   0
       336    937.6620     96.6232 300.4306962 +22.6752075     343.7715     72.40447      1.436     3.78     4.820223      20.4327     52.81497         6     1.012     0.501  31.26   0
       337      3.5632     95.1548 300.1404525 +22.3950191     802.4656     67.33747      1.825     5.62     4.713751      20.4327     73.72034        13     1.197     1.032  18.10  24
       338    346.8140     92.9578 300.2478576 +22.4972531     1334.612     72.44137      0.461     0.83      4.86761      20.4327     975.9257         5     0.396     0.297  16.60   0
       339    280.3248     92.9004 300.2271968 +22.4773167     401.5342     72.55193      1.367     4.29     4.896569      20.4327     42.82734         6     0.782     0.671  30.68   0
       340    324.0359     90.1498 300.2416827 +22.4896224     374.8004     72.44137      1.503     5.02     4.872769      20.4327     43.02764         7     1.080     0.680  54.97   0
       341    554.5882     84.3090 300.3153211 +22.5569987     6287.611     72.36756      1.308     2.31     4.873939      20.4327     831.9479        37     1.223     1.056  78.75   0
       342    440.0277     84.1787 300.2797045 +22.5226524     622.2766     72.42292      1.251     2.91     4.803325      20.4327     82.20374         8     0.799     0.716 -81.48   0
       343    611.3318     79.4966 300.3345500 +22.5726060     320.9375     72.55193      1.405     3.42      4.84692      20.4327     42.02822         5     0.740     0.458 -20.19   0
       344    748.7853     75.8612 300.3785471 +22.6127099     316.3699     72.38602      1.187     2.88     4.794597      20.4327      47.9635         5     0.706     0.686 -64.85   0
       345    807.2077     73.9160 300.3973847 +22.6296367      684.047      72.3491      1.350     2.66     4.995958      20.4327     111.2553        11     0.930     0.762  72.23   0
       346    899.9523     73.1537 300.4265447 +22.6571722      196.606     72.44137      1.270     2.47     4.946795      20.4327     69.64452         8     0.785     0.648 -26.96   0
       347    118.6691     70.4702 300.1842139 +22.4224329     269.0201     72.47824      1.534     4.80     5.091809      20.4327     28.09595         6     0.957     0.683  69.40   0
       348    682.9963     64.4319 300.3617543 +22.5897300     6326.639     72.40447      1.360     2.39     4.709051      20.4327     897.7809        38     1.280     1.062  82.00   0
       349    247.2808     68.4574 300.2248443 +22.4603945     506.4268     72.45981      1.314     3.40     4.979399      20.4327     59.50126         5     0.740     0.452  21.04   0
       350    606.0568     66.9261 300.3369818 +22.5674128     463.4786     72.45981      1.290     2.15     4.763682      20.4327     85.30454         9     0.759     0.719  73.42   0
       351    457.9989     63.3258 300.2920561 +22.5220420     1433.447     72.31216      1.376     2.48     4.686736      20.4327     205.8465        19     1.137     0.954  88.90   0
       352    723.9894     61.6539 300.3754259 +22.6012022     936.9658     72.42292      1.460     2.50     4.682711      20.4327     142.2313        14     1.102     0.864  67.62   0
       353    794.0192     59.7324 300.3978715 +22.6216102     332.4917     72.42292      1.379     2.99     5.060319      20.4327     44.72329         7     0.749     0.653 -10.07   0
       354    740.0726     57.7717 300.3816955 +22.6048999     592.4038     72.44137      1.534     2.64     4.679262      20.4327     85.72156         9     0.868     0.730  20.44   0
       355    206.6374     55.7889 300.2163139 +22.4445775     703.0043     72.38602      1.530     3.41     5.065621      20.4327     94.06015        13     1.142     0.804  76.15   0
       356     54.0379     56.7070 300.1685927 +22.3991099     272.7483     72.42292      1.299     3.66     5.218188      20.4327     47.05346         6     0.906     0.473 -39.47   0
       357   1009.9568     55.7786 300.4664853 +22.6850856     622.9484     72.47824      1.501     3.12      4.72044      20.4327     80.48645         8     1.016     0.554  17.97   0
       358    778.6115     52.9412 300.3952706 +22.6150456     489.9162     72.36756      1.454     3.37     4.979677      20.4327     67.40668         9     1.054     0.583  81.47   0
       359    727.1113     49.3058 300.3804008 +22.5985857     2738.099     72.60715      1.364     2.55     4.612893      20.4327      369.748        24     1.170     0.966  77.95   0
       360    368.0746     49.8450 300.2684448 +22.4912343     279.0664     72.40447      1.345     3.29     4.724182      20.4327     40.13942         8     0.840     0.651  48.15   0
       361    742.0712     47.8110 300.3855466 +22.6026336     918.5775     72.44137      1.736     4.10     4.652195      20.4327     100.4443        18     1.321     0.927  58.71   0
       362     20.8972     43.5459 300.1625628 +22.3853975     846.9195      72.5151      1.693     3.17     5.453787      20.4327     91.23009        13     1.040     0.878 -25.31   0
       363    813.4877     40.8354 300.4100641 +22.6220014      1522.06     72.40447      1.475     3.03     5.226396      20.4327     171.6301        22     1.193     1.015  64.66   0
       364    751.6755     34.0744 300.3929912 +22.6015576     749.7385      72.5151      1.252     2.61     4.714793      20.4327     103.9979        12     0.897     0.822 -11.07   0
       365    129.9444     33.1444 300.1998142 +22.4150921     585.5985     72.45981      1.640     4.02     5.174891      20.4327     59.94901         9     0.954     0.881  79.99   0
       366    461.0266     31.5000 300.3033126 +22.5138017     866.4702     72.36756      1.321     2.47     4.514629      20.4327     107.0063         9     0.873     0.704  74.36   0
       367    843.1136     30.1292 300.4227687 +22.6277874      338.252     72.53352      1.327     2.77     5.223405      20.4327     50.79617         7     0.792     0.672  34.55   0
       368    557.2041     33.4647 300.3326146 +22.5431661     1066.109     72.42292      1.252     2.43     4.484598      20.4327     160.1581        15     1.096     0.739  73.07   0
       369    800.4344     22.4872 300.4119419 +22.6128174     445.6859     72.40447      1.092     2.29     5.384379      20.4327     79.95552         8     0.822     0.602  -3.99   0
       370    293.0723   1017.9363 299.9307395 +22.7465991     1774.447     72.45981      2.896    10.80     66.34142      20.4327     71.60014        45     2.897     1.548   6.89  17
       371     24.3990     20.8386 300.1710086 +22.3799269     314.6082     72.44137      1.200     4.07     5.746604      20.4327     39.32844         7     1.352     0.351  44.91   0
       372    654.4671     18.9940 300.3675933 +22.5681242     406.9396     72.40447      1.346     4.93     4.440748      20.4327     51.22185         8     1.156     0.754 -49.50   0
       373    558.3221     18.9896 300.3376535 +22.5393395     382.9081     72.40447      1.352     2.66     4.378651      20.4327     44.67288         7     0.726     0.644  64.46   0
       374    547.9470   1017.9710 300.0100214 +22.8231005     330.0431     72.44137      1.644     4.73     3.800706      20.4327     27.12712         6     0.890     0.714  46.99  16
       375    416.4517   1015.9446 299.9697606 +22.7830608     626.4239     72.45981      2.269     5.85     2.659725      20.4327     39.59826         9     1.332     0.724 -33.43  16
       376    608.1113   1009.3892 300.0315445 +22.8386891     2355.659     72.36756      1.849     4.32     3.872201      20.4327     153.9561        31     1.388     1.275  33.37   0
       377    240.1791   1023.1620 299.9125949 +22.7322182     841.2349     59.23089      3.789    11.85      79.9919      20.4327     55.99684        24     3.226     1.212 -15.81  27
       378    694.6048   1004.5261 300.0600631 +22.8632391     8225.851      72.3491      1.885     4.11     3.825109      20.4327     473.4547        44     1.485     1.415  66.52   3
       379    700.3162   1002.3364 300.0625546 +22.8643239     9211.922      72.5151      1.927     4.53     3.819108      20.4327     544.1847        50     1.500     1.493 -49.47   3
