#   1 NUMBER                 Running object number                                     
#   2 X_IMAGE                Object position along x                                    [pixel]
#   3 Y_IMAGE                Object position along y                                    [pixel]
#   4 ALPHA_J2000            Right ascension of barycenter (J2000)                      [deg]
#   5 DELTA_J2000            Declination of barycenter (J2000)                          [deg]
#   6 FLUX_APER              Flux vector within fixed circular aperture(s)              [count]
#   7 FLUXERR_APER           RMS error vector for aperture flux(es)                     [count]
#   8 FLUX_RADIUS            Fraction-of-light radii                                    [pixel]
#   9 FWHM_IMAGE             FWHM assuming a gaussian core                              [pixel]
#  10 BACKGROUND             Background at centroid position                            [count]
#  11 THRESHOLD              Detection threshold above background                       [count]
#  12 FLUX_MAX               Peak flux above background                                 [count]
#  13 ISOAREA_IMAGE          Isophotal area above Analysis threshold                    [pixel**2]
#  14 A_IMAGE                Profile RMS along major axis                               [pixel]
#  15 B_IMAGE                Profile RMS along minor axis                               [pixel]
#  16 THETA_IMAGE            Position angle (CCW/x)                                     [deg]
#  17 FLAGS                  Extraction flags                                          
         1    517.6502     18.8175 300.3722092 +22.5465900     1734.294     72.56027      1.352     2.44     4.844063     20.47146     235.2923        21     1.106     0.927  73.03   0
         2    474.9855     12.6869 300.3609155 +22.5320517     1235.604     72.50481      1.393     2.40     5.444042     20.47146     184.8607        18     1.083     0.964  55.13   0
         3    580.2386      9.3308 300.3947726 +22.5626030     1276.768      72.5233      1.282     2.36     4.648284     20.47146     167.8696        17     0.984     0.895  82.46   0
         4    175.5937      8.5049 300.2691415 +22.4411670     491.2926      72.4493      1.435     3.25     5.067654     20.47146     63.47008         8     0.981     0.591  42.65   0
         5    224.3361      6.3390 300.2849973 +22.4551491     374.6606     72.59723      1.174     2.83     5.329958     20.47146     49.33442         9     0.848     0.711  85.44   0
         6    400.7175      3.2604 300.3408580 +22.5071005     2220.213     66.32247      1.383     2.66     4.711753     20.47146     270.4794        25     1.285     0.924  69.86  24
         7     48.0986      1.7800 300.2316992 +22.4010287     1008.377     59.00327      1.270     3.26     5.319354     20.47146      132.013        15     1.326     0.724  15.76  24
         8    515.2219   1005.5391 300.0508951 +22.8291815     1469.817      72.5233      1.667     3.57     2.609072     20.47146     120.3106        21     1.181     1.085  62.76   0
         9    188.0895   1021.3883 299.9439854 +22.7355314     3903.832     67.62402     11.523    34.17      13.4912     20.47146     98.83868       303     8.116     4.858  14.00  26
        10    148.0476   1022.4982 299.9311797 +22.7238257     931.3001     62.76965     10.055    11.62     23.01692     20.47146     33.62756        25     2.665     1.411 -11.47  27
        11    110.8203   1022.3776 299.9196513 +22.7126116     904.7394     63.34386      8.812     9.54      34.7879     20.47146     43.76823        16     1.737     1.461  -4.21  25
        12    102.2582   1018.2546 299.9183332 +22.7088589     1916.035      72.6157     13.662    17.06     36.36264     20.47146     54.28261        50     3.295     2.455 -46.48  19
        13     97.9875   1017.0392 299.9174020 +22.7072281     1907.471     72.56027      6.835    13.27     37.25264     20.47146     48.30046        48     3.129     1.565  77.54  19
        14     85.0259   1019.9289 299.9124345 +22.7041634     1644.004      72.0223      6.365    13.85     44.93971     20.47146     48.33866        41     2.703     1.973 -75.67  27
        15     37.5032   1013.4681 299.8997753 +22.6880393      2885.46     72.68954      8.406     8.92     64.94868     20.47146     342.3527       369     9.433     5.861  44.08  18
        16     33.5836    998.3723 299.9034717 +22.6825370     2115.591     72.57876      8.098    17.81      55.9152     20.47146     55.14236        65     3.656     2.410 -75.41   3
        17    409.2879   1002.0796 300.0190558 +22.7963993     1067.816     72.70798      1.673     3.76     3.171615     20.47146     106.1752        21     1.180     1.144 -61.06   0
        18    339.8606   1000.0189 299.9981299 +22.7749702     6432.796      72.5233      1.687     3.30     3.412233     20.47146     513.3623        46     1.450     1.292 -25.01   0
        19     56.0268   1001.0931 299.9095573 +22.6900571     1040.779     72.50481      6.405     7.79     49.04918     20.47146     35.87675        12     1.948     0.872 -32.45   3
        20     65.8109   1001.4338 299.9124857 +22.6930932     1102.859     72.54179      5.350     6.45     44.92989     20.47146     53.73166         9     1.429     0.817 -50.66   3
        21     64.8427    997.4221 299.9134907 +22.6916530     1117.597      72.6157      4.246     6.45     43.19056     20.47146     39.87301        14     2.175     0.536 -67.72   3
        22    154.9700   1022.7665 299.9332436 +22.7259812     995.5514     61.43075      5.044     7.24     20.95198     20.47146     36.70096        17     1.708     0.860 -12.69  27
        23    177.7892   1016.5364 299.9423635 +22.7310480      2278.76     72.50481      9.127    13.61     14.98115     20.47146     59.13175        54     3.133     1.645 -10.52  19
        24     48.2920    987.4071 299.9116093 +22.6838128     1067.446      72.4678      5.568     6.75     43.32328     20.47146     45.23243         9     1.604     0.797  71.76   2
        25    372.0685    986.8643 300.0124300 +22.7808658     452.6568      72.6157      1.535     5.72     3.257236     20.47146     38.20158        11     1.099     0.838  45.77   0
        26     29.6078    985.8280 299.9063198 +22.6777489     816.7791     72.56027      9.861    10.28     48.40112     20.47146     49.31771        13     2.579     1.143  76.28   3
        27     36.0597    981.7567 299.9096489 +22.6785201     1842.852     72.56027     11.269    13.30      43.6153     20.47146     67.01654        45     2.957     1.664 -60.45   3
        28     30.9443    982.0187 299.9079748 +22.6770588     1218.541     72.54179      6.597    10.94     45.07944     20.47146     46.31083        18     2.521     1.323  31.37   3
        29     33.3298    970.2307 299.9125523 +22.6743977     2168.457     72.56027      6.361    20.93     35.63288     20.47146     53.01178        90     5.336     2.280 -28.59   2
        30    886.3563    978.6410 300.1752662 +22.9327822     2175.445     72.63416      1.778     3.59     3.086198     20.47146     155.9174        32     1.441     1.280  -3.31   0
        31    535.7506    975.7281 300.0669894 +22.8267907     365.1383     72.54179      1.658     3.81     2.586858     20.47146     41.75291         8     1.075     0.865  19.20   0
        32    568.2601    973.1860 300.0779375 +22.8358150     256.0892      72.5233      1.395     4.51     2.661795     20.47146     33.65228         5     0.803     0.720  71.11   0
        33    675.1862    967.3279 300.1131422 +22.8662097     761.3336     72.56027      1.802     5.42     2.465641     20.47146     59.64713        17     1.424     0.944  58.89   0
        34   1002.1179    966.3403 300.2153708 +22.9639537      371.401     72.67108      1.680     5.44     3.153196     20.47146     31.75365         7     1.030     0.812  73.62   0
        35    813.1224    982.8591 300.1510644 +22.9120343     298.6325     72.59723      1.892     3.83     3.071405     20.47146     27.47726         5     0.984     0.428 -45.50   0
        36    709.7963    961.7896 300.1257263 +22.8750011     1011.648     72.39375      1.617     3.63     2.743729     20.47146     93.10384        18     1.160     1.026 -71.31   0
        37    487.7893    962.2736 300.0564403 +22.8085412     380.7621     72.56027      1.714     5.51     3.228307     20.47146     41.75907         7     1.206     0.709 -50.47   0
        38    732.0242    955.3965 300.1347322 +22.8798328     11401.42      72.5233      1.622     3.16     2.885434     20.47146      925.346        54     1.372     1.340  24.37   0
        39    777.5297    955.0153 300.1490355 +22.8933699     536.0162     72.57876      1.568     4.25     3.015202     20.47146     46.99245        11     0.980     0.864  32.79   0
        40    923.2287    954.6353 300.1945771 +22.9369452     499.6721     72.57876      1.756     4.42      3.12625     20.47146     46.13122         8     1.008     0.927  16.72   0
        41     44.0185    947.3600 299.9233155 +22.6710544     301.8484     72.57876      1.170     2.78     17.84178     20.47146     59.00671         7     0.800     0.667 -60.12   0
        42    783.4797    943.3424 300.1546890 +22.8918039     334.0511     72.59723      1.466     5.49     3.017664     20.47146     42.20731         6     1.061     0.801 -42.18   0
        43    436.9649    943.5593 300.0467150 +22.7879233       496.64      72.6157      1.669     5.46     3.187675     20.47146     34.86449        10     1.118     0.752  13.98   0
        44    855.0272    940.1061 300.1780425 +22.9123275      571.715     72.48631      0.451    -1.56     3.086978     20.47146     511.8423         6     0.414     0.336 -75.27   0
        45    740.5253    937.2859 300.1432755 +22.8771848      1289.95     72.67108      1.602     3.38     2.877844     20.47146     115.9862        24     1.315     1.098  13.72   0
        46     33.7074    937.9921 299.9231612 +22.6652736     221.3828      72.4678      1.418     4.57     11.98681     20.47146     35.61745         6     1.240     0.718 -61.79   0
        47    923.6421    936.4398 300.2006284 +22.9318452     474.1562     72.65263      1.638     5.44      3.14437     20.47146     40.84914        11     1.175     0.765  37.83   0
        48    592.9742    934.8226 300.0981188 +22.8322234     529.1725      72.5233      1.948     3.78     2.820345     20.47146     52.86485        10     1.061     0.775  22.81   0
        49    778.6094    931.1384 300.1571433 +22.8868407     774.4389     72.48631      1.610     4.19      2.99413     20.47146     70.86357        16     1.155     1.007  54.60   0
        50    887.5113    927.4199 300.1922985 +22.9184244     290.1963     72.50481      1.566     4.13     3.125525     20.47146     44.15377         6     0.983     0.768  43.19   0
        51    827.1092    921.7330 300.1753198 +22.8986831     583.9359     72.68954      1.588     4.76     3.097394     20.47146     53.47691        14     1.163     0.940  -8.27   0
        52    678.4986    921.2423 300.1291735 +22.8539790     595.8741     72.54179      1.382     3.49     2.697542     20.47146     74.85334        10     0.933     0.777 -43.91   0
        53    390.9461    917.7369 300.0408007 +22.7667085     4188.222      72.6157      1.567     2.88     3.183301     20.47146     393.2064        33     1.242     1.194  42.39   0
        54    689.7499    918.2877 300.1336398 +22.8565055     642.7092     72.56027      1.499     4.00     2.726175     20.47146     68.97923        13     1.041     0.955 -71.91   0
        55    169.6045    906.4715 299.9756413 +22.6970438     393.7821     72.50481      1.640     5.15     4.665731     20.47146      29.3124         9     0.954     0.787  11.02   0
        56     53.1217    905.6555 299.9397139 +22.6618369     550.7213     72.59723      1.975     6.56     5.340586     20.47146     32.83839        13     1.166     1.035 -58.34   0
        57     33.1806    905.3688 299.9336130 +22.6557669     449.0227     72.56027      2.085     5.16     4.827537     20.47146     28.56726         6     1.113     0.676  21.33   0
        58    116.1480    903.4092 299.9600256 +22.6801172     836.0361     72.56027      1.892     4.92     5.790255     20.47146     66.06941        18     1.325     1.109 -12.33   0
        59     24.9922    902.1993 299.9321009 +22.6523997     456.4533     72.37522      4.634     6.14     4.585506     20.47146      35.9319         9     1.488     0.712  70.18   0
        60     93.6160    900.3062 299.9540344 +22.6724627     1600.295     72.48631      1.756     3.56     5.977933     20.47146     145.3891        26     1.302     1.143  17.52   0
        61    721.0864    896.4838 300.1504975 +22.8596454     284.8112     72.67108      1.692     4.25     2.779115     20.47146     38.01863         5     0.928     0.555 -43.58   0
        62    965.2032    889.3175 300.2289252 +22.9307723     2082.096     72.48631      1.687     3.42     3.241719     20.47146     160.5649        28     1.274     1.255 -68.98   0
        63    777.4647    889.5107 300.1703335 +22.8745490     299.7233     72.67108      1.708     5.11      2.99187     20.47146     24.94909         6     0.969     0.763  71.85   0
        64    919.3472    887.7304 300.2151412 +22.9165723     2041.676     72.56027      1.583     3.00     3.345524     20.47146     192.3788        26     1.170     1.141 -57.68   0
        65    624.6804    888.1887 300.1231677 +22.8283530     597.2101     72.54179      2.281     5.15     2.688324     20.47146     43.94036         8     1.246     0.602 -38.04   0
        66   1015.2735    883.9578 300.2462872 +22.9442390     310.6515     72.54179      1.557     3.98     3.079465     20.47146     32.06087         6     1.541     0.294 -29.35  16
        67    702.7254    881.5965 300.1496216 +22.8498667     602.6765      72.4678      1.553     4.12      2.75277     20.47146      53.7009        13     1.035     0.907 -61.16   0
        68    125.5575    882.0718 299.9698918 +22.6768262     429.7951     72.54179      1.312     3.48     4.554494     20.47146     62.83903         7     1.020     0.558  67.54   0
        69    571.0664    875.6274 300.1105603 +22.8086680     4786.168     72.54179      1.462     2.72     3.053617     20.47146       507.88        35     1.205     1.174   1.01   0
        70     60.7189    876.7151 299.9514897 +22.6558240     478.7649     72.68954      2.007     4.93     4.371276     20.47146     39.91617         7     1.150     0.598 -13.03   0
        71    373.1771    873.0250 300.0498216 +22.7485533     697.1444      72.5233      1.714     5.01     3.322681     20.47146     64.44447        13     1.157     0.800  61.54   0
        72    591.6400    868.2618 300.1193627 +22.8127253     750.0106     72.56027      1.605     4.04     2.848641     20.47146     74.65837        16     1.199     1.050  85.97   0
        73    121.0996    869.7804 299.9725054 +22.6719645     1203.468      72.4678      1.614     3.45     4.007537     20.47146     130.4185        20     1.245     1.016 -15.02   0
        74    140.9464    866.7823 299.9796481 +22.6770633     361.7014     72.54179      1.399     3.06     3.780952     20.47146     44.97794         8     0.807     0.746  -0.49   0
        75    746.9758    855.2817 300.1719702 +22.8555821     4364.807      72.5233      1.513     2.74     2.907296     20.47146     430.3213        38     1.340     1.214  52.19   0
        76   1001.7742    855.8699 300.2512156 +22.9321267      433.472     72.56027      2.283     3.71     3.166071     20.47146     36.00594         5     1.669     0.237  31.18   0
        77    963.9373    855.4767 300.2395418 +22.9206747     1049.166      72.6157      1.491     3.58     3.343534     20.47146     93.42603        17     1.184     0.916 -34.76   0
        78    155.6365    849.5403 299.9898224 +22.6765302     528.4075     72.57876      1.618     4.05     3.652605     20.47146     58.02632         8     1.217     0.541  51.77   0
        79    464.1824    848.2255 300.0862052 +22.7687441     628.8488     72.57876      1.503     2.77     3.446383     20.47146     66.12333         9     0.884     0.646 -69.58   0
        80    110.4871    845.8207 299.9770023 +22.6619105     1014.216     72.48631      1.729     3.68     3.723387     20.47146     94.28474        17     1.172     1.003  83.98   0
        81    525.6404    841.3813 300.1075603 +22.7852164     467.0069     72.57876      1.575     4.06     3.401687     20.47146     45.92974        11     0.973     0.812  68.11   0
        82    260.0594    838.1458 300.0259891 +22.7046053     52903.93      72.6157      1.548     2.85     3.450316     20.47146     4896.355       100     1.479     1.408  67.76   0
        83    930.8674    836.0800 300.2355393 +22.9051933     941.4946     72.67108      1.498     3.37     3.552472     20.47146     86.35232        15     1.070     0.919  23.37   0
        84    517.7650    837.1592 300.1064823 +22.7816426     1688.104      72.6157      1.434     2.59     3.418967     20.47146     192.7552        20     1.198     0.994  14.93   0
        85    188.4169    836.0917 300.0043855 +22.6825141     476.7647     72.48631      1.435     4.33     3.581507     20.47146     48.35076         8     0.948     0.665  23.49   0
        86    546.8285    833.1450 300.1168356 +22.7892084     947.0692     72.56027      1.463     3.24     3.378712     20.47146     101.6773        16     1.119     0.929 -55.12   0
        87    557.6160    831.7390 300.1206514 +22.7920404     547.5989      72.5233      1.466     3.19     3.315946     20.47146     68.06818        10     0.945     0.735 -21.96   0
        88    878.0089    828.2209 300.2216145 +22.8870939     330.4883     72.54179      1.547     4.26      3.57418     20.47146      38.9211         5     1.093     0.473 -37.50   0
        89    663.1622    827.8328 300.1547896 +22.8225722     481.7328     72.59723      1.284     2.34     3.074106     20.47146     67.03362         6     0.833     0.451  34.88   0
        90    309.7656    815.3846 300.0488495 +22.7129941     30973.79     72.56027      1.527     2.67     3.413268     20.47146     3177.944        84     1.428     1.364 -89.35   0
        91    700.8469    818.0167 300.1697217 +22.8310544     773.1463     72.59723      1.423     2.95     3.173273     20.47146     91.04758        11     0.971     0.720  -0.50   0
        92    324.0681    815.9195 300.0531237 +22.7174392     2041.333     72.67108      1.559     2.78     3.409751     20.47146     212.2695        27     1.222     1.135  76.40   2
        93    320.8163    809.8845 300.0540753 +22.7147325     779.3392      72.5233      2.099     4.49     3.416256     20.47146     60.76837        13     1.235     0.845  89.24   2
        94    832.8384    810.9949 300.2131369 +22.8686083     2650.791     72.57876      1.433     2.77     3.580124     20.47146     302.8707        27     1.146     1.101  13.94   0
        95    862.6488    809.2397 300.2230006 +22.8770396     389.3746     72.59723      1.601     4.59     3.661758     20.47146     36.01295         6     1.058     0.567 -58.06   0
        96    590.7982    807.3344 300.1389215 +22.7949888     839.6578     72.56027      1.388     2.87     3.318222     20.47146     118.0805        15     0.989     0.944  55.26   0
        97    192.2371    807.0317 300.0150252 +22.6753285     758.3353     72.56027      1.578     3.87      3.53751     20.47146     94.46966        16     1.214     1.100  46.44   0
        98    427.1909    807.3997 300.0879747 +22.7459347     442.4131     72.37522      1.257     2.66     3.454627     20.47146     56.03045         5     0.708     0.464  17.01   0
        99    437.8262    801.8137 300.0931010 +22.7475227      833.985     72.56027      1.485     3.46     3.465196     20.47146     80.16261        14     0.992     0.936  22.72   0
       100    838.9398    798.7538 300.2190207 +22.8669222     448.4193     72.59723      1.369     4.64     3.653074     20.47146     49.93677        10     0.972     0.755  58.69   0
       101    339.8713    798.6598 300.0636528 +22.7172304     352.1402     72.59723      1.323     4.29     3.429374     20.47146     43.54371         6     0.963     0.545 -29.28   0
       102    296.5240    797.8027 300.0504502 +22.7039782     194.7235      72.4678      1.430     4.33     3.428229     20.47146     32.18437         5     1.121     0.477  31.46   0
       103    383.5840    796.9460 300.0778077 +22.7298537     463.8668      72.5233      1.423     3.25     3.445821     20.47146     57.01164         6     0.984     0.454  33.01   0
       104     25.8343    796.3882 299.9667823 +22.6223268     613.4918     72.54179      2.147     2.60     3.413041     20.47146     51.00616         6     0.710     0.616  74.71   0
       105    816.5955    793.9518 300.2136179 +22.8588458     398.5635     72.54179      1.270     4.23     3.602632     20.47146     43.16354         8     0.805     0.720  13.64   0
       106    190.0909    791.6323 300.0193666 +22.6702687     443.9805     72.50481      1.199     3.46     3.535082     20.47146     66.73054        10     1.059     0.733 -60.10   0
       107    512.9409    782.0478 300.1229072 +22.7643823     520.6242      72.6157      1.488     4.65     3.471263     20.47146     59.95936         9     0.936     0.732 -23.04   0
       108    521.0442    780.2795 300.1260047 +22.7663052     282.6265     72.54179      1.451     3.15     3.468038     20.47146     35.79691         5     0.800     0.478  54.24   0
       109    482.8766    780.0340 300.1142045 +22.7547872     654.0113     72.56027      1.398     2.80     3.483355     20.47146     79.52988         8     0.816     0.613 -42.60   0
       110    391.9364    779.1275 300.0862014 +22.7272479     306.1743     72.59723      1.426     4.63     3.465778     20.47146     33.79629         7     0.904     0.672  55.95   0
       111    899.3356    776.3963 300.2451219 +22.8786030     4536.998     72.56027      1.487     2.70     3.689868     20.47146      427.789        34     1.237     1.150 -27.42   0
       112    504.7520    777.4528 300.1218527 +22.7606077     1310.232     72.59723      1.408     2.61     3.474487     20.47146      150.081        16     0.978     0.910  22.27   0
       113    424.1812    777.2371 300.0968486 +22.7363785     285.2801     72.56027      1.314     3.82     3.460363     20.47146     45.80043         5     1.217     0.344 -47.85   0
       114    887.6424    767.6745 300.2443127 +22.8725938     1645.193     72.54179      1.452     2.70      3.71643     20.47146     196.9395        23     1.147     1.061  56.61   0
       115    250.7785    761.8188 300.0479285 +22.6799311     891.0045     72.56027      1.552     2.48     3.457246     20.47146     117.6225        13     1.038     0.824 -30.86   0
       116    714.1176    759.1065 300.1930172 +22.8181217     2630.288     72.72643      1.437     2.45     3.383164     20.47146     328.0545        29     1.264     1.085   2.86   0
       117    918.9568    757.9497 300.2572397 +22.8791849     1650.178     72.59723      1.469     2.87     3.636511     20.47146     180.4997        21     1.125     1.004  -0.19   0
       118    932.7689    748.9952 300.2644591 +22.8807517     319.0091     72.54179      1.514     4.32     3.588907     20.47146     28.07435         5     1.046     0.509 -51.07   0
       119    796.4158    745.3643 300.2231310 +22.8388456      577.816     72.56027      1.637     3.48     3.494937     20.47146      71.2837        11     1.221     0.618  27.24   0
       120     99.2540    745.7176 300.0060685 +22.6298402     723.1805     72.59723      1.938     4.32     3.566455     20.47146     52.55099        13     1.099     0.912  -4.47   0
       121    832.4916    736.0187 300.2374146 +22.8469742     146375.8     72.48631      1.425     2.45     3.659634     20.47146     16539.28       166     1.445     1.396 -83.02   0
       122    979.5630    737.7639 300.2827058 +22.8915463     1276.614     72.63416      1.540     3.05     3.496487     20.47146     130.9364        20     1.222     0.955  83.69   0
       123    684.9810    736.5781 300.1912666 +22.8029191     830.7084     72.56027      1.686     3.15     3.444937     20.47146     91.86668        13     1.045     0.879  64.00   0
       124    865.2843    728.6408 300.2500365 +22.8546829     312.0037      72.5233      1.086     2.52     3.835123     20.47146     63.90882         7     0.780     0.629  58.78   0
       125    518.6900    724.9270 300.1432724 +22.7497143      1660.56     72.72643      1.326     2.47      3.48211     20.47146      216.692        18     1.018     0.928  47.65   0
       126    699.9965    722.2136 300.2006152 +22.8032964     9403.274     72.41227      1.357     2.32     3.449202     20.47146     1242.618        42     1.157     1.133  -7.96   0
       127    201.4966    717.4965 300.0470195 +22.6524314     4876.422     72.72643      1.491     2.58     3.490313     20.47146     549.0609        34     1.221     1.134  48.57   0
       128    283.5739    715.4951 300.0731887 +22.6764843     1082.575     72.50481      1.354     2.57     3.476404     20.47146     145.5698        16     1.026     0.900 -23.41   0
       129    159.3000    713.0994 300.0353335 +22.6385080     443.7065     72.80015      1.537     4.37     3.541419     20.47146     44.05579        10     1.175     0.709  85.76   0
       130    491.7183    710.9171 300.1394324 +22.7376050     665.3506     72.68954      1.305     2.65     3.535366     20.47146      88.8837        12     0.925     0.784 -40.96   0
       131    483.4019    703.1455 300.1393708 +22.7328807     3193.696     72.48631      1.320     2.32     3.567837     20.47146     400.3607        26     1.113     0.960  52.42   0
       132    473.6453    696.6811 300.1384359 +22.7280995      1449.72     72.54179      1.373     2.57     3.583987     20.47146     180.2178        19     1.077     0.950  80.77   0
       133    402.4158    696.1919 300.1164300 +22.7065962     435.2405     72.48631      1.624     4.66      3.57899     20.47146     43.58589         8     1.211     0.549  40.37   0
       134    867.1020    694.3875 300.2617411 +22.8453893     451.3464      72.4493      1.296     2.49     3.860852     20.47146     55.62931         7     0.723     0.627  -2.38   0
       135    137.0241    692.9255 300.0349692 +22.6260378     691.0128     72.59723      1.497     3.53     3.689687     20.47146     81.77438        13     1.045     0.970  65.70   0
       136    151.0436    691.4083 300.0398194 +22.6298098     615.3986     72.57876      1.424     3.52     3.582933     20.47146     64.84698        12     1.069     0.831  62.67   0
       137    920.4032    688.0334 300.2804263 +22.8595350     547.5151     72.56027      1.568     3.99     3.784035     20.47146     55.15266         9     1.045     0.628  51.08   0
       138    177.0432    688.4411 300.0488647 +22.6367606     611.3209     72.65263      1.891     4.07      3.48327     20.47146     45.86926        11     0.946     0.902  11.80   0
       139    497.8000    687.4185 300.1489653 +22.7326848     555.5479      72.4678      1.411     3.17     3.572812     20.47146     64.90025        10     1.021     0.664  81.85   0
       140    207.9182    688.2983 300.0585084 +22.6459839     395.1724     72.70798      1.796     4.28     3.453709     20.47146     35.64468         7     0.914     0.571  33.32   0
       141    432.2820    686.1830 300.1289769 +22.7126818     304.1312      72.5233      1.811     5.89     3.596945     20.47146      35.5418         7     1.020     0.958 -26.29   0
       142    398.3570    686.5934 300.1182878 +22.7026247     1708.646     72.57876      1.377     2.52     3.602093     20.47146     210.0701        19     1.091     0.958   2.25   0
       143    974.2300    683.5784 300.2986619 +22.8743816     657.9041     72.56027      1.319     3.32     3.627903     20.47146     85.21582        14     1.040     0.930 -16.72   0
       144     52.4257    681.6462 300.0123505 +22.5974142     19466.82     72.57876      1.642     2.88     4.000154     20.47146     2056.674        68     1.462     1.354  33.70   0
       145    483.4725    681.9057 300.1462982 +22.7268061     1056.004     72.68954      1.400     2.73     3.620018     20.47146     128.9978        14     0.963     0.879  62.87   0
       146    518.3040    680.6217 300.1575573 +22.7368825     519.9296      72.4678      1.441     3.04     3.533298     20.47146     73.24586         7     0.835     0.648  73.58   0
       147    901.4020    667.9164 300.2810418 +22.8480629     1064.202      72.4678      1.380     2.83     3.852802     20.47146      136.833        15     1.014     0.900  25.70   0
       148     64.3068    666.5234 300.0209573 +22.5966438     260.2536     72.70798      1.478     5.25     4.122999     20.47146     33.95236         8     1.073     0.725 -28.26   0
       149    767.9779    665.9727 300.2400827 +22.8075233     518.2142     72.56027      1.388     2.50     3.706389     20.47146     64.79076         8     0.791     0.643 -38.45   0
       150    447.0523    662.5811 300.1412458 +22.7103382      390.498     72.54179      1.358     3.15     3.708838     20.47146     62.15421         9     0.962     0.746 -12.49   0
       151    239.4069    661.6304 300.0769668 +22.6477819     244.7638     72.56027      1.100     3.11     3.519173     20.47146     46.41495         5     0.726     0.451 -69.91   0
       152    841.7684    660.4686 300.2648711 +22.8280554     753.6955     72.54179      1.328     2.52     3.857917     20.47146     97.22399        14     0.904     0.885 -39.34   0
       153    837.3373    660.4250 300.2635039 +22.8267151     392.9276     72.54179      1.467     3.87     3.854568     20.47146     35.72098         6     0.910     0.472  87.96   0
       154    403.5141    654.8855 300.1301999 +22.6950726     837.3965     72.68954      1.376     2.56     3.705968     20.47146     94.69473        11     0.847     0.803 -39.01   0
       155    551.3440    653.4025 300.1766916 +22.7389761     597.5804      72.5233      1.141     2.17     3.643277     20.47146       83.456         7     0.815     0.512  59.81   0
       156    569.2510    651.6777 300.1828276 +22.7438497     590.4489     72.56027      1.364     3.64     3.715869     20.47146     76.46989         9     0.957     0.808 -62.18   0
       157    598.9466    651.7595 300.1920475 +22.7527759     422.1241      72.5233      1.272     2.51     3.824027     20.47146     57.92987         7     0.734     0.629   9.12   0
       158    447.8043    650.5666 300.1453853 +22.7071156     823.3221     72.56027      1.369     2.74     3.798582     20.47146     115.8841        15     1.084     0.819 -80.97   0
       159    634.5763    649.6412 300.2038321 +22.7628488     207.1853     72.59723      1.232     3.61     3.788298     20.47146     38.28777         5     0.942     0.433  14.31   0
       160    881.4022    645.9484 300.2819474 +22.8357599     3115.182     72.54179      1.355     2.40     3.860602     20.47146      408.822        30     1.194     1.017  51.40   0
       161    413.2311    645.9989 300.1361119 +22.6954365     1715.345      72.5233      1.345     2.69     3.742024     20.47146     207.8213        19     1.037     0.925  66.54   0
       162    979.3412    644.0806 300.3130970 +22.8645642     631.8898     72.63416      1.383     3.30     3.724725     20.47146     90.68411        10     0.964     0.801  -3.24   0
       163    778.2327    643.2576 300.2506627 +22.8040727     414.6955     72.57876      1.485     3.66      3.79497     20.47146     54.91463         6     0.892     0.610  58.55   0
       164    455.4050    641.8327 300.1505896 +22.7068882     9557.344     72.54179      0.792     1.51      3.88894     20.47146     3465.453        12     0.644     0.483  53.46   0
       165    920.9011    636.1782 300.2974397 +22.8447868     184.5129     72.48631      1.250     3.61     3.859175     20.47146     52.67404         9     0.936     0.811 -40.87   0
       166    763.2949    641.5518 300.2465621 +22.7991062      277.753     72.59723      1.476     3.48     3.773645     20.47146     39.33854         5     1.025     0.341  22.02   0
       167    276.6365    632.8830 300.0978868 +22.6507034     9181.221     72.54179      1.396     2.49     3.698321     20.47146     1178.395        44     1.239     1.145  69.45   0
       168    399.0788    629.9442 300.1369270 +22.6865849     8792.188     72.59723      1.353     2.25     3.811767     20.47146      1211.79        39     1.180     1.089  81.13   0
       169    164.4864    627.2781 300.0648428 +22.6154501     366.3383     72.70798      1.724     3.84     3.982507     20.47146     37.64758         7     0.882     0.640 -18.78   0
       170   1003.6218    624.8804 300.3269123 +22.8663199     1015.616      72.5233      1.546     3.41     3.742019     20.47146     109.3152        17     1.122     1.001  62.39   0
       171    645.1857    626.1221 300.2147814 +22.7592761     426.1467     72.57876      1.382     3.33     3.924324     20.47146     43.72321         6     0.756     0.549  58.79   0
       172    810.8629    623.8147 300.2671525 +22.8082661      1929.24      72.5233      1.362     2.33     3.838139     20.47146     282.1996        22     1.079     0.974 -85.09   0
       173    895.3899    621.1034 300.2943848 +22.8328130     12510.04     72.48631      1.370     2.32     3.858621     20.47146     1594.276        46     1.187     1.166  68.81   0
       174    459.6723    619.4346 300.1591977 +22.7017391     11670.34     72.56027      1.302     2.26     4.103032     20.47146     1426.166        52     1.228     1.173  41.00   0
       175    187.1230    615.0531 300.0758519 +22.6187349      1357.76     72.59723      1.491     2.87      4.03281     20.47146     151.0745        19     1.050     0.993  11.32   0
       176    629.2437    615.2632 300.2133456 +22.7513795     627.2543     72.56027      1.398     2.52     4.047718     20.47146     86.53349         8     0.847     0.601   6.38   0
       177    345.1537    614.2064 300.1252663 +22.6658960     277.7833     72.57876      1.122     3.16      3.86809     20.47146     46.69764         5     0.773     0.509 -49.88   0
       178    434.1992    612.2522 300.1536049 +22.6920393     397.1105      72.5233      1.276     4.25     3.995943     20.47146     54.16495         8     0.971     0.649 -31.63   0
       179    391.3131    607.6958 300.1417418 +22.6778710     4426.004     72.74486      1.355     2.31     3.902816     20.47146     529.9878        30     1.128     1.033  82.55   0
       180    369.7121    606.0755 300.1355482 +22.6709280     1364.185     72.68954      1.369     2.25     3.903923     20.47146     183.1605        17     1.000     0.872 -36.50   0
       181    734.1384    607.5314 300.2485348 +22.7805977     848.5795      72.6157      1.305     2.44     3.930159     20.47146     111.4388        10     0.901     0.660  66.23   0
       182    124.0286    605.4658 300.0593581 +22.5970547     754.1739     72.54179      1.447     3.21     4.245449     20.47146     90.04845        10     0.982     0.700 -78.60   0
       183    811.1117    603.0690 300.2739730 +22.8023814     1702.952     72.72643      1.471     2.69     3.841506     20.47146     175.9018        21     1.041     0.994 -25.13   0
       184    507.9486    595.1824 300.1821054 +22.7092523     197811.2     72.56027      1.343     2.18     4.275679     20.47146     28878.95       211     1.468     1.446 -86.15   0
       185    691.6340    600.2694 300.2376524 +22.7657738     717.9827     72.56027      1.226     2.38     3.986676     20.47146     109.6232        11     0.887     0.716  61.56   0
       186    331.6346    601.3414 300.1252422 +22.6581496     317.4348     72.57876      1.169     2.68     3.871619     20.47146     48.53484         5     0.704     0.467 -77.00   0
       187    785.0680    598.3696 300.2673832 +22.7932278     308.7607     72.54179      1.639     4.73     3.865778     20.47146     29.94512         7     0.907     0.700 -69.47   0
       188    194.1285    595.1970 300.0844823 +22.6151405     3165.086     72.50481      1.294     2.51     4.036151     20.47146     399.9709        28     1.145     1.050  78.80   0
       189    759.9206    590.9431 300.2619599 +22.7835593     689.3818     72.59723      1.340     2.44     3.899753     20.47146     79.12659         8     0.775     0.666 -42.96   0
       190    373.6248    591.6119 300.1414659 +22.6679505     277.9646     72.56027      1.100     3.50     3.929984     20.47146      41.6151         5     0.988     0.359 -20.98   0
       191    778.6282    589.4017 300.2682908 +22.7887222     231.5294     72.50481      1.445     3.85      3.87703     20.47146     31.92689         5     1.013     0.419 -16.06   0
       192    539.5565    581.7980 300.1962946 +22.7148858     271.0139     72.56027      1.272     3.43     4.262856     20.47146     35.21403         5     0.735     0.463  71.61   0
       193    398.5272    575.6078 300.1544140 +22.6708249     2819.972     72.54179      1.421     2.36     4.028862     20.47146     309.9899        29     1.449     0.949  88.71   0
       194    242.8139    578.0877 300.1051776 +22.6248364     444.8945     72.50481      1.583     3.75     3.901619     20.47146     61.97536         9     1.089     0.572  88.43   0
       195    848.4744    575.5128 300.2945752 +22.8056594     245.4751     72.70798      1.379     3.90      3.84367     20.47146      45.5055         7     0.891     0.666  71.38   0
       196    810.2380    571.3795 300.2839995 +22.7930162     405.1675     72.57876      1.478     3.26     3.857629     20.47146      55.6111         8     1.015     0.646 -41.74   0
       197    502.9744    570.9446 300.1884335 +22.7008028      274.224     72.56027      1.483     3.70       4.4582     20.47146     28.01268         5     0.636     0.619 -86.18   0
       198    715.8284    564.0488 300.2569610 +22.7626217     227.8058     72.57876      1.160     2.31     4.016183     20.47146     59.26914         7     0.681     0.670   7.76   0
       199    795.4719    561.6040 300.2825738 +22.7857839     1659.651     72.50481      1.288     2.35     3.871839     20.47146     193.7636        17     1.072     0.828  56.27   0
       200    682.0921    561.6987 300.2472145 +22.7518369     313.9327     72.74486      1.205     2.27     4.167485     20.47146     54.65886         5     0.729     0.423 -17.47   0
       201    666.7529    559.2875 300.2432197 +22.7465474     2572.843     72.54179      1.263     2.20      4.23292     20.47146      341.998        23     1.072     0.933  67.56   0
       202     26.4489    559.7625 300.0438920 +22.5546669     171.5579     72.57876      1.137     4.17     4.089218     20.47146     39.04076         7     1.010     0.492  85.21   0
       203    911.2441    556.6621 300.3202718 +22.8190467     495.1399     72.57876      1.373     3.35     3.888165     20.47146      60.9028         8     0.884     0.662  53.23   3
       204    909.7010    552.2845 300.3212131 +22.8173266     787.2493     72.72643      1.360     2.81     3.888803     20.47146     100.2098        11     1.029     0.658 -87.04   3
       205    876.3998    556.1464 300.3095747 +22.8084609     358.5295     72.50481      1.322     3.19     3.850497     20.47146     45.51981         5     0.746     0.436  68.40   0
       206    571.6494    555.7144 300.2147624 +22.7170169     435.5725     72.54179      1.228     2.51      4.44646     20.47146      64.8924         7     0.851     0.535  58.48   0
       207    453.9474    555.2452 300.1782757 +22.6815972     821.3744     72.57876      1.342     2.34     4.419796     20.47146     104.6069        10     0.814     0.729 -53.52   0
       208    924.1763    553.1400 300.3254491 +22.8219082     1289.343     72.54179      1.300     2.55     3.903988     20.47146     195.7444        15     0.969     0.889  26.69   0
       209    795.6953    551.5422 300.2859130 +22.7829602     2252.894     72.63416      1.577     3.20     3.876254     20.47146     317.2682        29     1.673     0.933  71.02   0
       210    335.3069    549.9734 300.1430764 +22.6445095     351.2662     72.50481      1.588     5.05     3.881202     20.47146     32.02219         8     1.229     0.587  45.07   0
       211    549.1460    549.7898 300.2096810 +22.7085703     881.0663     72.56027      2.021     2.86     4.566786     20.47146     74.24131         9     0.894     0.682  74.56   2
       212    387.5360    548.8869 300.1596769 +22.6598596     349.9965     72.65263      1.121     2.94     4.078429     20.47146     57.55192         8     0.756     0.717 -20.52   0
       213    834.0003    546.6546 300.2994408 +22.7930320     4074.493     72.48631      1.306     2.22     3.856095     20.47146     633.2764        30     1.108     1.039  76.85   0
       214    474.9785    546.2267 300.1877514 +22.6853135     217.7657     72.54179      1.287     3.80     4.591085     20.47146     41.33065         5     0.817     0.508  63.25   0
       215    494.8356    542.4078 300.1951727 +22.6901701     338.6781     72.56027      1.399     2.59     4.634097     20.47146      50.8861         5     0.733     0.428 -23.95   0
       216     66.0300    537.2354 300.0635068 +22.5600822     877.8327     72.57876      1.387     2.72     4.123963     20.47146     126.3693        16     1.098     0.942  35.56   0
       217    925.7653    536.9758 300.3311969 +22.8177391     493.2664     72.57876      1.301     2.72     3.899667     20.47146     92.49953        11     0.860     0.816 -36.44   0
       218    726.9852    530.5649 300.2713171 +22.7563470     458.5111     72.56027      1.619     3.07     3.955263     20.47146     50.77025         8     0.838     0.658 -85.17   0
       219    865.2346    534.3976 300.3131606 +22.7988671     167.7837      72.5233      1.138     3.43     3.799218     20.47146     33.98996         5     0.725     0.469  14.49   0
       220     58.3124    526.9370 300.0644548 +22.5548128     437.3584     72.67108      1.496     3.54     4.117821     20.47146      56.1466         8     0.842     0.677  52.93   0
       221    666.1762    521.1663 300.2554264 +22.7354258     365.7764     72.57875      1.122     2.30      4.22267     20.47146     59.62919         6     0.726     0.536  58.61   0
       222    607.5126    517.3712 300.2383881 +22.7167552     753.2758     72.56027      1.312     2.58     4.393701     20.47146     119.3232        12     0.906     0.826  43.87   0
       223   1014.9802    514.8252 300.3662212 +22.8380913     894.0964     72.57876      1.275     2.44     3.881569     20.47146      133.815        12     0.981     0.725  69.55   0
       224    667.9844    509.6873 300.2597190 +22.7326705     923.4335     72.50481      1.350     3.09     4.177912     20.47146     116.8995        14     1.091     0.764 -70.76   0
       225    922.0987    509.6720 300.3389248 +22.8087943     590.2458     72.70798      1.272     2.39     3.855085     20.47146     94.55714        10     0.898     0.689 -47.92   0
       226    825.2965    505.6556 300.3100486 +22.7786448     1067.119     72.65263      1.326     2.66     3.784731     20.47146     126.1242        11     0.879     0.763  87.02   0
       227    809.6434    502.0271 300.3063482 +22.7729131      602.311     72.57876      1.347     2.19     3.811318     20.47146     87.66848         9     0.806     0.666  21.81   0
       228    790.4724    501.7422 300.3004656 +22.7670881     386.3091     72.59723      1.418     3.44     3.834967     20.47146     67.18713         8     1.069     0.791  -7.92   0
       229    553.9348    500.1030 300.2273148 +22.6957383     3143.202     72.67108      1.303     2.23     4.626956     20.47146     474.5728        23     1.034     0.928  76.44   0
       230    914.1773    498.8777 300.3399615 +22.8033197     625.7318      72.5233      1.370     2.54     3.816127     20.47146     92.10878         9     0.848     0.714  76.29   0
       231    325.6587    487.8419 300.1602601 +22.6237838     279.1808     72.54179      1.282     2.34     3.993753     20.47146     49.60378         6     0.697     0.618 -13.73   0
       232    393.5990    487.2459 300.1815888 +22.6439833      355.842     72.56027      1.235     2.69     4.122032     20.47146     65.95075         7     0.860     0.599 -17.77   0
       233    965.2501    479.0443 300.3623328 +22.8129145     1266.589     72.59723      1.299     2.28     3.862859     20.47146     187.4421        17     0.976     0.915  60.84   0
       234    837.3560    478.6863 300.3225692 +22.7745077     580.8744     72.54179      1.149     2.41     3.699042     20.47146     101.5133        10     0.915     0.688  35.82   0
       235    923.5946    477.7728 300.3497544 +22.8000745     948.0585     72.54179      1.295     2.58     3.822797     20.47146     141.2955        14     0.934     0.841  30.17   0
       236    573.6033    475.8392 300.2413207 +22.6946650     200.4115     72.57876      1.214     3.44     4.534753     20.47146     28.14156         5     0.781     0.438  70.26   0
       237    664.5178    474.1112 300.2701961 +22.7214129     1084.957     72.67108      1.237     2.27     4.114656     20.47146     151.8549        16     0.933     0.898  62.19   0
       238    460.2284    474.5313 300.2064522 +22.6603077     493.8769     72.54179      1.233     2.14      4.49156     20.47146      75.1228         7     0.826     0.486   9.82   0
       239    168.3892    472.4127 300.1163719 +22.5721917     644.2368      72.4678      1.279     3.05     3.944988     20.47146     77.70573        13     1.069     0.800   9.62   0
       240    230.8908    468.0249 300.1372267 +22.5896778     3690.799     72.50481      1.384     2.32     3.926621     20.47146     500.4954        27     1.172     0.976  41.71   0
       241    964.0293    466.3166 300.3660865 +22.8088905     4425.763     72.57876      1.363     2.36     3.866104     20.47146     549.0479        31     1.161     1.036  84.86   0
       242    178.0868    462.9087 300.1224730 +22.5723731     7636.262     72.72643      1.411     2.47     3.943713     20.47146     932.0773        41     1.262     1.138  56.37   0
       243    943.9800    457.3228 300.3627547 +22.8003014     1789.808     72.56027      1.303     2.32     3.860552     20.47146      223.618        19     0.965     0.940  56.97   0
       244    563.0878    453.6577 300.2452513 +22.6851431     18182.08     72.63416      1.290     2.16     4.508708     20.47146     2738.731        51     1.192     1.087  75.44   0
       245    580.4949    453.3600 300.2507681 +22.6902743     891.6125     72.57876      2.002     5.85     4.461497     20.47146     65.09984        17     1.634     0.900 -42.40   0
       246    410.5028    455.0403 300.1973089 +22.6398052     278.9125     72.56027      1.158     2.72     4.167149     20.47146     39.34826         6     0.764     0.500  88.25   0
       247    962.8857    453.4517 300.3699086 +22.8048500     141.9306     72.57876      1.072     4.14     3.869617     20.47146       35.646         5     0.781     0.628 -72.16   0
       248    318.9193    457.0687 300.1681593 +22.6129300     4731.555     72.67108      1.318     2.22     4.039536     20.47146     683.3527        29     1.107     1.027  56.59   0
       249    759.9045    443.7092 300.3097901 +22.7412566     461.3678     72.74486      1.427     3.00     3.810571     20.47146     56.33697         8     0.896     0.593  -9.05   0
       250    182.9202    441.4943 300.1309302 +22.5676776     279.2031     72.68954      1.358     4.14      3.94919     20.47146     43.95037         5     1.155     0.423 -62.18   0
       251    896.8499    436.1358 300.3549389 +22.7800978     752.1625      72.6157      1.331     2.53     3.767995     20.47146     100.1197        10     0.864     0.699 -78.93   0
       252    433.7247    436.0189 300.2107126 +22.6413050     311.2801     72.56027      1.078     3.93     4.281598     20.47146      48.3818         6     1.022     0.449  60.63   0
       253    117.6965    433.8334 300.1131465 +22.5459172     1936.374     72.56027      1.374     2.44     3.990047     20.47146     273.0136        23     1.085     1.010  22.48   0
       254    503.7492    423.1056 300.2367004 +22.6585853     6390.368     72.63416      1.288     2.18     4.453763     20.47146     923.3969        36     1.158     1.024  77.52   0
       255    917.3864    423.4106 300.3654757 +22.7825901     1254.077      72.4678      1.364     2.29     3.840741     20.47146     152.3567        15     0.909     0.872 -53.30   0
       256    218.6758    422.7254 300.1481406 +22.5730140     641.2989     72.65263      1.279     2.75     3.953476     20.47146     77.76215        13     0.937     0.853 -50.99   0
       257    763.6079    415.0344 300.3202570 +22.7341265      474.306     72.56027      1.766     3.56     3.812295     20.47146     55.26656         6     0.996     0.597  67.27   0
       258     75.9874    415.5858 300.1061118 +22.5281710     569.6812     72.48631      1.571     3.54     3.933762     20.47146     71.86121        10     1.113     0.686  23.83   0
       259    617.4872    413.3731 300.2752745 +22.6898735     452.3011     72.54179      1.242     3.25     4.353801     20.47146     83.65679        10     1.053     0.660 -70.57   0
       260    707.9540    412.0624 300.3038805 +22.7166010     1137.051     72.59723      1.302     2.03     4.017142     20.47146     188.3122        15     1.147     0.683  81.53   0
       261    410.3329    409.4001 300.2120781 +22.6266500     6009.196     72.50481      1.254     2.25     4.225884     20.47146     729.3659        33     1.104     1.035  64.51   0
       262    899.6077    403.8017 300.3662999 +22.7716298      742.974     72.37522      1.492     2.55     3.821992     20.47146     93.16033        12     0.898     0.821  82.87   0
       263    802.3138    403.6036 300.3360323 +22.7424351     1421.548     72.48631      1.309     2.21     3.835711     20.47146     196.9442        17     0.994     0.875  12.64   0
       264    394.9227    397.9791 300.2109919 +22.6187514     426.5748     72.56027      1.095     2.42      4.22853     20.47146     68.76833         9     0.777     0.713  38.30   0
       265    477.8785    395.9394 300.2374694 +22.6430300     594.7182      72.6157      1.408     3.22     4.428707     20.47146     62.85365         7     0.892     0.483  43.27   0
       266    775.1536    391.2435 300.3315810 +22.7307481     560.4355     72.59723      1.421     2.88     3.842118     20.47146     69.19472        11     0.896     0.807 -41.01   0
       267    458.3496    393.7389 300.2321059 +22.6365451     214.4451      72.6157      1.129     3.47     4.372449     20.47146      38.5037         5     0.756     0.460 -77.81   0
       268    297.8421    388.6266 300.1838297 +22.5869635     2409.363     72.57876      1.345     2.38     4.151016     20.47146      327.913        24     1.087     0.997  66.63   0
       269     16.5432    385.9872 300.0972552 +22.5018479     1130.022     72.54179      1.575     4.18     3.832904     20.47146     114.7697        23     1.531     1.124 -55.19   0
       270    645.3870    383.1798 300.2937686 +22.6895586     300.0407      72.5233      1.327     3.10     4.150669     20.47146     38.74901         5     0.726     0.458  72.97   0
       271    267.2317    378.0971 300.1777291 +22.5747634     29350.21      72.5233      1.364     2.34     4.138909     20.47146     3673.262        74     1.350     1.217  65.76   0
       272    245.2507    381.9507 300.1696430 +22.5692791     241.9199     72.59723      1.337     3.88     4.099295     20.47146     29.64102         5     0.851     0.507 -35.80   0
       273    802.1059    375.3775 300.3451331 +22.7342608     1445.474     72.48631      1.273     2.20     3.895916     20.47146     218.8951        16     1.033     0.864 -18.04   0
       274    757.1245    373.0807 300.3318600 +22.7201285     233.9378     72.67108      1.082     3.09      3.83867     20.47146     48.01379         6     0.757     0.550  58.29   0
       275    840.1368    365.0230 300.3603500 +22.7426742     306.8004     72.54179      1.222     3.88     3.910641     20.47146     30.86125         6     0.947     0.455 -51.54   0
       276    141.1768    364.2986 300.1430212 +22.5330052     535.4685     72.48631      1.627     3.62     4.301555     20.47146     51.93185        10     0.979     0.747  38.19   0
       277    716.7692    364.0685 300.3222113 +22.7054511     625.2263     72.54179      1.418     4.07     3.870383     20.47146     70.91376        10     1.056     0.688  39.69   0
       278    365.6322    363.2979 300.2131395 +22.6000134     470.7318     72.54179      1.323     2.68     4.231574     20.47146     74.79121        11     0.988     0.706 -60.56   0
       279    677.6545    357.6521 300.3121084 +22.6918906     1988.814     72.59723      1.329     2.16     3.956538     20.47146     258.9526        21     1.081     0.903  69.64   0
       280    485.9276    352.3655 300.2541224 +22.6329276     371.7285     72.56027      1.292     2.81     4.397427     20.47146     52.67968         5     0.773     0.530 -81.56   0
       281    892.9041    350.3494 300.3815660 +22.7542570     501.6551     72.63416      1.203     2.17     3.938297     20.47146     80.78365         7     0.686     0.645  14.49   0
       282    339.4233    342.4907 300.2117414 +22.5861828     1987.313     72.48631      1.394     2.51     4.237339     20.47146     239.6643        23     1.204     0.940  62.31   0
       283    770.9898    335.8774 300.3482598 +22.7135893     259.5978      72.5233      1.086     2.57     3.985483     20.47146     48.20143         5     0.782     0.477  61.25   0
       284    778.6107    335.0399 300.3509068 +22.7156309     519.6253     72.56027      1.275     2.86     4.011661     20.47146     83.03493         9     0.889     0.672 -45.45   0
       285    660.7527    333.0297 300.3148371 +22.6797526     375.4121     72.57876      1.233     2.03     4.073587     20.47146     75.26488         7     0.704     0.617  64.84   0
       286    629.0931    332.1864 300.3052495 +22.6700263     252.7188     72.48631      1.201     4.46     4.115355     20.47146     43.45456         7     1.124     0.582  -6.55   0
       287    415.2694    321.6850 300.2420923 +22.6029410     1178.077     72.67108      1.218     2.27     4.334043     20.47146     175.8105        13     0.968     0.746  73.94   0
       288    222.4876    322.0457 300.1820129 +22.5452580     335.3711     72.54179      1.070     3.69     4.216372     20.47146     36.15956         6     0.790     0.495  83.43   0
       289    500.7066    319.5395 300.2693791 +22.6279275     196.9489     72.65263      0.992     3.43     4.370804     20.47146     39.98407         5     0.759     0.448  20.91   0
       290    926.5799    317.6053 300.4026977 +22.7549258     308.9747     72.54179      1.474     3.34     3.982763     20.47146     37.47913         5     1.073     0.301 -21.96   0
       291    660.1422    313.5590 300.3209675 +22.6739749     2267.428     72.54179      1.275     2.12     4.180686     20.47146     318.0271        22     1.072     0.936  85.61   0
       292    798.6137    314.5764 300.3637843 +22.7157395     329.6434     72.56027      1.104     3.02     4.199743     20.47146     49.33102         7     0.822     0.652  13.74   0
       293    921.3600    307.8391 300.4042402 +22.7505551     3213.763     72.63416      1.340     2.16     4.007984     20.47146     465.0613        30     1.193     1.030 -88.69   0
       294    982.6412    302.6172 300.4250487 +22.7673986     444.7583     72.57876      1.426     3.27     3.720604     20.47146     61.68121         9     0.911     0.696 -18.42   0
       295    368.2218    297.4385 300.2353242 +22.5818775     605.9706     72.57876      1.268     2.69     4.322269     20.47146     87.26797        10     0.913     0.692 -14.00   0
       296    990.7590    295.7196 300.4298200 +22.7678449     1698.322      72.5233      1.377     2.29     3.672675     20.47146     236.8664        22     1.115     1.002 -10.69   0
       297     74.2380    291.9505 300.1457040 +22.4921681     702.5198     72.57876      1.345     3.15     4.434021     20.47146     75.72431        13     0.990     0.867 -81.74   0
       298     43.4201    291.8117 300.1361744 +22.4828864     1324.576     72.54179      1.709     3.65     4.465408     20.47146     139.8095        22     1.368     1.026 -25.99   0
       299    937.1539    287.8856 300.4156427 +22.7495460     458.1035     72.54179      1.275     2.62     3.999061     20.47146     90.76134        12     0.926     0.858  71.42   0
       300    780.7924    285.0992 300.3677980 +22.7019298     282.3325      72.4493      1.255     3.88     4.314219     20.47146     47.87357         6     0.916     0.471  50.27   0
       301    126.9902    283.5893 300.1648099 +22.5055864     483.4027      72.4493      1.508     4.19     4.438769     20.47146     62.68781        10     1.011     0.888  37.93   0
       302    922.2415    281.1909 300.4131650 +22.7431568      419.051     72.56027      1.399     1.89      4.05529     20.47146     58.75246         6     0.688     0.533  38.23   0
       303    803.6187    277.0559 300.3775231 +22.7064528     324.7063     72.54179      1.166     2.07     4.373348     20.47146     63.15629         7     0.724     0.661 -85.90   0
       304    731.8463    274.9644 300.3558342 +22.6843592     673.7743     72.59723      1.279     2.77     4.172345     20.47146     90.35571         9     0.820     0.747  -9.16   0
       305    321.9484    274.6587 300.2283230 +22.5614670     344.6859      72.6157      1.130     2.35     4.334167     20.47146     62.05185         7     0.728     0.624  12.74   0
       306    822.7152    267.6535 300.3865274 +22.7094677     343.9784      72.6157      1.095     2.26     4.306453     20.47146     65.21665         6     0.703     0.560 -44.81   0
       307    829.9590    263.9485 300.3899880 +22.7105715     1989.687     72.56027      1.310     2.16     4.289035     20.47146     306.7363        23     1.075     0.947  86.81   0
       308    248.4173    261.4827 300.2097312 +22.5356435     2063.771      72.5233      1.327     2.68     4.276594     20.47146     225.8318        18     1.043     0.908  85.01   0
       309    326.2560    256.4243 300.2355804 +22.5575216     1053.261     72.56027      1.513     3.74     4.333944     20.47146      98.9423        18     1.224     0.948 -69.39   0
       310     78.3309    256.9361 300.1583387 +22.4833459     439.8675      72.6157      1.715     3.87     4.474726     20.47146      36.0931         6     1.031     0.417  76.63   0
       311    728.0435    255.7518 300.3608847 +22.6776981       624.62     72.57876      1.312     2.38     4.186351     20.47146     100.0446         9     0.884     0.608  30.13   0
       312    835.1763    252.6789 300.3952719 +22.7088936     394.3225      72.5233      1.231     3.35     4.297457     20.47146     60.39053         9     0.996     0.656  81.65   0
       313    142.9813    248.7445 300.1810875 +22.5003786     669.2512     72.54179      1.331     3.51     4.429236     20.47146     100.5308        13     1.025     0.926   2.75   0
       314    745.9575    244.9238 300.3699808 +22.6799501      660.091     72.54179      1.618     3.05     4.210753     20.47146      76.1873        10     1.004     0.683 -89.24   0
       315    681.0245    245.3354 300.3496156 +22.6606232     1676.965     72.54179      1.289     2.24     4.228146     20.47146     230.4333        17     1.036     0.847  77.36   0
       316    164.5217    241.9200 300.1899971 +22.5048773     558.6729     72.68954      1.364     2.80     4.415417     20.47146      80.9963         9     0.928     0.663 -63.76   0
       317    952.5807    237.5766 300.4367821 +22.7396966     892.0223     72.56027      1.479     3.18     3.909377     20.47146     97.38653        15     1.036     0.949  87.82   0
       318    685.0673    236.8486 300.3536291 +22.6593947     762.6906     72.56027      1.350     3.09     4.213273     20.47146     110.9429        12     1.066     0.700  60.67   0
       319    454.4695    238.0298 300.2814417 +22.5906589     296.6313     72.56027      1.193     2.35     4.313735     20.47146     60.16117         6     0.767     0.498 -87.24   0
       320    605.5120    236.1683 300.3290696 +22.6353722     1182.608      72.5233      1.194     2.36     4.185055     20.47146     157.4616        15     0.936     0.831 -82.57   0
       321    426.9170    232.4779 300.2746687 +22.5808087     363.9229     72.67108      1.198     3.89     4.328795     20.47146     48.11333         7     1.049     0.468 -48.47   0
       322    812.9765    226.9786 300.3966917 +22.6948581     705.0921     72.56027      1.229     2.01     4.373798     20.47146     133.9592        10     0.847     0.694 -56.81   0
       323    800.9361    227.5795 300.3927437 +22.6914260     1326.128     72.54179      1.321     2.26     4.383249     20.47146     206.3292        16     0.998     0.850  69.76   0
       324    531.6943    227.8114 300.3087959 +22.6108591     964.6878     72.50481      1.297     2.45      4.25447     20.47146     152.2574        13     0.908     0.810  70.87   0
       325    859.5640    225.7844 300.4116026 +22.7084621     197.2118     72.56027      1.144     3.87      4.34099     20.47146     41.19912         6     0.717     0.668 -23.59   0
       326    973.8242    217.4532 300.4499384 +22.7402674     1565.459     72.57876      1.344     2.30     3.843781     20.47146     236.3454        17     0.970     0.897  76.07   0
       327    929.6414    216.8692 300.4363473 +22.7268754     1244.189     72.54179      1.458     2.31     4.110568     20.47146     164.0681        14     0.903     0.843  24.18   0
       328    163.5412    210.1800 300.1999908 +22.4954709     723.9088     72.50481      1.564     3.30     4.416433     20.47146     96.16697        15     1.079     0.952  -3.08   0
       329     25.6847    205.0696 300.1588114 +22.4526730     2252.532     72.67108      1.550     2.65     4.656995     20.47146     271.3895        27     1.225     1.099  51.36   0
       330    848.9450    202.0052 300.4160079 +22.6984457     588.8038     72.56027      1.283     2.67     4.398141     20.47146     106.1241        10     0.946     0.687  46.73   0
       331    183.1489    198.4438 300.2098934 +22.4979789     5630.273     72.59723      1.417     2.52     4.391509     20.47146      637.945        37     1.269     1.121  64.55   0
       332    165.0609    199.0595 300.2040711 +22.4927336     435.1558      72.6157      1.231     3.64     4.422001     20.47146     43.11495         5     0.641     0.594  -3.60   0
       333    166.1884    189.2348 300.2076089 +22.4902507     675.9783     72.56027      1.610     2.94     4.427599     20.47146     61.95122        10     0.882     0.741  81.82   0
       334    981.9425    185.6016 300.4628057 +22.7335356     18082.07     72.50481      1.387     2.32     4.061953     20.47146     2616.526        55     1.287     1.177 -88.52   0
       335    827.1531    179.7189 300.4164451 +22.6855138     3439.515     72.56027      1.317     2.18     4.446416     20.47146     524.2182        26     1.085     0.983  72.87   0
       336    930.7689    178.4709 300.4491577 +22.7161696     2740.507     72.56027      1.289     2.22     4.360842     20.47146     392.2786        23     1.056     0.976  62.48   0
       337    376.3731    175.0722 300.2775667 +22.5491739     595.0114     72.56027      1.276     2.83     4.332719     20.47146      74.3168        10     0.878     0.736  67.70   0
       338    129.6748    176.0842 300.2005260 +22.4755295     256.3644     72.65263      1.134     2.72     4.442874     20.47146      46.2841         5     0.788     0.459 -36.60   0
       339    300.8042    166.8192 300.2567365 +22.5241594     646.6918     72.50481      1.287     2.51     4.362616     20.47146     75.29427         8     0.763     0.669 -46.25   0
       340    304.9246    165.5272 300.2584372 +22.5250231     338.2342     72.63416      1.471     3.49     4.360729     20.47146     48.30898         7     0.944     0.712  88.49   0
       341     66.5555    164.0697 300.1848092 +22.4531580     654.3958      72.5233      1.495     3.08     4.479393     20.47146     81.01434        13     1.041     0.827  51.68   0
       342    427.9431    162.3337 300.2977455 +22.5609649     1717.152     72.59723      1.322     2.31     4.323633     20.47146     223.6253        18     1.005     0.866  72.54   0
       343    355.8648    162.6708 300.2752093 +22.5394666     532.4597     72.59723      1.334     3.49     4.332444     20.47146     67.65081        10     0.856     0.832  27.05   0
       344    489.6905    161.1344 300.3173526 +22.5791179     386.1493     72.68954      1.235     2.46     4.275522     20.47146     52.49998         7     0.701     0.655 -87.13   0
       345    171.6130    157.9238 300.2194521 +22.4828863     419.9753     72.57876      1.330     4.40     4.446695     20.47146     53.56264        10     1.017     0.873 -68.14   0
       346    716.1984    151.4442 300.3910377 +22.6441667     278.4951     72.56027      1.270     3.58     4.391272     20.47146     48.14479         9     0.911     0.693 -72.59   0
       347    862.2300    146.1100 300.4382837 +22.6863488     381.3808      72.5233      1.272     2.81     4.427856     20.47146     41.07605         6     0.728     0.566  52.17   0
       348    992.2320    143.0179 300.4798305 +22.7243653     3678.859     72.54179      1.456     2.48     4.247684     20.47146     456.0174        34     1.465     1.140 -32.89   0
       349    202.0309    142.2423 300.2339945 +22.4875001     6027.254     72.59723      1.434     2.52      4.45883     20.47146     696.4852        38     1.331     1.078  70.11   0
       350    708.2462    142.3472 300.3915109 +22.6391704     321.0497     72.59723      1.362     3.58     4.402649     20.47146     43.81015         5     0.872     0.423  47.02   0
       351     53.0467    141.9569 300.1877846 +22.4427600     719.1757     72.59723      1.427     2.62     4.623742     20.47146     86.85384         9     0.781     0.745  -8.36   0
       352    831.3094    139.4355 300.4308089 +22.6751741      301.346     72.54179      1.058     2.47     4.425483     20.47146     56.52092         5     0.697     0.451  22.84   0
       353    173.7231    136.1703 300.2271639 +22.4772721     433.4397     72.54179      1.257     2.46     4.455754     20.47146     62.98849         6     0.722     0.600   0.80   0
       354    217.1166    133.2606 300.2415978 +22.4894418     375.1885     72.67108      1.301     3.95     4.479065     20.47146     44.07775        10     0.946     0.764  58.09   0
       355    448.1357    127.5462 300.3153136 +22.5570188     6130.753     72.59723      1.333     2.35     4.351563     20.47146     844.4433        36     1.218     1.076  81.65   0
       356    333.3839    127.3888 300.2796601 +22.5225955     695.0017     72.50481      1.432     3.47     4.426338     20.47146     95.47545        12     1.099     0.796  55.80   0
       357    505.0727    122.0033 300.3348337 +22.5724805     434.3887     72.50481      1.372     2.42     4.272154     20.47146     47.76658         5     0.614     0.582 -89.65   0
       358    700.5722    117.0347 300.3973302 +22.6295955     841.9809     72.57876      1.424     2.14     4.445445     20.47146     121.7905         9     0.936     0.615 -67.33   2
       359    641.9367    118.3726 300.3786298 +22.6124239     352.1473     72.56027      1.283     2.13     4.298517     20.47146     58.70072         7     0.718     0.645  20.23   0
       360    793.1122    115.9357 300.4265247 +22.6569827     379.1574     72.67108      1.159     2.56     4.429781     20.47146      67.3567         6     0.739     0.538 -63.19   0
       361    141.2182    111.5238 300.2250538 +22.4604523     500.0499     72.56027      1.635     3.31     4.450437     20.47146     53.50481         9     0.902     0.714  25.47   0
       362    499.5376    109.6912 300.3371038 +22.5672844     470.6671     72.65263      1.439     3.98      4.27783     20.47146     49.23743         7     0.841     0.675  85.68   0
       363    576.3920    107.5703 300.3617200 +22.5896917     6160.457     72.56027      1.272     2.27     4.239398     20.47146     802.3781        33     1.161     1.008  66.34   0
       364    351.4905    106.5529 300.2920503 +22.5220347     1542.426     72.54179      1.449     2.34     4.465884     20.47146     176.1929        20     1.097     0.926  76.02   0
       365    617.4359    104.8628 300.3753802 +22.6012040     894.3146     72.56027      1.323     2.38     4.255047     20.47146     119.0756        14     0.947     0.815  36.49   0
       366    687.2618    102.4842 300.3979025 +22.6214271     346.4861     72.67108      1.065     2.64     4.428473     20.47146     42.48592         5     0.715     0.432  26.23   0
       367    633.6841    100.6872 300.3817952 +22.6048688     771.9562     72.68954      1.817     3.95     4.294446     20.47146     76.89034        12     1.244     0.717 -35.59   0
       368    100.0702     99.1040 300.2162935 +22.4445526     626.2661     72.68954      1.395     3.27     4.450437     20.47146     75.07802        12     1.014     0.829  52.74   0
       369    903.7548     98.5340 300.4666632 +22.6850928     523.4152     72.56027      1.564     3.53     4.269617     20.47146     63.43242        10     1.084     0.654  84.54   0
       370    942.4319     97.7936 300.4789654 +22.6964538     319.6299     72.56027      1.265     2.28     4.273217     20.47146     46.78985         5     0.687     0.468 -71.21   0
       371    672.0529     96.1665 300.3952133 +22.6150572     406.1593     72.57876      1.258     2.71     4.385493     20.47146     58.12255         8     0.825     0.625 -53.22   0
       372    620.6931     92.4205 300.3804299 +22.5986026     2706.486     72.48631      1.291     2.30     4.300597     20.47146     340.0302        24     1.112     0.940 -86.01   0
       373    261.5803     93.0841 300.2684532 +22.4912268     514.5149     72.50481      1.507     4.54     4.571234     20.47146     47.86399         9     1.012     0.747  88.54   0
       374    635.7221     91.3058 300.3854725 +22.6027821      943.941     72.67108      1.864     4.85     4.336833     20.47146      84.1921        17     1.543     0.779  58.01   0
       375    707.0284     84.0983 300.4100237 +22.6220585     1363.162     72.50481      1.290     2.09     4.545909     20.47146     226.3199        19     1.018     0.957 -28.86   0
       376    645.0980     77.0567 300.3930138 +22.6014929     699.0568     72.65263      1.351     3.01     4.432262     20.47146      95.9093        11     0.995     0.711  84.86   0
       377    450.8064     76.4984 300.3327001 +22.5431498     1089.884      72.4493      1.400     2.45     4.549818     20.47146      133.846        16     1.132     0.763  84.55   0
       378     24.0820     76.5602 300.1999941 +22.4153021      643.913      72.5233      1.618     4.58     5.311052     20.47146     59.48644        14     1.234     0.860 -52.85   0
       379    354.4981     74.7090 300.3033126 +22.5137869     773.5494     72.74486      1.317     2.70      4.69788     20.47146     95.60347        11     0.873     0.782  52.12   0
       380    997.4788     71.4321 300.5046855 +22.7053402     2297.237     72.54179      1.342     2.26     4.271235     20.47146     287.2231        25     1.126     1.013  88.62   0
       381    736.7787     73.1284 300.4228512 +22.6278101     435.1331     72.56027      1.226     2.60     4.645463     20.47146     61.64564        10     0.853     0.750 -10.10   0
       382    126.0072     64.8397 300.2354647 +22.4424873     3860.435     72.59723      1.489     2.61     4.647957     20.47146      444.691        33     1.251     1.147  72.41   0
       383    694.1205     64.9234 300.4122202 +22.6126809     577.1105     72.67108      1.274     2.67     4.569519     20.47146     90.37176        10     0.955     0.658 -68.59   0
       384    256.1957     65.0008 300.2758853 +22.4815464     254.2611     72.37522      1.481     3.08     4.822683     20.47146     43.64597         5     0.902     0.617  58.01   0
       385    548.4853     62.0586 300.3677895 +22.5682530      419.908     72.67108      1.501     2.35     4.320419     20.47146     49.99253         6     0.746     0.494  82.25   0
       386    451.8434     61.5758 300.3378617 +22.5391720     381.5341      72.6157      1.735     3.76     4.665454     20.47146     55.36145         8     1.047     0.774  85.78   0
       387    687.1109     56.9516 300.4126212 +22.6082903     853.9416     72.54179      1.335     2.63     4.586086     20.47146     120.3176        13     1.044     0.756 -80.31   0
       388    242.0309     56.9020 300.2741066 +22.4749758     1116.361     72.50481      1.403     2.53     4.897086     20.47146     155.2131        16     0.976     0.906  33.62   0
       389    652.9597     56.0234 300.4022832 +22.5977995     386.9908     72.59723      1.192     2.05     4.554836     20.47146      53.2981         5     0.601     0.570   1.53   0
       390    724.9218     52.0381 300.4259954 +22.6181961     654.0676     72.54179      1.493     4.05     4.647822     20.47146     67.27547        13     1.249     0.690  63.81   0
       391    648.1083     51.5470 300.4022235 +22.5950600     431.1229      72.6157      1.675     4.61     4.572618     20.47146      54.8648        10     1.199     0.625  54.99   0
       392    745.0189     48.3238 300.4334623 +22.6231437     2282.596     72.56027      1.363     2.25     4.616591     20.47146     300.3744        26     1.120     1.022  85.31   0
       393    450.8859     46.6635 300.3423989 +22.5345996      378.644     72.65263      1.349     4.40     4.778625     20.47146     52.77351         9     1.151     0.604  54.63   0
       394    128.3998     43.8236 300.2430223 +22.4371688     1012.282     72.48631      1.733     3.33      4.77758     20.47146     86.46825        17     1.121     0.943 -43.06   0
       395    920.1586     41.6778 300.4902165 +22.6736457      800.265     72.54179      1.423     2.77     4.247787     20.47146     101.0653        12     0.923     0.804  87.24   0
       396    693.5555     40.7869 300.4198705 +22.6055715     918.7871     72.56027      1.379     2.82     4.649262     20.47146     113.4972        15     1.068     0.782  60.32   0
       397    400.3041     39.1672 300.3290885 +22.5172954     207.8943     72.54179      1.088     2.66      4.63393     20.47146     52.36118         6     0.850     0.588 -17.76   0
       398    278.2041     30.5785 300.2938901 +22.4782516     296.1687      72.5233      1.351     3.90     5.123697     20.47146     53.24677         7     0.970     0.600  52.11   0
       399    546.0486     25.7131 300.3788153 +22.5570757     837.1226     72.56027      1.296     2.67     4.390066     20.47146     116.9218        11     0.936     0.732 -80.64   0
       400    681.4451     23.2228 300.4217922 +22.5968957     358.7655     72.59723      1.416     4.41     4.716819     20.47146     35.20186         7     1.120     0.495 -87.46   0
       401    155.7295     23.2428 300.2581891 +22.4394479     578.8942      72.5233      1.580     2.96     4.907203     20.47146     61.33661         8     0.804     0.672  29.24   0
       402    709.0656     20.6932 300.4312178 +22.6044361     773.4083     72.68954      1.356     2.30     4.704986     20.47146     109.8442        10     0.835     0.713  83.43   0
       403    120.2826   1012.3047 299.9258704 +22.7125668     1303.233     72.74486      8.247    11.66      29.2473     20.47146     47.30538        26     2.684     1.410  75.04  26
       404    240.4512     16.3152 300.2867740 +22.4628432     717.5745     72.54179      1.442     2.67     5.252815     20.47146     73.71397        13     0.937     0.816  50.08   0
       405    606.9698   1014.7184 300.0764702 +22.8593423     6631.892     72.56027      1.685     3.37     3.102118     20.47146     476.8423        43     1.358     1.331  -8.45   0
       406     81.0149   1012.6221 299.9135669 +22.7008651      1316.93     72.56027      9.987    11.95     44.00119     20.47146     41.32823        25     2.259     1.761  37.46  17
       407    197.7620   1008.8827 299.9510628 +22.7348516     719.4117      72.5233      2.190     5.00     10.62126     20.47146     69.32312        16     1.435     0.907 -14.76   0
       408    486.0832   1008.8630 300.0407438 +22.8213911     457.2887     72.65263      1.730     5.05     3.223677     20.47146     44.01645         9     0.973     0.743  14.17   0
       409    759.0154   1008.0118 300.1260144 +22.9030264     449.3985     72.50481      2.279     5.23     3.068348     20.47146     36.79436         7     0.992     0.779  -4.83   0
