#   1 NUMBER                 Running object number                                     
#   2 X_IMAGE                Object position along x                                    [pixel]
#   3 Y_IMAGE                Object position along y                                    [pixel]
#   4 ALPHA_J2000            Right ascension of barycenter (J2000)                      [deg]
#   5 DELTA_J2000            Declination of barycenter (J2000)                          [deg]
#   6 FLUX_APER              Flux vector within fixed circular aperture(s)              [count]
#   7 FLUXERR_APER           RMS error vector for aperture flux(es)                     [count]
#   8 FLUX_RADIUS            Fraction-of-light radii                                    [pixel]
#   9 FWHM_IMAGE             FWHM assuming a gaussian core                              [pixel]
#  10 BACKGROUND             Background at centroid position                            [count]
#  11 THRESHOLD              Detection threshold above background                       [count]
#  12 FLUX_MAX               Peak flux above background                                 [count]
#  13 ISOAREA_IMAGE          Isophotal area above Analysis threshold                    [pixel**2]
#  14 A_IMAGE                Profile RMS along major axis                               [pixel]
#  15 B_IMAGE                Profile RMS along minor axis                               [pixel]
#  16 THETA_IMAGE            Position angle (CCW/x)                                     [deg]
#  17 FLAGS                  Extraction flags                                          
         1    512.2191     15.9882 300.3327355 +22.5431563      1181.43     72.18584      1.613     3.11     5.351094      20.3762     132.2931        19     1.141     0.976 -59.58   0
         2    415.8513     14.3599 300.3032572 +22.5138450       849.34     72.22264      1.465     3.32     5.553211      20.3762      96.4053        17     1.132     0.992 -11.35   0
         3    798.2484     13.0426 300.4228240 +22.6278851     519.2925     72.24104      1.555     4.16      5.21961      20.3762     52.52553         9     1.000     0.650 -59.20   0
         4    755.2674      5.1818 300.4119699 +22.6127671     665.5132     71.87227      1.420     2.91     5.728716      20.3762     80.15122        10     0.970     0.661 -65.01  16
         5    187.2277      4.0665 300.2354563 +22.4424372     3774.883     68.96674      1.649     3.14      5.30622      20.3762      367.487        32     1.374     1.176  47.27  24
         6    513.1865      1.6194 300.3376921 +22.5393134     288.5951     57.83971      1.175     2.37      5.36683      20.3762     44.76714         5     0.714     0.445 -20.42  24
         7    179.1104   1000.8896 299.9093155 +22.7261578     332.0026     72.38802      1.805     5.16     83.41345      20.3762     52.25895         5     1.566     0.480 -37.10   3
         8    217.4510   1004.0818 299.9201988 +22.7385784     2245.334     72.24104     -4.282    33.63     80.69046      20.3762     77.10314       192     7.037     4.462 -23.17  19
         9    265.2223   1014.2382 299.9317516 +22.7558252     2392.619     72.24104      6.915    28.08     37.96168      20.3762     57.43399       160     6.794     3.222 -77.47  19
        10    215.2289    986.6765 299.9251700 +22.7329204     4252.033     72.20424      7.772    22.51     65.82808      20.3762     90.28945       286     5.281     4.609 -39.82   3
        11    235.0896    985.2368 299.9318148 +22.7384669     5938.009     72.20424      9.005    37.90     53.77601      20.3762     123.2445       488     7.887     5.055  66.87  19
        12    254.4661    974.7419 299.9412550 +22.7412708     8851.171     72.25942     13.139    41.20     32.30219      20.3762     186.8639      1122    13.558     6.212  73.37  27
        13    562.8213    992.0762 300.0315870 +22.8387331     2425.992     72.22264      2.062     4.75     3.952723      20.3762     145.0399        37     1.535     1.466 -63.65   0
        14    649.2132    987.4145 300.0600153 +22.8632980      8808.12     72.14902      2.040     5.47     4.471818      20.3762     487.7978        48     1.654     1.481  15.11   3
        15    654.6359    984.8218 300.0625483 +22.8641795     9481.818     72.24104      2.034     5.14     4.500834      20.3762     558.0947        46     1.599     1.389  32.95   3
        16    749.3906    987.8676 300.0910865 +22.8934583     695.5955     72.22264      2.135     7.94     4.544676      20.3762     49.29578        15     1.581     1.115 -10.08   0
        17      4.0379   1007.1866 299.8528547 +22.6754158     1987.666     68.88964      3.296    12.35    -26.32358      20.3762     65.47213        46     2.787     1.523 -27.08  27
        18    188.7034    994.0358 299.9145278 +22.7270712     2400.548     72.22264      6.550    24.26     75.97491      20.3762      64.2941        97     4.645     3.518  67.54   3
        19    182.3232    976.0876 299.9183826 +22.7200101     1824.406      72.3513      5.261    18.61     61.70627      20.3762     57.18208        82     4.641     2.074  72.24   1
        20     12.6474    981.5694 299.8638628 +22.6706575      1275.11     72.24104     10.279    11.63    -9.639674      20.3762      42.9164        22     2.954     1.274  53.50  19
        21     17.4997    972.8635 299.8682022 +22.6696186     790.3896     72.31456      4.239     4.18    -4.606812      20.3762     31.65559         5     1.507     0.331 -48.05   1
        22    942.0248    971.5082 300.1564789 +22.9464881      697.949     72.16743      2.031     7.90     4.721307      20.3762     44.11381        15     1.693     1.031  -1.43   0
        23      3.7137    967.0491 299.8658103 +22.6638137     1180.771     67.70297     10.876    13.15    -11.52081      20.3762     43.79474        26     2.757     1.745 -71.27  25
        24    151.4289    960.3056 299.9139110 +22.7062139     704.4437     72.14902      2.389     3.53     50.18784      20.3762     38.03032         5     1.125     0.319  70.21   3
        25    145.7596    959.7882 299.9123167 +22.7043642     1460.807     72.20424      8.953    12.89     49.23273      20.3762     46.70285        32     2.604     1.776 -40.73   3
        26    161.5021    956.5905 299.9182510 +22.7081713     1711.675      72.1306      6.007    14.09     49.42485      20.3762     48.42693        46     2.715     2.033  14.47   2
        27    667.6101    954.3398 300.0765070 +22.8593188     6883.007     72.18584      1.929     4.41     4.500159      20.3762      405.369        47     1.533     1.444   5.94   0
        28      4.7833   1017.6718 299.8496752 +22.6786448     3165.872     71.07294      8.701    36.93    -29.07594      20.3762     69.37756       303     7.477     5.063 -22.70  27
        29    103.4377   1011.3796 299.8823787 +22.7064546     4088.574     72.24104     14.922    76.57      86.6806      20.3762     151.2001      1619    15.650    10.395  42.70  27
        30    258.3340    948.1692 299.9511014 +22.7348100     631.6593     72.22264      2.362     8.39     17.32124      20.3762     46.46801        17     1.564     1.258  62.39   0
        31    575.8962    945.1449 300.0509263 +22.8291841     1400.491     72.31456      1.811     4.91     4.098292      20.3762     107.5653        29     1.493     1.317 -15.58   0
        32    400.4585    939.5493 299.9981243 +22.7749698     6849.247     72.27781      1.909     4.24     4.475642      20.3762     474.8694        45     1.491     1.427   6.56   0
        33    469.8069    941.4974 300.0190770 +22.7963265     980.2318     72.11217      1.832     5.04     3.993171      20.3762     83.74901        16     1.193     1.069  87.73   0
        34    371.1712    937.6860 299.9896159 +22.7656511     2837.606     72.22264      0.779     1.90     4.688606      20.3762     1240.988         8     0.752     0.395 -35.19   0
        35    190.7724   1000.9655 299.9129168 +22.7296791     1519.346     72.24104      3.652    13.23     81.70761      20.3762     61.78569        36     4.329     1.125  43.20  19
        36    433.2994    926.3453 300.0126405 +22.7810304     439.9716     72.31456      1.536     3.75      4.32071      20.3762     48.68882         9     0.896     0.780  79.95   0
        37      3.8223   1001.0935 299.8547699 +22.6736046     2275.808     68.05529      3.663    13.64    -24.10316      20.3762     62.51815        53     2.646     1.957  29.76  27
        38    184.6643    998.4084 299.9118495 +22.7271130     2118.594     72.20424      4.080    19.49     79.99612      20.3762     67.02181        77     4.928     2.141  44.74  19
        39    946.8132    918.4269 300.1752399 +22.9326750     2169.361     72.22264      2.005     5.68     4.447149      20.3762     121.5117        32     1.541     1.342  60.70   0
        40    597.0240    915.5760 300.0671247 +22.8270310      450.243     72.18584      1.921     5.64     4.211761      20.3762     31.68885         7     1.088     0.824  19.77   0
        41    162.6854   1006.7501 299.9023023 +22.7229090     614.1168     72.20424      2.534     8.00      90.6594      20.3762     39.96532         9     1.805     1.000  54.44   0
        42     92.9155    916.5394 299.9099565 +22.6761052     4404.185     72.33293     18.605    44.74     10.35913      20.3762     86.70305       872    10.553     6.698 -37.30   3
        43    735.8486    907.2305 300.1130958 +22.8662467     696.6894     72.25942      2.075     6.79     4.441308      20.3762     51.60269        17     1.563     1.025  46.45   0
        44    770.2548    901.6254 300.1256436 +22.8749482     1089.124     72.25942      1.853     4.92     4.413938      20.3762     68.62535        19     1.242     1.119  -5.04   0
        45    224.9720    893.9718 299.9583515 +22.7092559     930.5878     72.18584      8.889     9.14      8.64192      20.3762     35.04647        13     2.712     0.860  62.19   2
        46    547.2716    901.7169 300.0561359 +22.8081371     449.8387      72.3513      1.720     5.58     4.157334      20.3762     31.16912         9     1.324     0.662  -7.45   0
        47    792.7146    895.1817 300.1347411 +22.8798281     11376.81     72.16743      1.849     4.12     4.398852      20.3762     693.5831        55     1.502     1.466  36.06   0
        48     92.3494    951.0939 299.8985426 +22.6858430     5450.271     72.29619     25.727   107.30     29.74235      20.3762     1186.352      3855    20.233    15.787 -29.52  19
        49    838.0249    895.4964 300.1487665 +22.8934953     345.7928     72.14902      1.777     6.13     4.394374      20.3762     30.71495         7     1.419     0.745 -85.99   0
        50      7.5029    993.3898 299.8584194 +22.6725014     2607.379     72.11218     14.399    33.66    -17.23735      20.3762     64.77882       252     8.085     3.890  61.92  19
        51    104.1009    886.5234 299.9231938 +22.6708546     1295.244     72.36966      6.118     6.02     8.415581      20.3762     65.04537        22     1.424     1.377 -64.72   2
        52    985.0248    895.5404 300.1946058 +22.9375465     419.4111     72.22264      2.332     3.86     4.440369      20.3762      31.1057         5     0.768     0.609 -86.48   0
        53    158.3682    885.3760 299.9404365 +22.6868083     650.9244     72.20424      5.633     5.50     13.60141      20.3762     30.61817         5     1.028     0.829  77.36   0
        54    498.3401    883.6170 300.0467848 +22.7882715     340.5145     72.18584      1.652     4.50     4.300775      20.3762     39.36203         7     1.000     0.575 -60.29   0
        55    502.2140   1001.1526 300.0097607 +22.8231629     445.2081     72.22264      2.014     6.70     3.813722      20.3762     32.40329         9     1.609     0.782 -24.98   0
        56     94.3238    877.8189 299.9229852 +22.6654247     758.4085     72.22264      4.104     5.62     6.695774      20.3762     48.59308        13     1.260     1.096   2.49   0
        57    801.1093    877.2070 300.1432039 +22.8771812     1395.119      72.1306      1.768     3.98     4.399105      20.3762     102.0218        23     1.281     1.145 -24.46   0
        58    983.3379    876.8175 300.2001685 +22.9316618     387.9642     72.20424      1.693     3.68     4.386144      20.3762     38.01151         5     1.022     0.381   3.94   0
        59    654.5142    874.7300 300.0983186 +22.8325378     501.8468     72.33293      2.156     4.93     4.375526      20.3762     31.04593         6     1.158     0.595 -48.30   2
        60    839.0984    870.7266 300.1571565 +22.8867024     957.0928     72.36966      1.968     4.99     4.400681      20.3762     60.87197        18     1.240     1.041  17.58   0
        61    947.2042    867.4202 300.1919506 +22.9181386      508.012     72.18584      2.875     3.62     4.377257      20.3762     46.91362         6     1.032     0.865   7.66   0
        62    887.9407    861.9230 300.1752515 +22.8988064      603.005     72.27781      1.761     6.33     4.405806      20.3762     55.53264        11     1.086     1.037  87.95   0
        63    342.0226    861.0471 300.0054684 +22.7349199     204.2781     72.24104      1.646     3.75     4.808263      20.3762     26.88862         5     1.508     0.267  67.85   0
        64    739.3018    860.9562 300.1292206 +22.8539933     661.1478     72.22264      1.630     5.54     4.412248      20.3762     54.32342        14     1.138     0.923   6.19   0
        65    750.5677    858.2083 300.1336258 +22.8565801     569.5701     72.22264      1.557     5.52      4.42116      20.3762     53.85196        11     1.033     0.928  -8.07   0
        66    451.6525    857.1804 300.0408456 +22.7666854     4249.957     72.20424      1.762     3.85     4.533815      20.3762     312.4078        36     1.350     1.342  13.03   0
        67    114.3513    844.8588 299.9399265 +22.6619815      378.362     72.27781      1.434     3.43     5.881083      20.3762     31.81079         5     0.805     0.423 -71.09   0
        68    176.7285    842.7629 299.9600000 +22.6800944     726.3345     72.20424      2.182     4.43     6.793629      20.3762     83.05963        14     1.360     1.147  22.96   0
        69    154.1630    839.8524 299.9539304 +22.6724899     1540.119     72.24104      1.911     4.12     6.843494      20.3762     151.7185        28     1.455     1.335  40.87   0
        70   1023.9141    829.2983 300.2282826 +22.9301597     428.4666     54.89335      1.103     3.29     4.452976      20.3762     92.24999         6     1.158     0.275 -87.27  24
        71    980.1095    827.5942 300.2151671 +22.9165512     2170.721      72.1306      1.956     4.39     4.467716      20.3762     131.9027        32     1.504     1.268  33.71   0
        72    684.2725    828.1292 300.1227437 +22.8280754     540.6946     72.29619      2.340     4.29      4.48876      20.3762     37.72535         6     0.960     0.682  23.59   2
        73    763.4112    821.5168 300.1495593 +22.8498906      742.947     72.18584      1.763     4.45     4.527094      20.3762     57.59787        13     1.154     0.837   9.44   0
        74    185.9156    821.0004 299.9699315 +22.6766078     562.1236     72.09375      1.857     6.79     5.861129      20.3762     55.77881        10     1.662     0.778  80.91   0
        75    996.6773    819.9420 300.2228249 +22.9193141     966.1829     72.25942      0.571     0.86     4.489134      20.3762     582.1108         5     0.470     0.318  -8.16   0
        76    631.6990    815.4033 300.1104998 +22.8086653     4901.469     72.11218      1.678     3.52     4.514205      20.3762     394.0948        34     1.303     1.218   5.25   0
        77    121.8847    816.2763 299.9515601 +22.6560440     387.8701     72.33293      1.577     3.98     5.523955      20.3762     53.09541         7     0.909     0.686 -14.40   0
        78    434.0836    812.9313 300.0497626 +22.7487178     539.4207     72.33293      1.603     5.26     4.744175      20.3762     52.28683        10     1.137     0.719   5.46   0
        79    181.9482    809.1893 299.9725373 +22.6720295     1381.775     72.22264      1.772     3.71      5.48578      20.3762     134.0069        24     1.332     1.155  -1.35   0
        80    652.3350    807.7277 300.1194246 +22.8126457     750.7557     72.25942      1.681     4.09     4.539095      20.3762     60.80631        16     1.169     0.956  26.77   0
        81    201.4136    805.9993 299.9796270 +22.6769533     406.6237     72.05688      1.483     5.37        5.318      20.3762     35.99115         9     1.225     0.663  40.32   0
        82    807.7363    795.1974 300.1719347 +22.8556106     4334.404     72.22264      1.721     3.64     4.654758      20.3762     303.6567        38     1.391     1.301  27.50   0
        83   1023.4043    795.5370 300.2391000 +22.9203044     574.9601     57.67869      1.343     3.66     4.595201      20.3762     83.35751        11     1.159     0.660  89.59  24
        84    539.1472    792.0903 300.0892495 +22.7742315     443.0775     72.25942      1.893     5.14     4.736845      20.3762     27.00451         7     1.473     0.506  36.77   0
        85    216.6285    789.2955 299.9897880 +22.6767248      345.049     72.14902      1.232     2.59     5.162569      20.3762     41.57028         5     0.714     0.449 -71.29   0
        86    524.7651    787.8209 300.0861585 +22.7686948     559.0918     72.24104      1.413     3.97     4.754584      20.3762     67.49535         9     0.959     0.667 -19.24   0
        87    170.9874    785.4615 299.9768419 +22.6619349     1001.125     72.18584      1.745     4.57     5.149942      20.3762     97.47475        22     1.354     1.135   8.35   0
        88    320.7587    777.5659 300.0259911 +22.7045881     53771.76     72.27781      1.720     3.62     5.071926      20.3762     4693.918        95     1.499     1.439  22.15   0
        89    586.2590    781.2850 300.1074353 +22.7852498     481.2621     72.33293      1.416     3.47     4.659951      20.3762     64.49007         9     1.032     0.646   2.07   0
        90    578.6744    776.7850 300.1065355 +22.7816846     1719.049     72.22264      1.687     3.36     4.695416      20.3762     154.5654        26     1.262     1.137  27.22   0
        91    991.7147    776.1232 300.2355218 +22.9052354     967.8239     72.33293      1.813     5.31      4.72925      20.3762     69.53481        21     1.386     1.175 -84.39   0
        92    607.2723    772.5374 300.1168245 +22.7890357      1061.12     72.25942      1.682     5.10     4.601054      20.3762     82.85575        19     1.262     1.186  48.52   0
        93      7.4904    772.1993 299.9303354 +22.6090810     718.9166     72.09375      1.729     4.33     5.239591      20.3762     79.00789        14     1.278     0.874 -34.78  16
        94    618.6818    771.0554 300.1208606 +22.7920294     606.0781     72.25942      1.644     5.00     4.617876      20.3762     57.83729        13     1.210     0.767   0.01   0
        95    724.1575    767.7789 300.1547928 +22.8226944     391.3764     72.25942      1.527     5.73     4.746592      20.3762     42.66642         9     1.137     0.813  16.24   0
        96    761.5192    757.8338 300.1696712 +22.8310314     821.2623     72.18584      1.584     3.82     4.809362      20.3762     72.52993        14     1.039     0.919  17.61   0
        97    370.5315    754.7932 300.0488801 +22.7129766     31448.95     72.18584      1.673     3.53     5.000614      20.3762     3123.779        69     1.426     1.342  19.49   0
        98    384.7173    755.3079 300.0531275 +22.7173775     2101.731     72.36966      1.673     3.63     4.991879      20.3762     186.0362        28     1.440     1.125   4.20   0
        99    893.7202    750.9832 300.2131212 +22.8686634     3029.483     72.22264      1.754     3.65      4.73304      20.3762     201.8943        32     1.392     1.216 -22.01   0
       100    381.4955    749.0675 300.0541530 +22.7146204     764.5388     72.36966      1.800     6.44     5.001807      20.3762     52.76812        15     1.290     0.968  14.64   0
       101    651.5457    746.9877 300.1389222 +22.7949658     941.9466     72.24104      1.481     3.51     4.795197      20.3762     92.77118        17     1.128     0.941  51.71   0
       102    488.4636    746.9760 300.0881305 +22.7460869     551.9182     72.20424      1.408     1.69     4.968781      20.3762     69.00552         6     0.693     0.499 -89.29   0
       103    253.2746    746.6033 300.0150608 +22.6754660     818.3238      72.1306      1.652     3.51     5.101148      20.3762     82.77184        13     1.042     0.876  25.02   0
       104     58.3371    742.3758 299.9558275 +22.6157827     420.3448     72.20424      1.437     3.01     5.160554      20.3762     47.41621         6     0.862     0.472 -88.38   0
       105    498.6174    741.6389 300.0930266 +22.7475982     928.3829     72.24104      1.628     3.58     4.996463      20.3762     84.26553        16     1.095     0.974  12.32   0
       106    899.7159    738.3693 300.2190912 +22.8668345     646.0455     72.24104      1.819     6.12     4.769217      20.3762     46.47797        12     1.208     0.872 -26.99   0
       107    357.3101    737.7086 300.0503180 +22.7041089     444.5631     72.38802      1.911     2.87     5.012358      20.3762     48.08397         6     0.837     0.504  47.72   0
       108    444.5591    736.2873 300.0779354 +22.7298576     536.9429     72.20424      1.622     4.25     5.022778      20.3762     47.34244        11     0.950     0.904 -28.71   0
       109     87.1537    736.2427 299.9667765 +22.6226682     482.3049     72.25942      1.262     3.46     5.090358      20.3762     45.77322         5     0.967     0.358 -87.35   0
       110    653.4430    736.2546 300.1430017 +22.7924518     335.0013     72.22264      1.882     4.29     4.846968      20.3762     35.03952         5     1.077     0.487  31.08   0
       111    877.5691    733.5956 300.2137349 +22.8588298     556.8606     72.20424      1.874     5.42     4.787533      20.3762     42.66652         9     1.035     0.894   2.78   0
       112    250.9040    730.8251 300.0194510 +22.6702274     541.5396     72.14902      1.785     5.90     5.081944      20.3762     48.78051        13     1.209     1.103 -23.11   0
       113    573.9443    721.5223 300.1230230 +22.7643982     351.5825     72.25942      1.493     3.74     4.903929      20.3762     52.29193         6     0.824     0.488  -9.34   0
       114    543.7919    719.7686 300.1142016 +22.7548582     487.3943     72.22264      1.507     4.88     5.043759      20.3762      53.2417        11     1.062     0.773  46.53   0
       115    960.1571    716.2051 300.2451499 +22.8785648     4492.735     72.24104      1.710     3.75     4.928967      20.3762     329.1398        37     1.388     1.310  87.98   0
       116    565.5023    717.1131 300.1218264 +22.7606020     1267.778     72.38802      1.422     2.89     4.956838      20.3762     160.9735        17     1.010     0.974 -15.37   0
       117    485.8408    716.9398 300.0970750 +22.7366772     272.3904     72.22264      1.316     2.53     5.024799      20.3762     48.51347         5     0.636     0.558  -5.91   0
       118    647.6281    712.2559 300.1489890 +22.7838166     330.9057     72.22264      1.437     3.83     4.916629      20.3762     40.37606         6     0.884     0.694  -9.47   0
       119    948.6906    707.5068 300.2443992 +22.8726312     1657.413     72.38802      1.706     3.78     4.921877      20.3762     138.5288        25     1.230     1.214  48.19   0
       120    311.4709    701.2999 300.0478861 +22.6799152     780.2227      72.3513      1.555     3.83     4.984751      20.3762     80.60925        15     1.108     0.973  58.15   0
       121    774.7736    698.8591 300.1929694 +22.8180593     2618.398     72.22264      1.657     3.32     4.929587      20.3762     209.2602        31     1.354     1.158  -2.33   0
       122    979.8481    697.8898 300.2572459 +22.8791965     1673.309     72.20424      1.709     4.08     4.993062      20.3762     116.7368        25     1.258     1.187  59.11   0
       123    160.1592    685.1384 300.0060764 +22.6299041     541.1725     72.20424      1.477     4.07     5.062739      20.3762      68.0299        12     1.111     0.896 -28.99   0
       124    857.4830    684.6511 300.2233759 +22.8387494      594.962     72.24104      1.746     5.69     5.042139      20.3762     47.12773        11     1.243     0.734 -15.31   0
       125    893.3646    675.8755 300.2374186 +22.8469729     148733.9     72.18584      1.649     3.40     5.060571      20.3762     11934.74       153     1.494     1.477  21.81   0
       126    655.5867    679.6796 300.1620541 +22.7768441      429.002     72.20424      1.773     4.42     5.044492      20.3762     42.77269         8     0.942     0.697  45.89   0
       127    745.7245    676.2734 300.1912526 +22.8028688     749.9406     72.29619      1.589     2.99      4.93662      20.3762     78.56306        13     0.963     0.896  51.15   0
       128    926.1956    669.1296 300.2498518 +22.8548651     443.3841     72.16743      1.505     3.95     5.010503      20.3762     48.42835        10     1.041     0.679  -6.97   0
       129    579.5128    664.5485 300.1432701 +22.7497045     1659.239     72.25942      1.499     3.01     5.103732      20.3762      200.349        21     1.133     1.067  63.62   0
       130    760.8415    661.9512 300.2006184 +22.8032819     9443.341     72.24104      1.531     3.15     4.936276      20.3762     904.3617        42     1.269     1.204  43.91   0
       131    242.3492    662.9407 300.0388468 +22.6481807     342.5903     72.27781      1.493     4.65     5.018696      20.3762     28.77758         5     1.080     0.569  18.89   0
       132    262.3064    656.8728 300.0470257 +22.6524230     4919.201      72.3513      1.633     3.28     4.973348      20.3762     516.1194        33     1.292     1.207  28.65   0
       133    344.3799    654.9390 300.0731881 +22.6764738     1227.276     72.16743      1.532     3.37     4.911492      20.3762     129.9455        17     1.117     0.984   0.31   0
       134    220.0310    652.2159 300.0353897 +22.6384107     538.2907     72.20424      1.661     6.04      5.02434      20.3762     46.28333        11     1.413     0.726  54.85   0
       135    552.7671    650.5246 300.1394956 +22.7376626     811.3215     72.22264      1.458     3.34     5.121579      20.3762     86.60297        13     1.026     0.828 -51.81   0
       136    544.2404    642.7292 300.1393725 +22.7328687     3266.844     72.18584      1.497     2.80     5.120135      20.3762     385.3983        29     1.211     1.093  85.63   0
       137    534.4001    636.2203 300.1384223 +22.7280507     1516.246     72.14902      1.654     3.99     5.111393      20.3762     152.0762        20     1.512     0.902  60.91   0
       138    463.4600    635.7061 300.1164999 +22.7066442     291.6503     72.31456      1.109     3.33     5.030828      20.3762     37.33587         5     0.726     0.452 -68.37   0
       139    927.9780    634.2288 300.2617469 +22.8453670      406.065     72.22264      1.389     3.38     4.949251      20.3762     47.05006         8     0.864     0.839 -24.68   0
       140    197.8016    632.4178 300.0349078 +22.6260633     624.6692      72.1306      1.808     4.81     4.981497      20.3762     63.10891        14     1.359     0.976   1.31   0
       141    212.2207    630.9867 300.0398568 +22.6299761     694.0964     72.18584      1.443     4.09     4.974084      20.3762     70.83484        13     1.202     0.866 -83.83   0
       142    981.5338    627.9323 300.2805020 +22.8595911     497.9013     72.27781      1.705     3.74     4.938684      20.3762     56.06664        10     1.087     0.754  41.33   0
       143    238.3401    628.0598 300.0489308 +22.6369675     503.6879     72.29619      1.414     2.73     4.953191      20.3762     58.91954         9     0.877     0.661 -22.79   0
       144    558.3865    626.9734 300.1488966 +22.7325822     411.5348     72.22264      1.417     2.91     5.162824      20.3762     66.83996         8     0.970     0.548 -23.07   0
       145    459.2993    626.0865 300.1183293 +22.7026350     1749.756     72.38802      1.437     2.89     5.032609      20.3762     190.8468        19     1.066     0.942  59.70   0
       146    113.1958    620.8807 300.0123502 +22.5973818     20118.37     72.14902      1.741     3.49     5.045182      20.3762     2107.628        64     1.497     1.407  21.39   0
       147     34.0587    622.6305 299.9871859 +22.5741494     749.9832     72.24104      1.880     4.77     5.576979      20.3762     79.07647        12     1.341     0.853 -22.57   0
       148    544.3617    621.4539 300.1463215 +22.7267946     973.8116     72.22264      1.480     3.00     5.137508      20.3762     111.8821        16     1.030     0.903 -59.65   0
       149    579.3417    620.6788 300.1574684 +22.7370528     396.9178     72.25942      1.380     3.14     5.225579      20.3762     54.76639         7     0.872     0.612  66.23   0
       150    269.3993    627.5099 300.0587703 +22.6461216     277.7409     72.11218      1.250     3.93     4.932538      20.3762     36.50356         5     0.934     0.531 -43.13   0
       151    915.8871    617.3840 300.2634472 +22.8369049      378.817     72.16743      1.750     5.01     4.925393      20.3762       33.643         7     1.144     0.620 -15.94   0
       152    297.7250    613.2724 300.0722067 +22.6505265     404.8821     72.27781      1.508     3.60       4.9139      20.3762     50.46997         7     0.982     0.522  26.16   0
       153    962.1409    607.8096 300.2809877 +22.8480004     1005.437     72.18584      1.663     3.64     4.907685      20.3762     85.10161        17     1.189     0.929  31.51   0
       154     59.1945    605.2024 300.0006577 +22.5766880     1632.766     72.03844      2.108     4.96     5.372722      20.3762     107.4769        32     1.734     1.197 -73.43   0
       155    829.0476    606.0532 300.2400433 +22.8076458     549.5949     72.25942      1.404     3.17     4.917794      20.3762        71.63        12     1.065     0.806  19.48   0
       156    125.7568    605.6783 300.0211926 +22.5967862     395.6971     72.20424      1.496     3.60     5.007915      20.3762     45.82293         8     1.010     0.579 -56.14   0
       157    508.0412    602.2277 300.1412555 +22.7103895     374.9438     72.24104      1.356     4.15     5.108609      20.3762     46.74924         9     1.000     0.654  30.42   0
       158    902.5591    600.4601 300.2647871 +22.8280496     885.9551     72.22264      1.770     4.03     4.911649      20.3762     78.90993        17     1.200     1.050 -71.76   0
       159    464.5490    594.3218 300.1302813 +22.6950862     789.3393     72.22264      1.576     3.37     5.065076      20.3762     83.48508        15     1.022     0.977 -72.64   0
       160    612.3148    592.6500 300.1768442 +22.7388799     422.2841     72.20424      1.507     4.25     5.363723      20.3762     52.90523        11     1.056     0.851  53.12   0
       161    630.1759    591.1550 300.1828945 +22.7438010     665.0895     72.24104      1.310     2.59     5.293182      20.3762     83.05143        10     0.878     0.708  67.77   0
       162    659.6780    591.5031 300.1919738 +22.7527386     458.8898      72.3513      1.492     4.73      5.16869      20.3762     47.47502         8     0.996     0.637  -1.67   0
       163    508.6074    590.3732 300.1452821 +22.7071544     1018.316     72.22264      1.537     3.24     5.145036      20.3762     103.3525        13     1.064     0.791  24.19   0
       164    942.4250    585.8806 300.2819594 +22.8357938     3334.854     72.20424      1.621     3.31     4.907685      20.3762     289.3427        31     1.317     1.161 -52.39   0
       165    474.1486    585.5253 300.1361271 +22.6954366     1785.681     72.24104      1.478     2.93     5.080731      20.3762     196.6952        22     1.121     1.092 -80.31   0
       166    839.3766    583.7684 300.2505027 +22.8043338     260.6275     72.22264      0.931     3.42     4.916509      20.3762     45.37679         5     1.099     0.308  36.53   0
       167     36.0382    578.9897 300.0019743 +22.5622221     5076.246     72.22264      1.828     3.50     5.559402      20.3762     507.7486        44     1.486     1.399  16.82   0
       168    503.2581    576.8178 300.1480189 +22.7016582     242.9485     72.18584      1.306     2.09      5.16408      20.3762     50.40786         6     0.701     0.543 -35.93   0
       169    981.8151    575.7904 300.2975270 +22.8446844      389.562      72.1306      1.627     4.49     4.907685      20.3762     37.17979         8     1.091     0.525  52.63   0
       170    337.5425    572.3282 300.0978932 +22.6507072     9151.057     72.25942      1.534     2.87     4.909986      20.3762     1010.153        43     1.298     1.198  39.93   0
       171    459.9655    569.4130 300.1369440 +22.6865592     9046.817     72.18584      1.436     2.75     5.106847      20.3762     1007.279        40     1.207     1.172  74.22   0
       172    871.7590    563.6134 300.2671479 +22.8082362     1893.511     72.24104      1.569     3.09     4.914504      20.3762     199.4631        23     1.154     1.084  51.05   0
       173    103.7710    565.4484 300.0274230 +22.5786485     281.7077     72.24104      1.520     4.54     5.017323      20.3762     33.64386         5     1.189     0.492   3.83   0
       174    956.3630    560.9926 300.2943913 +22.8328108     12630.42     72.22264      1.609     3.24     4.907685      20.3762      1060.46        52     1.341     1.327 -49.58   0
       175    520.5491    559.0121 300.1591859 +22.7017246      11740.8     72.24104      1.442     2.80     5.280511      20.3762     1388.815        41     1.220     1.147  53.00   0
       176    248.0801    554.4083 300.0758803 +22.6187461     1450.787     72.16743      1.577     3.37     4.910979      20.3762     132.4989        21     1.229     1.017  49.18   0
       177    689.9727    554.9798 300.2132762 +22.7513184     616.4083     72.22264      1.471     3.53     5.182404      20.3762     66.79657        12     1.126     0.707  36.37   0
       178    405.9937    553.3835 300.1253483 +22.6657823     323.3324     72.14902      1.400     4.31     5.093603      20.3762     38.79374         7     0.873     0.607  26.04   0
       179    494.8431    551.7467 300.1535405 +22.6919358     417.5923     72.24104      1.468     4.82      5.19578      20.3762     52.25675        10     1.046     0.788  81.21   0
       180    795.0580    547.5064 300.2484602 +22.7806407     878.0139     72.27781      1.503     3.08     4.931465      20.3762     109.3775        17     1.053     1.020  18.18   0
       181    452.2654    547.2323 300.1417498 +22.6778815     4401.821     72.22264      1.428     2.64     5.144577      20.3762     463.7985        31     1.192     1.082  47.13   2
       182    430.6111    545.6412 300.1355252 +22.6709358     1347.366     72.22264      1.445     2.74     5.145878      20.3762     170.7499        17     1.078     0.953   4.33   0
       183    184.9355    544.8922 300.0593322 +22.5970845     660.8793     72.33293      1.539     3.59     4.933499      20.3762      78.8433        11     0.908     0.865 -56.50   0
       184    872.0167    542.7272 300.2740112 +22.8023092     1629.245     72.22264      1.659     3.66     4.912956      20.3762     148.5411        26     1.317     1.147 -66.37   0
       185    568.8822    534.7822 300.1821074 +22.7092443     206828.1     72.18584      1.433     2.72     5.429271      20.3762        26095       190     1.467     1.377 -15.18   0
       186    392.5766    541.1844 300.1251335 +22.6582582     326.0404     72.22264      1.181     2.57     5.087586      20.3762     50.18303         7     0.811     0.587  -9.66   0
       187    752.5554    539.7544 300.2377269 +22.7656854     842.0756     72.25942      1.401     2.78     5.082312      20.3762     103.6444        14     0.931     0.921  50.58   0
       188    255.0275    534.5966 300.0844743 +22.6151410     3524.925     72.18584      1.505     2.84     4.934406      20.3762     386.7635        31     1.220     1.189  81.64   0
       189    820.9492    530.9163 300.2619206 +22.7836245     533.1281     72.22264      1.418     3.90     5.013216      20.3762     51.31857        11     1.040     0.805  -1.06   0
       190    686.9427    527.1418 300.2213717 +22.7424114     211.3066     72.29619      1.244     3.97      5.24559      20.3762     33.02334         5     0.839     0.539  54.81   0
       191    600.6313    521.0696 300.1964500 +22.7148151     270.7209     72.22264      1.402     4.00     5.397715      20.3762     40.17275         6     1.034     0.443 -78.15   0
       192    459.4743    515.4875 300.1543018 +22.6709237      2761.53     72.36966      1.549     3.09     5.307534      20.3762     311.5404        29     1.552     1.020 -87.62   0
       193    303.7333    517.8118 300.1050760 +22.6249207     434.6668     72.20424      1.441     3.83     5.065772      20.3762     56.56164         9     0.955     0.639 -17.34   0
       194    871.1556    511.6550 300.2838324 +22.7931187     253.6358     72.24104      1.179     2.68     4.904227      20.3762     65.09425         6     1.016     0.428 -13.03   0
       195    690.5983    511.2413 300.2276739 +22.7389368      263.748     72.22264      1.273     3.12     5.266917      20.3762     39.65631         5     0.755     0.420 -66.18   0
       196    776.5063    503.8477 300.2568527 +22.7625369     325.1111     72.24104      1.503     4.93     5.304267      20.3762      41.3529        10     0.995     0.872  12.04   0
       197    856.5390    501.3615 300.2826159 +22.7857836     1801.331     72.22264      1.569     2.89     4.959489      20.3762     194.6439        21     1.153     1.024 -78.40   0
       198    727.7173    499.0165 300.2432122 +22.7465392     2617.606     72.18584      1.400     2.90     5.264322      20.3762     307.5266        26     1.160     1.050  37.02   0
       199    972.0440    497.0626 300.3200440 +22.8191220     509.8328     72.22264      1.479     3.93     5.114543      20.3762     50.70272        10     1.011     0.763   0.99   0
       200    936.9377    496.4097 300.3093025 +22.8084267     228.4066     72.14902      1.252     4.41     4.946972      20.3762     41.09801         6     0.813     0.681  16.10   0
       201    632.1899    496.0050 300.2144201 +22.7170656     412.5938     72.07532      1.480     3.15      5.33068      20.3762     45.56106         8     0.831     0.645 -50.45   0
       202    514.9307    494.7934 300.1782882 +22.6815938     687.1009     72.18584      1.410     2.82     5.406538      20.3762     95.64886        11     0.901     0.800  12.16   0
       203    984.9749    493.1164 300.3253602 +22.8218573      1329.99     72.18584      1.514     3.42     5.199532      20.3762     129.7863        22     1.198     1.088  -5.26   0
       204    970.6465    492.2553 300.3211688 +22.8173213     829.2777     72.25942      1.755     3.72     5.130779      20.3762     62.10639        12     1.008     0.911 -28.62   0
       205    856.7888    491.4966 300.2858967 +22.7830223     2182.142      72.1306      1.728     3.62     4.969775      20.3762     230.1334        25     1.507     1.005  71.25   0
       206    609.9963    488.9052 300.2098106 +22.7083783     820.4898      72.1306      2.096     6.70     5.333321      20.3762     75.71408        15     1.520     0.888  80.84   0
       207    448.3873    488.3934 300.1596466 +22.6598194     425.6852     72.09375      1.391     3.55     5.474157      20.3762     66.24022         8     1.013     0.646 -31.59   0
       208    395.4149    489.3784 300.1428372 +22.6442304     318.2933     72.20424      1.323     4.48      5.47682      20.3762     56.95909         6     1.273     0.477  23.69   0
       209    894.9991    486.5679 300.2994148 +22.7930435     4357.814     72.18584      1.495     2.85     4.901487      20.3762     511.3593        33     1.233     1.155  72.32   0
       210    555.5237    482.2515 300.1950022 +22.6901505     316.7604     72.24104      1.174     4.43     5.416323      20.3762     41.30821         7     1.043     0.535 -40.22   0
       211    986.6410    477.1832 300.3310532 +22.8177738     746.0453     72.24104      1.409     3.12      5.28233      20.3762     78.18195        10     1.018     0.650  16.95   0
       212    126.7269    476.5246 300.0634300 +22.5600091     1091.333     72.29619      1.751     3.75     4.998137      20.3762     104.5905        20     1.283     1.052  17.07   0
       213    809.6888    472.3278 300.2774321 +22.7634110     153.3577     72.38802      1.076     2.78      5.49399      20.3762     41.45643         5     0.812     0.678  39.29   0
       214    787.9487    470.4685 300.2712572 +22.7563679     210.2276     72.20424      1.115     4.09     5.528226      20.3762      42.7023         6     0.763     0.637  50.21   0
       215    119.6385    466.6772 300.0644229 +22.5550574     424.3168     72.20424      1.565     4.28     5.050689      20.3762     46.66255         8     1.045     0.758  44.37   0
       216    983.2495    466.3361 300.3335163 +22.8136393     336.3615     72.27781      1.325     4.46     5.270431      20.3762     41.74572         7     0.875     0.646 -35.11   0
       217    727.1492    461.2699 300.2552895 +22.7355198     390.6399     72.22264      1.231     2.71     5.325857      20.3762     63.69146         9     0.859     0.708  76.45   0
       218    335.8685    459.6778 300.1339473 +22.6178573     253.1924     72.33293      1.174     4.23      5.49168      20.3762     41.56143         7     0.887     0.574 -30.28   0
       219    616.1851    458.8291 300.2215024 +22.7015893     275.6064     72.24104      1.324     1.98     5.324292      20.3762     64.69664         6     0.738     0.494 -41.68   0
       220    668.2585    457.0605 300.2383019 +22.7166756     835.1824     72.29619      1.360     2.90     5.367222      20.3762     107.0961        10     0.931     0.733  47.50   0
       221    983.1701    449.6122 300.3389207 +22.8088058     472.6648     72.22264      1.382     3.29       5.2879      20.3762     73.65301         8     1.018     0.607 -35.48   0
       222    729.3367    449.0859 300.2599265 +22.7326726     890.9872     72.31456      1.430     2.93     5.327762      20.3762      92.7543        14     0.976     0.894 -30.88   0
       223    886.5417    445.5772 300.3100840 +22.7787257     1004.549     72.22264      1.468     2.67     5.148234      20.3762     114.3054        16     0.964     0.944   7.90   0
       224    850.8398    442.3197 300.3000061 +22.7671025      448.586     72.18584      1.493     4.69     5.263871      20.3762     44.28784         8     1.111     0.568  89.71   0
       225    870.5764    441.9916 300.3062681 +22.7729159     556.1657     72.22264      1.237     2.71     5.175419      20.3762     83.63713        10     0.832     0.797  17.11   0
       226    614.8809    439.6799 300.2273119 +22.6956957     3468.649      72.3513      1.439     2.63     5.327421      20.3762     448.7733        28     1.160     1.070  34.43   0
       227    975.6650    438.6118 300.3401496 +22.8033961     650.5729     72.16743      1.773     4.40     5.287112      20.3762     62.33358        12     1.070     1.026  45.91   0
       228     90.9219    430.9146 300.0671036 +22.5361827     322.1553     72.33293      1.512     6.10     5.265049      20.3762     34.33517         8     1.052     0.995 -50.51   0
       229    620.5929    427.6942 300.2329819 +22.6939618     352.3381     72.11218      1.215     3.06     5.340688      20.3762     40.14231         5     0.729     0.445  68.78   0
       230    454.8769    426.9398 300.1816150 +22.6441101     366.3417     72.27781      1.308     4.52     5.784481      20.3762     50.76927         7     0.972     0.598 -70.68   0
       231    897.7017    418.9768 300.3221993 +22.7744168     538.1287     72.14902      1.424     2.98     5.340734      20.3762     69.29798        11     0.939     0.792 -18.23   0
       232    984.7082    417.6770 300.3497668 +22.8000810     961.4156     72.36966      1.462     3.04     5.321911      20.3762     109.9163        16     1.105     0.866 -33.54   0
       233    725.6465    413.7173 300.2702563 +22.7214008     1068.322     72.20424      1.320     2.36     5.338841      20.3762     145.1421        14     0.899     0.860 -23.47   0
       234    521.1622    414.1660 300.2064007 +22.6602954     338.2747     72.25942      1.214     3.25     5.701212      20.3762     66.31485         8     1.027     0.641   6.44   0
       235    229.6522    411.9552 300.1163925 +22.5723222     552.5677     72.24104      1.241     2.67     5.259773      20.3762      90.8033        10     0.921     0.723  41.16   0
       236    291.9073    407.3510 300.1372525 +22.5896561     3679.573     72.25942      1.474     2.88     5.442107      20.3762     422.9331        26     1.178     1.069  70.04   0
       237   1023.7263    406.1132 300.3656968 +22.8084298     1628.757     55.99564      1.092     2.95     5.297676      20.3762     384.9711        12     1.233     0.477  88.56  24
       238    239.1137    402.1708 300.1225107 +22.5723479     7763.212     72.22264      1.494     2.91     5.339645      20.3762     769.6193        40     1.263     1.204  34.30   0
       239    743.9116    402.6041 300.2795566 +22.7236743     198.6878      72.1306      1.091     3.40     5.328383      20.3762     34.99771         5     0.749     0.447  19.33   0
       240   1005.0741    397.2639 300.3627476 +22.8003034     1954.751     72.25942      1.568     3.19      5.30504      20.3762     200.7956        27     1.290     1.180 -31.49   0
       241    379.9151    396.5030 300.1681586 +22.6129093      4926.93     72.38802      1.403     2.57     5.904325      20.3762     633.6364        28     1.165     1.028  61.36   0
       242    624.1187    393.2732 300.2452517 +22.6851249     18865.95      72.3513      1.368     2.51     5.327523      20.3762      2327.92        51     1.233     1.162  66.23   0
       243    641.8002    393.2175 300.2507790 +22.6904034     814.1955      72.1306      1.855     5.78     5.352015      20.3762     66.16517        22     1.662     0.953 -29.07   0
       244    467.4664    393.4695 300.1963972 +22.6382653     399.7371     72.27781      1.898     3.82     5.842237      20.3762     31.74253         6     0.992     0.421 -17.34   0
       245    251.3814    391.3293 300.1298447 +22.5729108     262.8273     72.25942      1.445     3.32     5.459606      20.3762     38.99304         5     0.975     0.332 -21.24   0
       246    868.0690    389.8511 300.3224092 +22.7571722     252.5147     72.20424      1.363     5.60     5.354189      20.3762     35.78277         8     1.071     0.827  32.09   0
       247    820.5687    383.2203 300.3097474 +22.7410484    -140.1869     72.22264     -6.805     4.14      5.42795      20.3762     60.60262         8     1.130     0.888  51.71   0
       248    958.1675    375.9007 300.3550435 +22.7801230     971.1339     72.20424      1.742     4.91     5.318824      20.3762     81.29446        17     1.370     0.900 -40.25   0
       249    494.3835    375.0612 300.2107520 +22.6410383     265.3398     72.16743      1.403     4.37     5.826736      20.3762     31.27973         7     1.129     0.482  41.60   0
       250    667.0701    373.9845 300.2648946 +22.6924413     345.4535     72.24104      1.371     5.97     5.339093      20.3762     32.02657        10     1.260     0.795  42.17   0
       251    178.7824    373.2121 300.1131445 +22.5459516     2180.037     72.18584      1.594     3.05     5.328416      20.3762     217.0805        24     1.205     1.071  53.49   0
       252    564.7819    362.7123 300.2366838 +22.6585729     6697.138     72.16743      1.375     2.47     5.635976      20.3762     916.0454        35     1.181     1.075  71.99   0
       253    978.4368    363.3559 300.3654391 +22.7825794     1173.161     72.27781      1.476     3.20     5.304881      20.3762     151.2621        15     1.102     0.889  72.99   0
       254    279.7891    362.0019 300.1481980 +22.5730003     597.4345     72.03844      1.290     3.03      5.90002      20.3762     89.93449        12     1.042     0.773   1.52   0
       255    137.4044    355.1194 300.1061490 +22.5283553     499.5483     72.14902      1.612     2.46     5.388419      20.3762     69.76338         9     0.897     0.655 -12.50   0
       256    824.6902    354.5156 300.3203474 +22.7340277     466.8752     72.36966      1.509     2.94     5.359342      20.3762      54.0486         8     0.907     0.622 -13.47   0
       257    769.2794    351.8071 300.3039490 +22.7166637     1191.153     72.14902      1.546     3.20     5.297108      20.3762      138.556        17     1.166     0.929 -40.39   0
       258    678.7172    352.9455 300.2753511 +22.6898805     635.8345     72.27781      1.308     2.66     5.283481      20.3762     78.43182        10     0.852     0.756 -41.42   0
       259    471.4468    348.8735 300.2121073 +22.6266436     6231.183     72.22264      1.407     2.57     5.839888      20.3762      767.332        34     1.183     1.095  75.83   0
       260    960.8818    343.9185 300.3662685 +22.7717355       610.21     72.36966      1.585     3.65     5.252027      20.3762     65.98969        11     1.029     0.946   6.95   0
       261    863.4076    343.4364 300.3360170 +22.7424289     1474.446     72.22264      1.459     2.81     5.320772      20.3762     169.5493        19     1.133     0.947  77.78   0
       262    456.0124    337.6435 300.2109454 +22.6187939     451.5857     72.22264      1.389     3.03     5.790718      20.3762     73.44707         7     0.814     0.759  -8.55   0
       263    538.5942    335.8992 300.2372270 +22.6430246     431.3037     72.11217      1.110     2.01     5.755613      20.3762     79.79366         6     0.682     0.585 -33.59   0
       264    816.4149    334.2055 300.3243569 +22.7257104     235.2582     72.09375      1.346     5.16     5.271294      20.3762     25.86466         5     1.015     0.742  13.98   0
       265    519.5348    333.2357 300.2321553 +22.6365515      248.643     72.22264      1.569     4.27     5.749313      20.3762     41.89798         6     0.913     0.623 -22.69   0
       266    836.1563    331.1877 300.3314922 +22.7307508      513.363     72.22264      1.308     3.12     5.267329      20.3762     74.42751         8     0.885     0.747 -84.34   0
       267    117.7104    330.2522 300.1080939 +22.5153126     305.7612     72.24104      1.447     2.59     5.478146      20.3762     38.52197         5     0.804     0.631 -37.56   0
       268    358.9867    328.0579 300.1838536 +22.5869770     2591.051     72.18584      1.484     2.89     5.972894      20.3762     289.0963        24     1.237     1.010  60.21   0
       269     77.5345    325.5783 300.0971213 +22.5019292     1038.003     72.18584      1.730     3.21     5.527844      20.3762     121.3366        19     1.261     0.913  -4.27   0
       270    306.7708    321.7763 300.1696432 +22.5695298     230.6583     72.22264      1.116     4.62     6.002953      20.3762     29.33408         8     0.949     0.637 -83.72   0
       271    328.3303    317.5053 300.1777371 +22.5747617     29888.14     72.33293      1.468     2.57     5.980228      20.3762     3722.227        67     1.331     1.230  65.95   0
       272    863.0285    315.2155 300.3450550 +22.7341990     1457.844     72.24104      1.455     2.87     5.225172      20.3762     177.5083        21     1.167     1.095  84.09   0
       273    818.5152    312.8991 300.3319244 +22.7202116     374.2854     72.38802      2.352     4.54      5.18139      20.3762     32.51907         5     1.121     0.524 -30.47   0
       274     24.6371    305.2173 300.0872861 +22.4802282     5037.643     72.22264      1.697     3.59     5.531547      20.3762     483.4862        39     1.380     1.319  50.44   0
       275    778.1976    304.0637 300.3222196 +22.7056043     622.3646     72.22264      1.427     3.24     5.108474      20.3762     70.11425        13     1.087     0.783  25.87   0
       276    203.0171    304.1044 300.1431014 +22.5333677     461.0686      72.1306      1.199     2.37     5.503652      20.3762     62.67733         5     0.730     0.509 -31.37   0
       277    426.8899    303.0387 300.2131053 +22.6001278      344.141     72.20424      1.236     2.61     5.624738      20.3762     65.58672         8     0.785     0.668  38.29   0
       278    738.6999    297.3794 300.3120745 +22.6918603     2002.182     72.14902      1.384     2.84      5.05839      20.3762     231.0665        21     1.142     0.976  83.96   0
       279    954.1274    290.0161 300.3816489 +22.7542082     679.8254     72.22264      1.545     3.56     4.970953      20.3762     81.77422        10     1.047     0.659 -69.77   0
       280    400.5796    281.8855 300.2117769 +22.5861693     1962.959     72.14902      1.482     3.22     5.601091      20.3762     234.7612        22     1.288     0.894  71.24   0
       281    612.8091    281.1261 300.2781141 +22.6495021     447.9045     72.22264      1.304     2.51      5.38869      20.3762     46.16871         8     0.789     0.651  40.09   0
       282    839.8001    275.1010 300.3508238 +22.7157102     648.8416     72.09375      1.421     2.73      5.09403      20.3762     73.69128        12     0.945     0.803 -63.73   0
       283    739.3184    273.1356 300.3201316 +22.6850739      361.327     72.33293      1.341     2.05     5.036452      20.3762      48.1651         5     0.721     0.421  69.98   0
       284    721.8826    272.6049 300.3148687 +22.6797027     310.1438     72.14902      1.258     2.13     5.056513      20.3762     52.75179         5     0.675     0.469  16.39   0
       285    690.0783    271.3763 300.3053543 +22.6698298      284.765     72.20424      1.234     2.79     5.102545      20.3762     47.76841         5     0.807     0.483  58.64   0
       286    191.2021    263.1659 300.1527055 +22.5180693     306.5033     72.18584      1.162     2.93     5.533632      20.3762     41.54348         5     0.914     0.340 -43.50   0
       287    476.4464    261.3695 300.2420501 +22.6029941     1197.757     72.24104      1.358     2.63     5.488283      20.3762     146.9344        15     0.964     0.883 -74.05   0
       288    283.4031    261.7765 300.1818351 +22.5452930      246.446     72.18584      1.242     3.43     5.903946      20.3762      32.7237         5     0.803     0.425 -68.89   0
       289     48.5569    262.0187 300.1087309 +22.4749945     328.1035     72.24104      1.696     4.23     5.528286      20.3762      28.4644         5     0.776     0.656  -3.49   0
       290    561.5579    259.2913 300.2692304 +22.6278811     294.3423     72.22264      1.487     3.89     5.464961      20.3762     42.33308         6     1.057     0.470 -80.27   0
       291    882.1533    253.8763 300.3709180 +22.7222778     70.16232     72.22264      1.167     3.33     5.045245      20.3762     40.84283         6     1.079     0.699 -58.51   0
       292    721.2620    253.2741 300.3209452 +22.6739581     2303.243     72.25942      1.415     2.54     5.069721      20.3762     277.3661        23     1.081     1.043  52.95   0
       293    982.5828    247.7132 300.4042499 +22.7505497     3239.512     72.16743      1.553     3.05     4.723448      20.3762     351.2385        31     1.281     1.153  74.93   0
       294    789.7701    240.4317 300.3464679 +22.6907674     293.9599     72.22264      2.046     3.74     5.052166      20.3762     24.04663         5     1.538     0.261 -40.80   0
       295    429.6259    237.0007 300.2353763 +22.5819697     626.6153     72.16743      1.325     2.82     5.380421      20.3762     81.82916        11     0.947     0.717   9.32   0
       296    104.5068    231.2588 300.1360971 +22.4829282     1458.493     72.27781      1.635     3.48     5.520906      20.3762      145.258        21     1.378     0.859 -45.28   2
       297    135.3215    230.8485 300.1458102 +22.4920437     599.9937     72.22264      1.579     4.47     5.519907      20.3762     68.39294        13     1.250     0.820  60.10   0
       298    998.4315    228.2828 300.4154977 +22.7496994     541.7323     72.22264      1.491     3.62     4.690609      20.3762     57.39825         9     1.025     0.702 -64.80   0
       299    841.9698    225.2360 300.3676737 +22.7020159     616.0292     72.24104      1.809     4.54     5.053088      20.3762     48.86195         7     1.186     0.494  17.94   0
       300    188.3348    223.2243 300.1647668 +22.5057374     473.6068     72.20424      1.386     3.49     5.559866      20.3762     52.88662         8     0.889     0.723  10.47   0
       301    983.3338    220.9154 300.4131755 +22.7430635     401.4298     72.33293      1.372     4.11     4.745006      20.3762     43.03315         7     0.878     0.568  57.77   0
       302     44.0526    220.7950 300.1206993 +22.4618072     280.3738     72.22264      1.195     4.35     5.556441      20.3762      44.2996         6     0.952     0.565 -24.27   0
       303    864.8170    217.1984 300.3774060 +22.7065396     366.3629      72.1306      1.421     2.72     5.103825      20.3762     58.42784         6     0.826     0.501 -30.36   0
       304    793.0532    215.0341 300.3557282 +22.6844447     611.9641     72.24104      1.348     3.03     5.088881      20.3762     79.53262         9     0.891     0.729  -3.69   0
       305    383.4080    214.7334 300.2282105 +22.5617295     522.3214     72.22264      1.628     2.33     5.321964      20.3762     52.75689         5     0.711     0.435 -66.07   0
       306    928.7284    208.4488 300.4001802 +22.7231423     270.8066     72.20424      1.521     3.44     4.911833      20.3762     29.95777         5     0.738     0.463 -18.52   0
       307    883.6172    207.9901 300.3862562 +22.7095151     300.0658     72.16743      1.175     4.07     5.086961      20.3762     39.79092         5     0.822     0.575   1.02   0
       308    891.1821    203.8246 300.3899667 +22.7105798     2207.938     72.22264      1.514     3.07     5.092083      20.3762     243.1001        26     1.156     1.136  19.07   0
       309    309.6144    200.8788 300.2097386 +22.5356475     2131.739     72.24104      1.461     2.89     5.622296      20.3762     262.6919        23     1.164     1.026  59.66   0
       310    387.4924    196.1021 300.2355232 +22.5575983     1087.798     72.40636      1.470     3.26     5.315147      20.3762     103.7206        14     0.970     0.925  61.74   0
       311    139.1014    196.5927 300.1580930 +22.4833372     370.7452     72.11217      1.456     4.93     5.510227      20.3762     43.91356         7     1.110     0.620 -42.18   0
       312    789.4808    195.9022 300.3608183 +22.6778726     577.1288      72.3513      1.242     2.90     5.157944      20.3762     78.28158        11     0.905     0.823  51.19   0
       313    434.4373    193.6377 300.2509356 +22.5709475     323.9291     72.29619      1.710     3.95      5.32157      20.3762     33.61415         6     0.928     0.480   1.63   0
       314    896.0656    192.2702 300.3952368 +22.7087164     416.8013     72.25942      1.470     5.43     5.175097      20.3762     43.86457         8     1.175     0.708  45.90   0
       315    204.3811    188.2319 300.1811033 +22.5004924     793.2424     72.22264      1.473     3.53     5.545942      20.3762     81.77014        12     1.060     0.892 -80.07   0
       316    323.3054    188.1864 300.2181140 +22.5361008     365.9828     72.14902      1.211     2.47     5.491086      20.3762     49.61546         5     0.750     0.416  71.50   0
       317    807.2280    185.1107 300.3698513 +22.6800785     692.4937     72.20424      1.424     3.03     5.203978      20.3762     87.19355        13     1.059     0.821  49.67   0
       318    742.2916    185.2208 300.3495698 +22.6606798     1778.426     72.14902      1.365     2.52     5.214849      20.3762     205.0142        21     1.089     1.022 -14.34   0
       319    174.0027    184.1880 300.1729672 +22.4902301     358.2609     72.03844      1.821     3.83     5.517219      20.3762     23.87609         5     0.825     0.509  57.49   0
       320    226.0825    181.4422 300.1900543 +22.5050426     592.4476     72.18584      1.706     4.18     5.555796      20.3762     53.32054        10     1.087     0.803 -13.60   0
       321   1013.7838    177.9263 300.4366187 +22.7397996     836.7203     72.22264      1.433     3.37     5.218567      20.3762     88.71685        14     1.136     0.807  10.62   0
       322    515.3280    177.9601 300.2812060 +22.5906598     491.5519     72.20424      1.765     2.88     5.355294      20.3762     55.08482         7     0.812     0.692  21.97   0
       323    746.1537    176.8301 300.3534944 +22.6594221     902.2551     72.25942      1.510     2.87     5.245451      20.3762     97.26929        12     1.022     0.749  54.57   0
       324    667.0261    175.7661 300.3291762 +22.6354365     1128.087     72.24104      1.405     2.74      5.29566      20.3762     165.3952        19     1.088     0.941 -48.16   0
       325    487.9665    172.2854 300.2745252 +22.5808370     338.0416     72.18584      1.222     2.40     5.339557      20.3762      45.4532         7     0.701     0.662   2.69   0
       326    862.1608    167.4832 300.3926983 +22.6914420     1518.258     72.18584      1.451     2.57     5.413223      20.3762     169.0413        22     1.131     1.058 -63.69   0
       327    593.0650    167.6523 300.3087617 +22.6109666     935.3118     72.25942      1.351     2.41     5.390637      20.3762     139.2142        14     0.927     0.856 -32.08   0
       328    874.1915    166.5669 300.3967478 +22.6947774      911.573     72.22264      1.460     2.63     5.410727      20.3762      115.067        15     1.048     0.885  62.39   0
       329    920.7162    165.8748 300.4114854 +22.7084954     304.7673     72.31456      1.225     3.12     5.367538      20.3762     51.23469         7     0.834     0.690 -10.93   0
       330    991.0073    157.0375 300.4362833 +22.7269760     1126.923     72.24104      1.511     2.89     5.412239      20.3762     121.1056        15     1.109     0.842  80.06   0
       331     14.9350    153.3150 300.1335283 +22.4337031     553.2662     72.31456      1.550     5.11     6.228041      20.3762     41.72137         9     1.156     0.639 -22.65   0
       332    224.8859    149.6160 300.2000000 +22.4955401     683.3139     72.18584      1.553     4.23     5.595482      20.3762     72.42012        14     1.136     0.955   0.76   0
       333     86.7827    144.4150 300.1587437 +22.4526747     2277.893     72.20424      1.711     3.11     5.581556      20.3762     227.4668        31     1.304     1.287 -27.09   0
       334    910.2059    141.6643 300.4160558 +22.6983849     766.1716     72.18584      1.540     3.81     5.426116      20.3762     83.03143        15     1.137     0.953 -47.54   0
       335     36.8069    141.3964 300.1441889 +22.4368339     526.6837     72.03844      1.651     2.93     6.030504      20.3762     48.23012         6     0.710     0.633  85.24   0
       336    244.2492    137.7360 300.2098740 +22.4979263     5646.682     72.25942      1.534     2.87     5.619612      20.3762     671.7199        37     1.315     1.160  61.04   0
       337     28.3603    132.2509 300.1445283 +22.4316764     1281.939     72.22264      1.654     3.77     6.111314      20.3762     114.6698        21     1.216     1.176   4.38   0
       338    227.7688    128.3805 300.2077803 +22.4903020     503.7531     72.22264      1.410     3.53     5.722716      20.3762     73.73687        11     1.063     0.862 -68.94   0
       339    888.4786    119.5188 300.4164571 +22.6855135      3597.33      72.3513      1.557     2.71     5.442186      20.3762     428.6294        31     1.267     1.118  86.73   0
       340    992.1067    118.3685 300.4491625 +22.7161754      2741.05     72.14902      1.558     2.82     5.412239      20.3762     344.7821        29     1.295     1.146  80.25   0
       341    437.7993    114.5402 300.2776248 +22.5492174     728.3742     72.18584      1.338     2.87     5.301778      20.3762     102.2102        13     1.007     0.865  50.02   0
       342    191.1572    115.1675 300.2006763 +22.4755396     436.1008     72.27781      1.461     2.84     5.625058      20.3762     44.46527         6     0.734     0.563  56.06   0
       343    361.9788    106.2387 300.2567145 +22.5241303     750.4228     72.24104      1.701     3.56     5.350393      20.3762     59.92531        13     1.124     0.846  42.88   2
       344    366.0414    105.0344 300.2583692 +22.5250006     406.6275     72.27781      1.476     3.55     5.347152      20.3762     40.71622         6     0.762     0.582 -37.67   3
       345    897.0151    105.3542 300.4237115 +22.6839907     221.2725     72.24104      1.086     3.44     5.435612      20.3762     42.29439         5     0.797     0.430  18.26   0
       346    127.9587    103.2138 300.1848990 +22.4531746     661.1375     72.24104      1.616     4.19     5.469709      20.3762     65.93777        15     1.134     0.970  64.62   0
       347    489.2513    102.0384 300.2976973 +22.5610259     1756.749     72.22264      1.401     2.85     5.298734      20.3762     197.0119        19     1.022     0.956  81.42   0
       348    417.2571    102.5178 300.2751266 +22.5396112     529.0482     72.27781      1.360     3.15     5.298615      20.3762     61.14354        10     1.004     0.674  38.96   0
       349     26.4616    102.4473 300.1535981 +22.4225474     414.7328     72.25942      1.662     3.70     6.129272      20.3762     39.90031         6     0.935     0.420  71.27   0
       350    550.9150    101.2188 300.3171674 +22.5792476     471.6835     72.14902      1.428     4.39     5.226817      20.3762     46.47663         9     1.186     0.606 -32.68   0
       351    232.9230     97.2816 300.2194634 +22.4829095      391.021     72.33293      1.444     4.21     5.874739      20.3762     45.75043         5     0.764     0.661 -20.94   0
       352    777.6450     91.6790 300.3909163 +22.6443487       245.26     72.20424      1.141     2.81     5.499136      20.3762     41.93567         6     0.822     0.491 -46.06   0
       353    923.3734     86.2534 300.4381255 +22.6863770     331.9146     72.24104      1.198     3.76     5.391181      20.3762     43.17577         6     0.917     0.566  23.48   0
       354    263.2816     81.6039 300.2339881 +22.4874959     5918.754     72.14902      1.553     2.79     5.600527      20.3762     728.4302        39     1.371     1.160  66.58   0
       355    769.8889     82.5283 300.3914640 +22.6393957     329.2606     72.38802      1.335     3.73     5.514911      20.3762     48.91825         6     0.810     0.494  -6.41   0
       356    114.8095     81.4690 300.1878582 +22.4429887      733.777     72.20424      1.864     3.63     5.505512      20.3762      66.8772        12     1.134     0.823 -10.62   0
       357    892.9393     79.4423 300.4308388 +22.6753147     255.9706     72.20424      1.149     3.64      5.38885      20.3762      48.4419         6     0.787     0.486   9.66   0
       358    234.9491     75.4289 300.2271758 +22.4772365     352.1266     72.24104      1.359     5.09     5.690647      20.3762     44.35099         8     0.938     0.782  73.86   0
       359    279.0629     73.0600 300.2416666 +22.4897662     383.6415     72.25942      1.337     2.94      5.48989      20.3762     47.08965         7     0.844     0.626  26.98   0
       360     25.0529     72.4772 300.1628730 +22.4135169     301.6987     72.25942      1.305     4.76     5.946745      20.3762     42.34652         7     1.168     0.550 -22.62   0
       361    509.3817     67.0468 300.3153068 +22.5569900     6399.494     72.25942      1.432     2.75     5.296563      20.3762     658.9155        35     1.245     1.099  72.75   0
       362    395.1533     67.1497 300.2797085 +22.5228262     739.7925     72.25942      1.593     3.08      5.38301      20.3762     99.05053        11     0.974     0.871 -46.74   0
       363    565.8556     61.5560 300.3346758 +22.5723131     240.7721     72.22264      1.262     2.47     5.283462      20.3762     58.96026         5     0.931     0.339  83.84   0
       364    703.7290     58.1361 300.3787450 +22.6125850     330.7024     72.25942      1.470     5.03     5.676756      20.3762     44.29375         6     0.876     0.818 -18.67   0
       365    762.1352     56.9798 300.3973266 +22.6297255     731.4055     72.20424      1.487     3.47     5.571581      20.3762      82.3698        12     0.971     0.881  19.00   0
       366    854.3716     56.1487 300.4263581 +22.6570762     461.5813     72.24104      1.401     2.76     5.330017      20.3762     58.40973         7     0.746     0.635 -85.30   0
       367    922.5816     53.2990 300.4485589 +22.6766556     423.3541      72.1306      1.498     3.51     5.314863      20.3762     47.60266         5     0.743     0.479 -77.99   0
       368    202.0999     51.1469 300.2248273 +22.4604209     445.7517     72.31456      1.550     3.52     5.493765      20.3762     41.52197         8     0.840     0.652 -28.60   0
       369    560.7336     49.6959 300.3369238 +22.5673693     456.1888      72.3513      1.285     3.02     5.291263      20.3762     64.43478         8     0.816     0.745  57.34   0
       370    637.7255     47.1391 300.3617390 +22.5896732      6444.92     72.25942      1.449     2.66      5.50133      20.3762     812.4198        38     1.305     1.125  82.38   0
       371    412.5317     46.1327 300.2919288 +22.5219865     1419.886     72.27781      1.407     2.78     5.451577      20.3762     174.8673        19     1.096     0.987 -73.58   0
       372    678.9751     44.5856 300.3754210 +22.6012807     947.6082     72.24104      1.411     3.19     5.740898      20.3762      128.977        14     1.129     0.877 -75.44   0
       373    748.7734     42.0038 300.3980141 +22.6214195     418.9666     72.18584      1.747     3.69     5.693357      20.3762     43.44981         5     1.103     0.355 -77.77   0
       374    694.8406     40.7500 300.3816087 +22.6049240     594.8518     72.24104      1.396     2.57     5.775721      20.3762     84.25568         9     0.856     0.754 -59.11   0
       375    161.2330     38.4975 300.2162171 +22.4445468     673.7529     72.20424      1.549     3.34     5.440827      20.3762     75.24934        13     1.090     0.820   4.44   0
       376   1003.9109     37.9250 300.4789191 +22.6965491     406.6305     72.36966      1.587     5.04     5.409044      20.3762     38.41802         7     0.998     0.721  50.01   0
       377    964.5643     38.5897 300.4664248 +22.6849757     532.9811     72.20424      1.268     2.69      5.34368      20.3762      67.5634         8     0.958     0.489   3.38   0
       378    733.3531     36.4287 300.3950135 +22.6152024     497.4345     72.24104      1.210     3.06     5.813315      20.3762     61.87164         9     0.988     0.707  12.11   0
       379    697.2625     31.1488 300.3854748 +22.6028864      770.946     72.27781      1.723     4.99     5.839982      20.3762     89.26938        13     1.506     0.722  52.48   0
       380    682.0302     32.1018 300.3804185 +22.5986034     2760.477     72.16743      1.392     2.55     5.834337      20.3762     353.2281        28     1.184     1.091  73.57   0
       381    322.8501     32.6661 300.2683802 +22.4912666     447.0926     72.20424      1.513     4.06     5.364918      20.3762     46.37223        10     1.001     0.740  39.96   0
       382    768.4167     23.9431 300.4099905 +22.6220988     1621.723     72.18584      1.439     2.55     5.555783      20.3762     186.3648        17     0.987     0.900  67.51   0
       383    846.6904     18.2019 300.4362589 +22.6438582     298.9917     72.14902      1.382     4.58     5.206514      20.3762     41.49249         6     0.881     0.677  21.66   0
       384    706.3509     16.9532 300.3929072 +22.6015212     811.8589     72.25942      1.463     2.96     5.922108      20.3762     97.78066        14     1.039     0.835   3.25   0
       385    171.2630   1017.6987 299.9014071 +22.7286224     548.9656     72.33293      2.020     6.53     98.79868      20.3762     32.15388        10     1.247     0.961  13.78  16
       386     84.8157     16.0105 300.1997443 +22.4151977     679.5166     72.14902      1.999     3.40     5.660874      20.3762     61.88667        10     1.098     0.843   0.86   0
       387    747.2062   1014.4781 300.0817476 +22.9004431     265.9956     72.14902      1.430     4.80      4.60108      20.3762     36.30734         5     1.093     0.597 -67.06   0
       388    310.9810   1012.7890 299.9464572 +22.7691388      1830.93     72.18584      7.569     7.29      6.89885      20.3762     85.10825        39     2.021     1.728 -20.08  16
       389    148.1260   1008.3707 299.8972487 +22.7190042      1578.97     72.24104      3.024    10.51     90.01608      20.3762     50.01248        24     3.390     0.909   5.91  18
       390    149.2420   1005.7619 299.8984444 +22.7185912     1157.877     72.31456      2.404     7.86     88.46888      20.3762     44.79523        14     1.848     0.934 -10.82   3
