#   1 NUMBER                 Running object number                                     
#   2 X_IMAGE                Object position along x                                    [pixel]
#   3 Y_IMAGE                Object position along y                                    [pixel]
#   4 ALPHA_J2000            Right ascension of barycenter (J2000)                      [deg]
#   5 DELTA_J2000            Declination of barycenter (J2000)                          [deg]
#   6 FLUX_APER              Flux vector within fixed circular aperture(s)              [count]
#   7 FLUXERR_APER           RMS error vector for aperture flux(es)                     [count]
#   8 FLUX_RADIUS            Fraction-of-light radii                                    [pixel]
#   9 FWHM_IMAGE             FWHM assuming a gaussian core                              [pixel]
#  10 BACKGROUND             Background at centroid position                            [count]
#  11 THRESHOLD              Detection threshold above background                       [count]
#  12 FLUX_MAX               Peak flux above background                                 [count]
#  13 ISOAREA_IMAGE          Isophotal area above Analysis threshold                    [pixel**2]
#  14 A_IMAGE                Profile RMS along major axis                               [pixel]
#  15 B_IMAGE                Profile RMS along minor axis                               [pixel]
#  16 THETA_IMAGE            Position angle (CCW/x)                                     [deg]
#  17 FLAGS                  Extraction flags                                          
         1    204.0569      9.3762 300.2354094 +22.4424136     3875.948     72.31762      1.610     2.93     6.041282       20.403     420.7007        30     1.330     1.115  65.24   0
         2    772.3857     10.3365 300.4120493 +22.6128254     587.1335     72.28077      1.286     2.81     5.945659       20.403     74.76192         9     0.887     0.668   1.86   0
         3    530.1261      6.7009 300.3377455 +22.5392803     335.5561     72.44644      1.346     3.40     5.417292       20.403      51.8404         8     0.954     0.748  -0.26  16
         4    765.3596      2.1819 300.4125011 +22.6083771     843.7269     60.94181      1.173     2.52      5.97491       20.403     111.3039        13     0.894     0.804   4.37  24
         5    320.2050      1.8665 300.2739699 +22.4750409     899.7482     59.30222      1.219     2.60     5.997518       20.403     139.1469        14     1.063     0.707 -13.12  24
         6    731.7962      1.2961 300.4023262 +22.5980801     272.5569     55.95036      1.178     1.90     6.098637       20.403     53.40839         5     0.695     0.433 -15.56  24
         7    201.6567   1001.9977 299.9124104 +22.7266068     1769.295     72.28077      3.452    10.77     78.64813       20.403     56.07391        31     2.241     1.441 -52.48   3
         8    280.5986   1020.0088 299.9310983 +22.7554644     2731.613     71.44662      5.200    22.46     33.18844       20.403     61.25974       122     4.419     3.169 -45.15  27
         9    272.0043   1004.3765 299.9335112 +22.7484027      3330.92     72.28077     10.897    56.42     36.37716       20.403     88.63466       682    21.446     4.119 -10.29  19
        10    233.3351    991.7414 299.9255965 +22.7331742     4744.004     72.35445      8.699    23.88     60.86897       20.403     94.07878       365     6.012     4.944  75.37  19
        11    252.2458    990.5924 299.9318508 +22.7385203     6456.398     72.33604      9.697    27.29     46.25365       20.403     118.9799       479     6.592     5.330 -69.62  19
        12    271.4504    980.1334 299.9412255 +22.7412846     9390.569     72.29919     11.156    30.94     28.25468       20.403     177.2703       879    11.342     5.453  60.90  19
        13    121.8203   1012.2928 299.8842442 +22.7055926     3109.853      72.2439     15.454    85.61     88.26032       20.403     118.4778      1422    24.638     8.253  49.65  27
        14    112.4860    953.0346 299.9006191 +22.6858033     5138.233     72.28077     21.135    79.99     34.64083       20.403     252.0045      2074    15.193    11.686  35.68  27
        15     21.2377    992.5603 299.8594100 +22.6697386     709.0162     72.39126      5.475     4.83    -5.540581       20.403     30.12444         5     1.277     0.518  70.34   3
        16    109.0808    922.4808 299.9094977 +22.6760218     4101.569     72.44644     19.220    60.14     11.77237       20.403     83.03239      1050    12.444     8.331 -17.38   3
        17    199.1731    981.8578 299.9181899 +22.7200870     1409.327     72.31762      4.328    16.58     63.15732       20.403     49.36148        47     3.145     2.430  33.61   2
        18    579.6999    997.3764 300.0315467 +22.8387100     2523.835     72.26234      1.904     4.53     3.613379       20.403     182.6751        30     1.469     1.256 -31.06   0
        19    530.7712    982.5015 300.0211501 +22.8197664     448.5456      72.2439      1.861     4.30     3.566272       20.403     26.82949         6     1.065     0.494   4.56   0
        20     13.7513    979.2344 299.8614190 +22.6636716     1780.928     72.35445     10.875    31.51    -8.666153       20.403     48.10385       115     6.497     4.243 -35.45  19
        21    959.5256    976.5768 300.1566987 +22.9466123     847.6558     72.35445      2.076     6.53     3.508126       20.403     62.84631        16     1.384     1.054  29.54   0
        22      1.6361   1021.6209 299.8438673 +22.6721810     991.3808     52.94096      1.870     7.49    -36.22497       20.403     70.63869        18     1.734     0.906  76.84  27
        23      3.5334   1015.7222 299.8463756 +22.6710604     2517.451     67.14043      4.941    19.90    -31.08422       20.403     69.95745       105     5.581     1.971  53.52  27
        24    177.4127    961.7474 299.9179663 +22.7077898     1428.901     72.33604      3.543    12.48     50.99872       20.403     55.54803        36     2.597     1.670  32.28   0
        25     27.7359    999.4961 299.8591726 +22.6736775      486.717     72.40966      2.331     3.70    0.8361002       20.403      36.2136         5     0.788     0.698  44.72   0
        26    666.2104    992.5259 300.0600712 +22.8632625     8500.777     72.31762      1.948     4.46     3.660086       20.403     533.9065        49     1.512     1.477  71.71   3
        27    684.5104    959.5786 300.0764909 +22.8592934     6845.222      72.2439      1.895     4.12     3.671482       20.403     408.6222        49     1.556     1.409   3.54   0
        28    671.8355    990.2834 300.0625532 +22.8643057     9290.937     72.28077      1.920     4.58     3.660089       20.403      572.064        49     1.526     1.436  54.96   3
        29    276.3890    953.7271 299.9513508 +22.7351941     463.7699     72.33604      1.510     4.55     16.61064       20.403     44.58729        12     1.098     0.898  79.67   0
        30    764.9684    994.1373 300.0903207 +22.8933367     660.0142     72.33604      2.427     6.68     3.655447       20.403     74.12386         9     1.423     0.879 -89.57   2
        31    835.7302    954.3622 300.1253187 +22.9031302     453.7165     72.28077      2.259     3.90     3.935901       20.403     36.31246         6     0.941     0.463 -35.76   2
        32    564.2825    953.7083 300.0409512 +22.8215554     567.7288     72.46483      2.256     6.69     3.633431       20.403      45.9436         9     1.237     1.015 -13.55   0
        33    593.0870    950.2952 300.0510317 +22.8292144     1615.484     72.50159      1.881     4.21      3.65211       20.403     120.3298        26     1.341     1.238 -49.31   0
        34      2.8280    996.3538 299.8524572 +22.6652980     2346.861     64.15762     15.854    22.58     -24.1026       20.403     60.67358       122     4.758     3.179 -76.50  27
        35    486.5837    946.8508 300.0189901 +22.7962836     1017.028     72.33604      1.895     4.96     3.767245       20.403     79.34392        21     1.349     1.200 -48.26   0
        36    770.9854    946.1581 300.1078044 +22.8813668     315.7011     72.33604      1.327     3.86     3.906484       20.403     31.80434         5     1.237     0.346  66.04   0
        37    417.4558    944.7396 299.9981607 +22.7749414      6652.38     72.39126      1.877     4.21     3.963809       20.403     451.4273        45     1.474     1.398  10.46   0
        38    450.1687    931.3698 300.0126904 +22.7809189     582.2714     72.31762      1.763     5.37     3.985284       20.403     42.58939        12     1.270     0.728 -86.24   0
        39    963.8910    923.6778 300.1752685 +22.9327272     2101.021     72.46483      2.047     4.97     3.839644       20.403     109.8625        32     1.491     1.368 -34.21   0
        40      4.9019   1006.2967 299.8498670 +22.6687702     2995.073     71.59563     11.745    45.67    -25.94489       20.403     60.55043       343     9.793     5.911  40.58  27
        41    205.5125    998.4146 299.9147749 +22.7267368     2091.531     72.26234      5.809    13.67     74.78225       20.403     58.46894        47     3.136     1.728 -71.00   3
        42    613.6785    920.8590 300.0670195 +22.8269411     401.6578     72.35445      1.605     5.10     3.679197       20.403     42.51728         7     1.215     0.605  -5.21   0
        43    752.6436    912.3707 300.1130774 +22.8661680      763.332     72.35445      2.009     5.14     3.919245       20.403     58.72126        16     1.366     0.950  85.51   0
        44    564.6949    907.9299 300.0559689 +22.8085418     279.3105     72.42805      1.412     5.95     3.779288       20.403     32.93953         8     1.087     0.916  48.52   0
        45    387.9143   1004.3718 299.9695699 +22.7831837     543.0169     72.31762      1.784     6.26     4.116493       20.403     49.91027        14     1.325     0.832 -36.37   0
        46    809.6893    900.4179 300.1347462 +22.8798353     11512.14      72.2439      1.817     4.07     4.187671       20.403     705.5229        56     1.494     1.444 -30.14   0
        47    787.4991    906.5248 300.1258427 +22.8749377     899.9296     72.44644      1.724     5.17     4.112715       20.403     58.44725        17     1.144     1.056  67.26   0
        48    854.9495    900.8361 300.1487211 +22.8935204      435.094     72.33604      1.824     3.64     4.187671       20.403     40.39447         5     1.022     0.521  30.47   0
        49    119.4358    892.7827 299.9223733 +22.6706150     989.2451     72.31762      3.224     5.49     10.40669       20.403     76.57997         9     1.135     0.750 -48.78   2
        50    515.1312    888.8087 300.0467543 +22.7881906     352.9139     72.29919      1.841     4.22     3.967321       20.403     32.13478         6     1.221     0.416  60.43   0
        51    861.8880    887.6992 300.1551569 +22.8918270     385.1599     72.48321      1.522     4.71     4.187671       20.403     41.91208         8     1.219     0.657  44.12   0
        52    818.1072    882.5281 300.1431884 +22.8772210     1480.987     72.46483      1.711     4.26     4.187671       20.403     96.74186        23     1.259     1.189  -7.26   0
        53    519.3514   1006.9858 300.0096290 +22.8233658     226.3952     72.33604      1.659     4.45     3.464636       20.403     32.10943         6     1.202     0.469  15.09   0
        54   1001.1431    882.1985 300.2003809 +22.9319734     459.6742     72.26234      1.716     5.51     4.125202       20.403     36.34087         9     1.218     0.703 -19.39   0
        55    670.5032    879.9954 300.0980105 +22.8322490     409.1736     72.22546      1.889     5.17     3.895575       20.403     32.33245         7     1.087     0.695  -9.62   0
        56    856.3946    876.0002 300.1572485 +22.8868209     879.9532     72.13318      1.930     4.56     4.187671       20.403     59.26223        18     1.187     1.078  35.62   0
        57    964.8333    873.5558 300.1918635 +22.9186121     320.6125     72.35445      1.654     5.13     4.156736       20.403     29.24551         5     1.111     0.669 -67.70   0
        58    904.8160    866.8654 300.1753188 +22.8987073      668.595     72.29919      1.867     5.93     4.180255       20.403     52.37546        11     1.088     0.910 -29.93   0
        59    756.0849    866.1559 300.1291792 +22.8539302     749.1572     72.28077      1.592     4.72     4.034646       20.403      60.5667        16     1.162     1.106  39.03   0
        60     16.1407    865.2184 299.8992390 +22.6317075     252.1735     72.28077      1.284     4.29     4.682555       20.403     36.91257         6     0.800     0.656 -75.61   0
        61    765.9727    863.7379 300.1330473 +22.8561995     1241.453     72.31762      1.304     6.08     4.069459       20.403      649.532        14     1.489     0.697 -14.05   0
        62    468.7463    862.4526 300.0408844 +22.7667163     4114.551     72.35445      1.678     3.45     4.064932       20.403     346.0508        34     1.341     1.213 -19.90   0
        63    247.2641    850.9337 299.9757203 +22.6969730     437.8179     72.37286      1.791     3.99     5.604537       20.403     44.14682         8     1.038     0.785   2.22   0
        64    193.9585    847.9874 299.9601034 +22.6801337     718.5569     72.31762      1.582     4.72     6.834517       20.403     69.26917        15     1.072     1.045  70.32   0
        65    171.1335    845.2012 299.9539132 +22.6724855     1662.584     72.29919      1.864     3.94     7.278021       20.403      163.144        27     1.372     1.229  15.40   0
        66    103.1510    846.3023 299.9324245 +22.6524000     335.4686     72.37286      1.376     4.27     5.372344       20.403     29.53173         7     0.873     0.594 -29.27   0
        67     46.5088    834.8943 299.9185321 +22.6321290     402.5607     72.48321      1.424     3.76     4.865062       20.403     34.30077         6     0.812     0.500 -89.33   0
        68    997.1731    832.8998 300.2151729 +22.9166207     2154.067     72.26234      1.850     4.06     4.237822       20.403     148.0715        31     1.414     1.315 -11.92   0
        69    702.5236    833.1292 300.1232261 +22.8283924     501.4857     72.40966      2.085     3.34     4.064308       20.403     39.25709         6     0.988     0.447 -31.06   0
        70    203.1520    827.0720 299.9697613 +22.6768935     396.7882     72.29919      1.596     4.08     5.736985       20.403     58.60056        10     1.420     0.886 -24.29   0
        71    780.7184    826.9046 300.1496196 +22.8500418      676.335     72.48321      1.637     4.22     4.058081       20.403     63.38741        10     1.005     0.754  40.18   0
        72    648.7368    820.5685 300.1105517 +22.8086628     4920.954     72.33604      1.624     3.48      4.16325       20.403     443.3966        34     1.248     1.237 -57.78   0
        73    138.9075    820.8120 299.9518244 +22.6558207     332.5097     72.26234      1.575     3.32     5.618744       20.403     67.89823         7     1.202     0.546 -88.25   0
        74    451.0223    817.7549 300.0498995 +22.7485738     648.2147     72.37286      1.700     4.30     4.233438       20.403     56.88126        12     1.101     0.861 -15.49   0
        75    198.9792    814.2250 299.9726401 +22.6719566     1295.373     72.29919      1.676     3.73     5.239133       20.403     137.4291        22     1.330     1.163  17.20   0
        76    669.1693    813.0461 300.1193628 +22.8126280     782.0067     72.35445      1.623     4.32     4.219826       20.403     74.32116        15     1.106     0.998  62.44   0
        77    218.6212    811.2543 299.9797130 +22.6769978     397.6168     72.31762      1.639     5.27       4.9863       20.403     40.23872         8     1.200     0.653  54.81   0
        78    585.6471    803.6371 300.0964044 +22.7848884     259.7072     72.35445      1.460     5.42     4.262267       20.403      31.0009         5     1.007     0.824  82.34   0
        79    824.8397    800.5071 300.1719558 +22.8556824     4224.656     72.31762      1.657     3.49     4.157495       20.403     335.7476        35     1.315     1.256  50.35   0
        80    233.1708    793.9605 299.9898586 +22.6764022     401.2446     72.31762      1.553     4.17     4.665206       20.403     68.72276         6     1.215     0.409  37.59   0
        81    541.7077    792.8967 300.0862125 +22.7686317     642.3621     72.50159      1.585     4.25     4.289313       20.403     61.87354        13     1.059     0.923 -31.18   0
        82    188.2167    790.8144 299.9769036 +22.6620126     968.1128     72.26234      1.663     4.37     4.675101       20.403     95.84212        19     1.236     1.117  44.78   0
        83    337.8087    782.8235 300.0260244 +22.7045955     53608.93     72.31762      1.620     3.47     4.544626       20.403     5086.596        99     1.461     1.435  59.41   0
        84    595.8503    781.8546 300.1066629 +22.7816938      1618.49     72.35445      1.535     2.98      4.30488       20.403     168.7762        26     1.258     1.089  62.79   0
        85   1008.3101    781.0928 300.2354905 +22.9050708     841.7426     72.48321      1.838     5.15     4.304444       20.403     69.25923        19     1.372     1.083  24.74   0
        86    266.2047    780.8907 300.0043797 +22.6825627     451.9852     72.22546      1.268     3.78     4.665206       20.403     53.33888         5     0.951     0.430 -42.39   0
        87    624.6533    777.7544 300.1169671 +22.7891509     974.9973     72.35445      1.769     3.77     4.303374       20.403     95.87218        17     1.216     0.964  86.41   0
        88     24.3162    776.9917 299.9304579 +22.6088659       845.45     72.26234      1.934     4.43     4.611269       20.403     69.91222        16     1.151     1.112 -84.21   0
        89    635.3726    776.4238 300.1207387 +22.7919821     443.3387     72.29919      1.374     4.69      4.30547       20.403     56.08957        12     1.363     0.773  -4.51   0
        90    740.9484    772.4506 300.1549260 +22.8224844     419.1478     72.35445      1.405     5.10     4.015296       20.403     48.01859         9     1.108     0.664  66.74   0
        91    536.0265    769.9791 300.0918927 +22.7603496     257.4055     72.29919      1.135     3.63      4.33958       20.403     34.29546         5     0.637     0.599   0.67   0
        92    387.5322    760.0737 300.0488895 +22.7129801     31639.21     72.39126      1.592     3.14     4.510329       20.403     3262.398        70     1.378     1.327  49.10   0
        93    778.6879    762.9537 300.1697756 +22.8310664     743.1345     72.29919      1.524     3.69     4.015296       20.403     84.84932        13     1.032     0.985  -0.98   0
        94    401.7661    760.7257 300.0531069 +22.7174358     2172.878     72.29919      1.649     3.16     4.526762       20.403     219.0613        22     1.170     1.079 -39.83   0
        95    910.6285    756.0563 300.2131564 +22.8686165     2810.037     72.31762      1.719     3.87      4.34386       20.403     206.2386        34     1.347     1.293 -50.51   0
        96    398.8498    754.5751 300.0541983 +22.7147961     662.9678     72.33604      1.832     4.26     4.518966       20.403     61.40501         8     0.995     0.678 -33.46   0
        97    668.6378    752.1050 300.1390063 +22.7949699     871.8481     72.29919      1.477     3.20     4.330624       20.403     96.24811        15     1.046     0.928   4.34   0
        98    269.7769    752.1653 300.0148266 +22.6753928     702.1876     72.33604      1.626     4.96     4.665206       20.403     77.33964        16     1.290     1.020  -6.11   0
        99    505.2597    752.1509 300.0881077 +22.7460074     478.0669     72.37286      1.413     3.73     4.366711       20.403     49.69984         7     0.851     0.607 -58.93   0
       100     75.0000    747.3068 299.9558531 +22.6155632     488.7235     72.18856      1.803     5.77     4.459908       20.403     53.18821        12     1.285     1.079  61.51   0
       101    515.6544    746.7455 300.0931007 +22.7475722     842.0041     72.35445      1.498     2.96     4.398066       20.403     114.6531        15     1.024     0.921 -54.04   0
       102    916.7959    744.1135 300.2189617 +22.8670327     564.6002      72.2439      1.640     5.52     4.351736       20.403     46.14383        12     1.170     0.989  -8.91   0
       103    417.7008    743.2896 300.0637325 +22.7172101     320.6467     72.48321      1.405     3.00     4.533826       20.403     50.34121         6     0.737     0.625  50.17   0
       104    374.4358    742.7849 300.0504330 +22.7040910     354.1755     72.31762      1.223     2.09     4.474038       20.403     46.21917         5     0.677     0.463 -69.09   0
       105    461.5694    742.0364 300.0777938 +22.7300045     432.1212     72.33604      1.306     3.70     4.446466       20.403     65.43169         8     0.941     0.773 -54.52   0
       106    103.3673    741.1162 299.9666805 +22.6222996     580.2096     72.28077      1.997     5.78     4.495599       20.403     58.53269        11     1.332     0.948 -34.70   0
       107    670.5652    740.8783 300.1432555 +22.7923236     324.5876     72.26234      1.736     5.16     4.342153       20.403     35.22323         7     1.164     0.645 -50.47   0
       108    894.5815    738.9609 300.2137080 +22.8588975     506.4112     72.33604      1.705     6.08     4.262725       20.403      45.8668        11     1.266     0.820 -13.25   0
       109    267.8061    736.2848 300.0193744 +22.6702453      415.782      72.2439      1.385     4.29      4.66265       20.403     69.39986         9     0.971     0.723  -4.12   0
       110    590.8472    726.7685 300.1230082 +22.7643781     508.6122     72.35445      1.628     5.61     4.387601       20.403     48.84107        11     1.165     0.782 -73.90   0
       111    560.6590    725.3804 300.1140576 +22.7549303     578.7629     72.26234      1.559     3.91     4.434662       20.403     77.81582        15     1.098     1.067   2.70   0
       112    977.1071    721.4266 300.2451484 +22.8785790     4588.826     72.26234      1.726     3.70     4.440323       20.403     361.2473        39     1.346     1.334  89.10   0
       113    582.5284    722.2625 300.1218816 +22.7605907      1413.85     72.35445      1.492     3.03     4.406697       20.403     158.3909        20     1.158     1.017 -79.57   0
       114    502.3506    722.0464 300.0969854 +22.7364932     243.5277     72.33604      1.377     4.30     4.462536       20.403      39.9137         7     0.745     0.706  62.14   0
       115    664.1734    717.5093 300.1488586 +22.7836970     267.8723     72.26234      1.059     3.56     4.399173       20.403     41.75106         6     0.783     0.499  -3.10   0
       116    965.4786    712.8474 300.2443087 +22.8726306     1664.477     72.31762      1.747     4.00      4.42093       20.403     119.9869        24     1.336     1.054  24.99   0
       117    328.3918    706.5361 300.0478866 +22.6798800     785.5702     72.29919      1.596     2.81     4.482864       20.403     105.4122        15     1.011     0.916 -37.54   0
       118    792.0768    704.1525 300.1930592 +22.8181877     2707.123     72.31762      1.636     3.17     4.158042       20.403     239.1169        32     1.595     1.104   0.81   0
       119    996.6462    702.9861 300.2572372 +22.8791313     1610.758     72.33604      1.720     3.88     4.425694       20.403     131.1164        25     1.323     1.111  54.18   0
       120     14.2047    694.3922 299.9541570 +22.5821447     794.9847      72.1701      1.719     5.66     4.764108       20.403     82.62893        15     1.518     0.909 -24.62   0
       121    874.1996    689.8660 300.2233063 +22.8386858     509.6236     72.28077      1.444     4.37      4.32658       20.403     52.08969        13     1.120     0.869  63.66   0
       122    177.2660    690.3655 300.0061414 +22.6299120     744.2199     72.31762      1.706     4.16     4.621599       20.403     72.51221        13     1.165     0.922 -30.12   0
       123    910.3677    681.0703 300.2374440 +22.8469922     149774.5     72.31762      1.603     3.27     4.381094       20.403     12614.16       160     1.500     1.480 -48.67   0
       124    672.5037    685.0331 300.1620069 +22.7768664     459.3129     72.31762      1.451     3.65     4.502021       20.403     50.84033         6     0.795     0.497  85.39   0
       125    762.5317    681.2679 300.1912857 +22.8027615     839.3174     72.37286      1.488     3.56     4.282542       20.403     85.06627        14     1.098     0.880 -27.35   0
       126    943.0435    673.9827 300.2499390 +22.8547423     476.7634     72.33604      1.501     4.03     4.389729       20.403     46.67134        10     1.106     0.850  45.94   0
       127    596.5673    669.7484 300.1433175 +22.7497192     1670.632     72.33604      1.433     2.87     4.469006       20.403     196.6555        18     1.072     0.961 -84.13   0
       128    777.8199    667.1591 300.2006352 +22.8032888     9390.365     72.35445      1.468     2.94     4.333056       20.403     945.7494        42     1.220     1.197  74.97   0
       129    279.3091    662.0803 300.0470623 +22.6524023     4986.476     72.44644      1.531     2.91     4.497852       20.403     574.3558        36     1.276     1.204  17.82   0
       130    361.2824    660.2265 300.0731656 +22.6764518     1140.185     72.29919      1.527     3.14     4.434914       20.403     125.6303        20     1.139     1.054 -17.79   0
       131    236.9183    657.8521 300.0352521 +22.6384757     508.7802     72.35445      1.647     4.74     4.614285       20.403     46.61969        12     1.010     0.914 -82.36   0
       132    569.8044    655.9001 300.1394814 +22.7377211     684.8994     72.20701      1.287     2.82     4.541941       20.403     101.9971        12     0.936     0.814 -84.15   0
       133    561.2443    647.8924 300.1394170 +22.7328560     3241.309     72.31762      1.375     2.71     4.567862       20.403     397.0591        24     1.093     1.007 -81.79   0
       134    551.5303    641.6228 300.1384287 +22.7281441      1473.62     72.33604      1.479     2.78     4.584627       20.403     180.1254        17     1.026     0.946  82.96   0
       135    944.9906    639.9227 300.2616124 +22.8455367     541.8585     72.28077      1.517     4.97     4.639089       20.403     49.69992         9     0.981     0.712  -5.80   0
       136    214.7063    637.8640 300.0348381 +22.6260782     652.6503     72.42805      1.546     4.65     4.661517       20.403     73.62615        13     1.142     0.964  51.52   0
       137    229.2034    636.5833 300.0397620 +22.6300586     604.4117      72.2439      1.529     2.90     4.655157       20.403     75.88675         9     0.900     0.688 -40.35   0
       138    115.6963    635.6489 300.0047774 +22.5957447     292.0522     72.37286      1.309     3.26      4.89741       20.403     42.55992         5     0.730     0.462  12.37   0
       139    998.4333    633.2680 300.2804472 +22.8596279     521.2313     72.31762      1.562     2.76     4.706793       20.403     55.20155         8     0.862     0.606 -34.63   0
       140    285.9847    633.0084 300.0585825 +22.6460610     444.5279     72.22546      1.617     3.63     4.564084       20.403     47.78723         8     0.989     0.661   6.48   0
       141    255.0114    632.9323 300.0489738 +22.6367507      434.984     72.33604      1.371     3.12     4.615763       20.403     68.09548        11     0.972     0.781 -29.26   0
       142    575.1226    631.6461 300.1490168 +22.7323499     440.5158     72.29919      1.514     4.51     4.605188       20.403     51.75651        10     0.992     0.872  68.52   0
       143    476.1872    631.3697 300.1183009 +22.7026166     1677.559     72.31762      1.392     2.59     4.525681       20.403     202.7307        18     1.056     0.986 -25.97   0
       144    130.2493    626.2202 300.0123634 +22.5974051     19992.64     72.29919      1.681     3.13     4.867317       20.403     2000.771        62     1.423     1.371  21.28   0
       145     51.1852    627.8889 299.9872501 +22.5741657     661.4847     72.26234      1.678     3.94     5.046168       20.403     90.81816        12     1.359     0.788  79.97   0
       146    561.4262    626.6260 300.1463820 +22.7268034     979.2432     72.28077      1.389     2.60      4.61623       20.403     134.7951        16     1.002     0.939  71.79   0
       147    596.6845    626.2550 300.1574836 +22.7372636     300.0317     72.39126      1.086     2.31     4.627555       20.403     73.76465         5     0.866     0.379 -16.03   0
       148    478.3497    623.6675 300.1214760 +22.7010533     280.0634     72.29919      1.446     4.18     4.528781       20.403     32.97581         5     1.068     0.467  -3.79   0
       149    616.5078    619.3931 300.1658871 +22.7412334     199.2321     72.22546      1.221     3.89     4.660716       20.403     27.19991         5     1.050     0.414 -15.58   0
       150    314.5162    618.6854 300.0721100 +22.6505055      315.294     72.42805      1.320     3.34     4.534822       20.403      52.5845         5     0.766     0.422 -65.28   0
       151    643.7662    614.8836 300.1758433 +22.7481063     315.8819     72.28077      1.697     4.76     4.679945       20.403     36.83622         5     1.374     0.468 -28.67   0
       152    979.3782    613.2244 300.2810132 +22.8481605     1098.232     72.28077      1.653     3.37     4.864302       20.403     91.29173        18     1.081     1.052  34.29   0
       153     76.2942    610.4779 300.0007074 +22.5767036     1421.077     72.42805      1.972     5.18     5.160601       20.403     107.3591        26     1.565     1.102 -78.80   0
       154    845.8704    611.1786 300.2400368 +22.8075894     447.1323     72.33604      1.373     3.14      4.57069       20.403     56.71283         8     0.803     0.679  31.86   0
       155    142.2702    610.8173 300.0211028 +22.5965915     338.6742     72.33604      1.434     4.49     4.835873       20.403     61.41609         8     1.055     0.627  56.37   0
       156    524.7759    607.6098 300.1411462 +22.7103580     484.0457     72.31762      1.450     3.00     4.618951       20.403     53.37999         7     0.814     0.590 -21.76   0
       157    918.4786    605.6364 300.2644805 +22.8277426     999.0543     72.28077      2.084     7.26     4.819717       20.403     84.51181        19     2.009     0.906   8.42   0
       158    317.3226    606.3640 300.0769851 +22.6478104      254.644     72.28077      1.335     3.49     4.556149       20.403     40.09589         6     0.871     0.482 -45.37   0
       159    663.8409    603.9677 300.1856432 +22.7509859     321.2956     72.37286      1.397     3.93     4.752744       20.403     36.27945         6     0.913     0.484 -58.82   0
       160    481.3976    599.5557 300.1302566 +22.6950435     747.8164     72.29919      1.412     2.95     4.577003       20.403     89.00595        14     1.042     0.812 -45.76   0
       161    629.3781    598.0956 300.1768140 +22.7389728       426.69     72.22546      1.346     5.16     4.852296       20.403     49.60247         8     1.242     0.605 -39.50   0
       162    676.7506    596.5580 300.1920722 +22.7527254     502.2684     72.33604      1.880     4.31     4.812015       20.403     43.97682         7     1.024     0.523  48.62   0
       163    647.0651    596.3438 300.1828930 +22.7437693     552.8606     72.37286      1.351     2.80     4.858688       20.403      74.6086        11     0.985     0.754  -5.82   0
       164    525.6899    595.5719 300.1453406 +22.7071749     961.8956     72.29919      1.485     3.20      4.73733       20.403     113.4143        18     1.189     1.003  32.68   0
       165    959.3990    591.0889 300.2819703 +22.8358151      3472.17      72.2439      1.617     3.13      4.83321       20.403     328.2658        35     1.315     1.227 -46.25   0
       166    491.0877    590.9521 300.1360677 +22.6954774     1719.561     72.31762      1.353     2.81     4.657312       20.403      199.564        18     1.042     0.967  52.08   0
       167    856.0486    588.9841 300.2504196 +22.8042597     338.6328     72.35445      1.611     3.69     4.665935       20.403     30.71176         5     0.993     0.395 -29.36   0
       168    466.7605    586.5995 300.1299080 +22.6869359     285.8939     72.33604      1.374     3.68     4.619195       20.403     52.55325         5     0.878     0.481  48.08   0
       169     52.9462    584.2833 300.0019592 +22.5621847     5192.965     72.35445      1.748     3.51     5.120986       20.403     564.1141        38     1.370     1.311  49.50   0
       170    702.4714    581.7853 300.2048847 +22.7561875     217.4109     72.31762      1.253     4.33     4.872409       20.403     29.97535         6     1.094     0.487  83.62   0
       171    998.5096    580.9053 300.2974801 +22.8445983     311.5756     72.50159      1.390     4.15     4.727029       20.403     44.67089         7     0.972     0.602  67.68   0
       172    520.5034    581.4756 300.1483039 +22.7015724     229.9646     72.46483      1.280     3.64     4.859231       20.403     41.47926         5     0.922     0.573 -46.05   0
       173    354.5226    577.5950 300.0979020 +22.6507052     9293.056     72.22546      1.462     2.55      4.59236       20.403     1249.548        41     1.225     1.168  69.17   0
       174    476.9626    574.6768 300.1369560 +22.6865702     9050.321     72.28077      1.413     2.69     4.692259       20.403      1130.52        39     1.183     1.149  45.77   0
       175    723.3130    571.3600 300.2147655 +22.7594361     173.7173     72.29919      1.479     3.86     4.848069       20.403     27.90429         5     1.042     0.409  15.17   0
       176    888.7330    568.8104 300.2671643 +22.8082502     1911.767     72.31762      1.469     3.11     4.800721       20.403     195.9664        22     1.086     1.077 -56.28   0
       177    973.3073    566.1577 300.2944068 +22.8328128     12545.12     72.33604      1.566     3.07     4.716205       20.403     1255.202        50     1.342     1.264 -71.74   0
       178    537.5500    564.2668 300.1592006 +22.7017388     11640.68     72.29919      1.368     2.52     5.127271       20.403     1461.716        41     1.189     1.111  56.48   0
       179    707.0864    560.0976 300.2133663 +22.7513391     664.2459     72.48321      1.465     4.06     4.985042       20.403     69.50123        11     1.096     0.754  52.38   0
       180    265.0707    559.7192 300.0758802 +22.6187543     1458.457     72.42805      1.507     3.16     4.778782       20.403      162.735        19     1.068     1.026  49.91   0
       181    422.6270    558.9022 300.1251656 +22.6657543     353.7859     72.26234      1.446     5.19     4.694578       20.403     37.64245         9     1.090     0.700   0.34   0
       182    511.8217    557.5441 300.1533726 +22.6920976     385.4307     72.35445      1.339     3.46     5.004953       20.403     55.80119         5     0.747     0.463  18.25   0
       183    469.2169    552.3766 300.1417866 +22.6778448     4450.627     72.31762      1.379     2.47     4.792907       20.403     509.3668        33     1.169     1.110  50.63   0
       184    812.0893    552.5014 300.2485620 +22.7806091     890.4872     72.48321      1.448     3.40     4.703648       20.403     102.5468        16     1.149     0.866  33.99   0
       185    447.4622    550.8755 300.1355022 +22.6708934     1346.027     72.37286      1.428     2.78     4.767635       20.403     166.4055        18     1.066     0.930  56.94   0
       186    201.9755    550.1993 300.0593503 +22.5971024     756.5377     72.26234      1.441     3.25     5.021944       20.403     83.58364        13     1.105     0.832 -42.36   0
       187    889.0530    548.0911 300.2739928 +22.8023907     1637.301     72.37286      1.478     3.61     4.855933       20.403     165.5937        23     1.225     1.086 -28.69   0
       188    135.3528    548.2374 300.0392750 +22.5765598     264.7726     72.35445      1.277     3.78     5.202717       20.403     50.97068         6     1.091     0.630 -10.91   0
       189    769.5662    545.1270 300.2377007 +22.7657535     921.4635     72.31762      1.387     2.80      4.76849       20.403     117.3358        13     1.023     0.795 -40.73   0
       190    585.8554    540.0229 300.1821169 +22.7092505     202694.7     72.35445      1.386     2.66     5.595809       20.403     26548.86       191     1.434     1.390  -6.99   0
       191    271.9398    539.8631 300.0844642 +22.6151143     3348.702     72.35445      1.445     2.84     4.806103       20.403     398.1734        30     1.182     1.113  46.11   0
       192    837.6846    536.3123 300.2617994 +22.7836220     568.4434     72.44644      1.607     2.66     4.816767       20.403     62.81538         9     0.829     0.733  -3.00   0
       193    321.0702    522.9860 300.1052267 +22.6249989     272.7641     72.31762      1.252     3.02     4.820703       20.403     39.25669         7     0.863     0.531 -44.64   0
       194    476.5090    520.3002 300.1544721 +22.6708185     2697.405     72.48321      1.393     2.52     5.038276       20.403     310.8404        22     1.054     0.991 -52.68   0
       195    888.1115    516.9584 300.2838087 +22.7931598      348.762     72.31762      1.575     5.33     4.923725       20.403     39.94999         9     1.061     0.926 -86.82   0
       196    793.7341    509.1821 300.2569062 +22.7626620     294.5765     72.29919      1.203     2.16      4.80369       20.403     67.32856         7     0.789     0.576  64.04   0
       197    873.4366    506.6251 300.2825874 +22.7857952     1712.626     72.33604      1.350     2.63     4.965679       20.403     222.8146        19     1.093     0.917  30.58   0
       198    759.8359    507.5030 300.2468846 +22.7520269     347.3325     72.31762      1.254     2.58      4.96849       20.403     44.40963         5     0.730     0.457  20.85   0
       199    744.7991    504.2596 300.2432509 +22.7465912     2624.188     72.28077      1.381     2.47     5.063246       20.403     312.3807        28     1.204     1.028  46.58   0
       200      3.3829    505.1086 300.0122672 +22.5246022     776.1323     66.48247      1.677     3.91      4.93961       20.403      95.6842        16     1.313     0.871  39.13  24
       201    989.0051    502.1379 300.3200936 +22.8191068     474.1614     72.29919      1.600     2.89     4.686332       20.403     54.70461         9     0.803     0.751 -87.89   3
       202    987.5331    497.6826 300.3210809 +22.8173851     905.4386     72.42805      1.788     4.32     4.702747       20.403     75.36104        16     1.218     1.072  -4.79   2
       203    649.2648    501.0852 300.2145119 +22.7170621      351.493     72.40966      1.319     2.48     5.472693       20.403     56.79564         7     0.691     0.666  59.06   0
       204    531.9720    500.0260 300.1783230 +22.6816158     773.8179     72.28077      1.348     2.96     5.358951       20.403     89.13905        13     1.020     0.819  52.39   0
       205   1002.0363    498.4197 300.3253668 +22.8219387     1320.912     72.33604      1.547     2.98      4.65716       20.403     140.4746        18     1.096     0.981 -67.48   0
       206    873.7361    496.7018 300.2859027 +22.7830324     2235.528     72.42805      1.613     4.20     4.990753       20.403     217.5591        26     1.445     1.010  77.56   0
       207    627.1584    494.7896 300.2096690 +22.7086307       740.09     72.31762      1.784     2.73     5.601732       20.403      78.6284        11     0.913     0.786 -52.88   0
       208    465.5559    493.4264 300.1597874 +22.6598179     489.5739     72.33604      1.495     3.23     5.222413       20.403     59.18031        10     1.008     0.713 -29.58   0
       209    413.1448    494.5306 300.1431153 +22.6444276     265.3503     72.35445      1.223     2.83     5.057068       20.403     54.85794         5     0.767     0.445  21.27   0
       210    911.9145    491.7632 300.2994131 +22.7930441     4424.129     72.29919      1.470     2.83     4.931329       20.403     531.6526        31     1.218     1.127  87.92   0
       211    649.3853    488.2115 300.2187290 +22.7133993     183.9396      72.2439      1.340     3.61     5.472693       20.403     34.09461         5     0.945     0.397  -6.40   0
       212    572.6551    487.7347 300.1949827 +22.6902748       352.68     72.37286      1.206     2.45     5.532787       20.403     67.76196         6     0.840     0.440   2.68   0
       213   1003.9301    482.3905 300.3311620 +22.8178965     726.2905     72.29919      1.394     3.39     4.713804       20.403     87.63367        12     1.008     0.832 -44.72   0
       214    143.8795    481.9466 300.0634473 +22.5600923     976.8255     72.35445      1.461     3.18     4.994437       20.403     108.2045        16     1.109     0.914 -77.96   0
       215    943.8722    479.5687 300.3133407 +22.7991061     275.5472     72.31762      1.462     4.39     4.868201       20.403     28.66046         5     1.115     0.492  -3.17   0
       216    804.6686    475.8187 300.2711469 +22.7563475     184.3028     72.31762      1.130     2.60     4.838661       20.403     39.17733         6     0.718     0.602 -22.37   0
       217    136.4290    471.9086 300.0643897 +22.5549772     405.2734     72.28077      1.368     4.16     4.987521       20.403     40.78805        11     1.049     0.717 -15.67   0
       218    999.9278    471.5659 300.3334273 +22.8135858     423.6093     72.31762      1.591     4.79     4.728086       20.403     41.81091         8     1.085     0.669   4.68   0
       219    743.8743    466.3819 300.2552597 +22.7354286     510.2126     72.31762      1.510     3.36     5.108394       20.403     63.46456         9     0.904     0.741   0.47   0
       220    353.0565    464.8989 300.1340359 +22.6179088     346.0094     72.40966      1.614     3.65     4.966769       20.403     38.40517         5     0.649     0.591  85.43   0
       221    633.1165    463.7249 300.2216099 +22.7014901     293.8902     72.40966      1.219     3.54     5.485505       20.403     49.25283         9     0.961     0.658  51.23   0
       222    685.4162    462.3465 300.2383520 +22.7167601     769.1372     72.29919      1.222     2.65     5.254462       20.403     102.9628        12     0.917     0.794 -56.70   0
       223   1000.0848    454.9605 300.3388670 +22.8088577     524.3406     72.29919      1.441     3.68     4.728635       20.403     72.99194        10     1.037     0.829  28.13   0
       224    746.1357    454.3872 300.2598583 +22.7326586      909.522     72.28077      1.370     2.97      5.02512       20.403     102.2165        13     1.010     0.808 -46.25   0
       225    903.4806    450.7532 300.3100961 +22.7787287      993.836     72.31762      1.492     3.28     4.912416       20.403     132.8464        16     1.122     0.948 -12.84   0
       226    862.0540    448.6028 300.2978746 +22.7657075     269.4055     72.28077      1.361     3.91     4.921338       20.403     31.54885         5     0.903     0.486   4.57   0
       227    887.4831    447.0169 300.3063196 +22.7728650     708.1498     72.28077      1.325     2.75      4.91091       20.403     99.46926        12     0.956     0.769  47.20   0
       228    868.4127    447.5596 300.3001961 +22.7673114     295.4038     72.31762      1.189     3.36     4.921426       20.403     49.46937         6     0.911     0.435  17.39   0
       229    631.9451    444.9144 300.2273509 +22.6957343     3317.072     72.37286      1.355     2.60     5.398664       20.403     466.3031        25     1.091     0.985  72.27   0
       230    992.5895    444.0842 300.3400589 +22.8034865     538.7355     72.28077      1.618     3.01     4.745375       20.403     68.62172         8     0.927     0.591 -16.74   0
       231    108.2234    436.1309 300.0672350 +22.5362507     396.4933     72.33604      1.393     2.90     4.954742       20.403     42.11446         6     0.738     0.569  37.43   0
       232    637.4313    432.8071 300.2329898 +22.6938986     199.2666     72.31762      1.188     2.25     5.325685       20.403     41.09742         5     0.699     0.448 -66.92   0
       233    471.8171    432.0430 300.1816620 +22.6440631     289.2011     72.33604      1.154     1.98     5.356299       20.403     68.11305         6     0.696     0.528 -27.14   0
       234    915.2361    423.9908 300.3224496 +22.7745533      447.726     72.31762      1.236     2.68     4.875717       20.403     81.73219         9     0.890     0.636  29.00   0
       235   1001.5408    422.8201 300.3497541 +22.8000507     1023.117     72.26234      1.486     3.04     4.725179       20.403     116.4184        15     1.043     0.940  30.08   0
       236    538.0050    419.7776 300.2062507 +22.6603704     546.0087     72.29919      1.423     3.15      5.35877       20.403     63.00008         9     0.924     0.645   7.30   0
       237    742.4891    418.7608 300.2702855 +22.7213269     1227.184     72.29919      1.466     2.64      4.81245       20.403      148.921        16     1.060     0.819  72.62   0
       238    246.3888    417.0660 300.1163792 +22.5722010     638.9253     72.28077      1.374     2.72     4.962725       20.403     91.39927        10     0.904     0.703   3.88   0
       239    308.8642    412.7182 300.1372229 +22.5896791     3730.264     72.42805      1.446     2.60     4.985676       20.403      512.261        29     1.151     1.090  56.99   0
       240    256.0299    407.4238 300.1225068 +22.5723225     7613.732     72.31762      1.421     2.73     4.980797       20.403     889.3315        38     1.252     1.103  70.12   0
       241   1021.9567    402.3065 300.3627828 +22.8002614     1847.229     65.10571      1.529     2.79      4.73568       20.403     232.4989        26     1.229     1.132 -88.96  24
       242    396.9237    401.6855 300.1682029 +22.6129015     4982.212     72.42805      1.377     2.54     5.275414       20.403     696.6293        30     1.141     1.052  61.82   0
       243    641.0946    398.5148 300.2452607 +22.6851415     18658.96     72.50159      1.336     2.41     5.177033       20.403     2689.192        49     1.211     1.109  85.21   0
       244    657.8297    399.6106 300.2501190 +22.6904687     558.9277     72.31762      1.448     3.68     5.130286       20.403     73.62621        10     1.036     0.797  19.62   2
       245    660.3477    397.6225 300.2515487 +22.6906515     432.0378     72.31762      1.453     3.27      5.11476       20.403     52.59336         7     0.904     0.634  51.60   3
       246    837.8748    389.3455 300.3095679 +22.7414320     390.1379     72.35445      1.238     2.65     4.816093       20.403     62.48557         9     0.829     0.742 -69.13   0
       247    261.1804    385.6058 300.1311887 +22.5676015     305.4513     72.28077      1.196     3.42     5.028175       20.403     47.77507         5     0.760     0.444 -19.24   0
       248    974.6992    381.2558 300.3548689 +22.7800633     786.2015     72.40966      1.354     2.89     4.857664       20.403     108.3323        15     1.082     0.831 -62.01   0
       249    511.6494    380.6529 300.2107409 +22.6412339     509.3526     72.35445      1.656     2.52     5.332204       20.403     69.77699         6     0.923     0.565 -29.03   0
       250    684.4100    380.0259 300.2647565 +22.6928006     310.4175     72.31762      1.250     2.10     4.948465       20.403     54.73487         5     0.787     0.480  28.02   0
       251    195.7967    378.4895 300.1131647 +22.5459594     1959.529     72.22546      1.433     2.58     4.964336       20.403     249.9813        24     1.180     1.006 -53.52   0
       252    581.7453    367.9197 300.2367016 +22.6585729     6636.349     72.35445      1.330     2.28     5.238339       20.403     1011.428        35     1.152     1.068  84.93   0
       253    995.3665    368.3686 300.3654994 +22.7825423     1199.388     72.33604      1.528     3.13     4.873417       20.403     151.9289        17     1.091     0.945  70.77   0
       254    296.6990    367.4192 300.1481380 +22.5730246     617.1788      72.2439      1.295     2.47      5.18252       20.403     90.82623        10     0.844     0.766  79.97   0
       255    154.1262    360.2963 300.1061120 +22.5282443     487.9176     72.44644      1.357     5.02     4.984302       20.403     59.87974        10     1.077     0.945 -36.75   0
       256    841.9730    360.2427 300.3202898 +22.7342913     400.3301     72.33604      1.424     1.97     4.834283       20.403     68.88522         7     0.722     0.602   7.44   0
       257      2.1339    358.0670 300.0595993 +22.4820334      984.857     60.74476      1.311     2.62     4.772661       20.403     166.9209        17     1.219     0.818 -84.75  24
       258    785.8164    357.0453 300.3038189 +22.7165597     1176.139     72.33604      1.387     2.68     4.826085       20.403     157.1981        14     1.058     0.752  64.20   0
       259    695.4462    358.0975 300.2753111 +22.6898027     498.5159     72.35445      1.287     2.81     4.845099       20.403     70.45999         9     0.829     0.765  18.13   0
       260    488.3535    354.1891 300.2120747 +22.6266517     6020.529     72.33604      1.292     2.35     5.352156       20.403     704.3418        32     1.117     1.031  73.27   0
       261    210.1646    352.0822 300.1262005 +22.5426841     1001.144     72.28077      0.512    -0.24     4.944906       20.403     669.4522         5     0.415     0.345  54.03   0
       262    880.3885    348.6513 300.3360306 +22.7424581     1428.427     72.33604      1.359     2.55     4.860613       20.403     199.8714        18     1.057     0.940 -73.13   0
       263    977.7092    348.9861 300.3662795 +22.7716831     626.0887     72.26234      1.492     3.67      4.91375       20.403     60.39385        10     1.013     0.793  38.55   0
       264    472.8637    342.8693 300.2109250 +22.6187589     532.1708     72.35445      1.421     3.23     5.381082       20.403     82.83021        12     1.105     0.848  53.76   0
       265    555.4772    340.5382 300.2374048 +22.6428364     589.8961     72.37286      1.718     3.12     5.253739       20.403     63.63222        10     0.965     0.778  22.17   0
       266    235.4108    340.5978 300.1377774 +22.5469535     141.0317     72.13318      1.056     5.94     4.980664       20.403     23.45767         5     1.114     0.893 -44.34   0
       267    833.8242    339.9698 300.3243269 +22.7260228     308.1315     72.31762      1.492     2.45     4.828893       20.403     46.85329         5     0.780     0.469  31.56   0
       268      1.1811    339.3811 300.0653655 +22.4763847     367.5104     55.32787      0.884     2.17     4.918209       20.403     98.69352         6     0.921     0.329 -76.54  24
       269    536.2943    338.4986 300.2320927 +22.6365044     331.1109     72.50159      1.309     3.49     5.298915       20.403     43.40678         6     0.828     0.555 -41.44   0
       270    853.0938    336.3768 300.3315013 +22.7307580     572.9654      72.2439      1.318     3.12     4.837597       20.403      69.1115        11     0.977     0.743   8.79   0
       271    375.9528    333.4134 300.1838292 +22.5870072     2558.066     72.33604      1.352     2.40     5.420485       20.403     328.9385        23     1.064     1.008  47.66   0
       272     94.3989    330.8084 300.0971129 +22.5018732      1006.28     72.13318      1.503     2.90     5.103787       20.403     129.4522        13     1.016     0.840 -60.23   0
       273    345.2674    322.7726 300.1777331 +22.5747562     29984.21     72.29919      1.404     2.50     5.404903       20.403     3903.073        63     1.290     1.183  59.87   0
       274    879.8887    320.5375 300.3449962 +22.7342238     1300.741     72.39126      1.319     2.58     4.859067       20.403     204.2836        16     0.994     0.900  22.74   0
       275    835.2064    318.3891 300.3317596 +22.7202311     270.8871     72.18856      1.143     2.53      4.81698       20.403     42.61975         5     0.710     0.455  18.64   0
       276     41.5530    310.5333 300.0872672 +22.4802093     4885.734     72.29919      1.655     3.15     5.236176       20.403     576.6006        39     1.349     1.268  54.40   0
       277    795.1256    309.2255 300.3222360 +22.7055978     596.1368     72.33604      1.305     2.88     4.769152       20.403     78.83672        10     0.954     0.693 -66.38   0
       278    919.6182    308.9969 300.3611318 +22.7427959     348.4864     72.22546      2.061     3.84     4.895302       20.403     28.54593         5     1.318     0.322 -39.50   0
       279    219.2831    309.1237 300.1429723 +22.5330815     499.8531     72.40966      1.274     3.44     4.940807       20.403     65.10904         9     0.943     0.643 -21.61   0
       280    444.1695    308.0089 300.2133019 +22.6001470     476.1674     72.29919      1.240     3.17     5.448075       20.403     79.83764         8     0.889     0.676 -11.34   0
       281    755.7268    302.5831 300.3121092 +22.6918930     1908.478     72.31762      1.338     2.26     4.718864       20.403     299.6402        20     1.104     0.899 -84.70   0
       282    563.7431    297.3494 300.2539903 +22.6329007     302.6567     72.37286      1.205     3.29     5.228205       20.403     43.62129         7     0.851     0.637  66.75   0
       283    970.8255    295.6886 300.3814237 +22.7542928     605.9465     72.26234      1.521     4.63     4.909355       20.403     64.72459        13     1.248     0.705  86.26   0
       284    417.5254    287.2495 300.2117426 +22.5862006     2031.191     72.31762      1.458     2.92     5.504871       20.403      267.912        23     1.348     0.907  66.39   0
       285    629.8282    286.3118 300.2781553 +22.6495191     316.3427     72.29919      1.198     4.30     4.824931       20.403      44.1587         7     0.881     0.598  32.89   0
       286    856.6150    280.1786 300.3508309 +22.7156511     714.2376     72.29919      1.387     3.44     4.859518       20.403     90.76377        10     0.933     0.791  64.94   0
       287    756.3923    278.1291 300.3202491 +22.6850612     374.5501     72.29919      1.392     3.66     4.737234       20.403     43.13749         7     0.877     0.593  13.42   0
       288    738.8640    277.7354 300.3149134 +22.6797005     388.2027     72.35445      1.291     3.40     4.697979       20.403     72.50831         9     0.894     0.747  70.56   0
       289    207.6389    268.2374 300.1526130 +22.5178500     373.1458     72.39126      1.508     3.42     5.087118       20.403     42.82381         8     0.962     0.581  20.38   0
       290    493.2523    266.6060 300.2420118 +22.6029529     1123.101     72.29919      1.211     2.23      5.41869       20.403     172.0483        15     0.968     0.846  42.96   0
       291    876.4921    260.0677 300.3635528 +22.7158163      298.555     72.44644      1.235     4.05      4.92127       20.403     35.84446         5     0.883     0.531 -44.69   0
       292    738.1994    258.4794 300.3209520 +22.6739650     2306.978     72.18856      1.332     2.23     4.754405       20.403     351.3229        22     1.121     0.935  64.01   0
       293    999.6432    252.9568 300.4042763 +22.7506229     3306.384     72.39126      1.528     2.89     5.008806       20.403     343.2874        30     1.266     1.141 -34.12   0
       294    446.5944    242.5490 300.2352887 +22.5820645     554.4521     72.29919      1.084     2.76     5.497626       20.403     82.24752        12     0.932     0.835 -44.45   0
       295    121.2767    236.4390 300.1360751 +22.4828351     1334.372     72.29919      1.833     3.92     5.538095       20.403     124.0578        21     1.382     1.032 -36.70   0
       296    152.3914    236.4475 300.1457449 +22.4921630     462.6333     72.33604      1.343     5.38     5.291081       20.403     62.02598        10     1.236     0.727  25.23   0
       297   1015.2405    233.3083 300.4155160 +22.7496365     456.2326     72.31762      1.494     3.16     5.061018       20.403     59.79861         9     0.930     0.677  18.70   0
       298    858.9661    230.3308 300.3677318 +22.7020182     357.3431     72.31762      1.297     5.19     4.999566       20.403     37.59286         8     1.165     0.654  67.18   0
       299    205.5656    228.5113 300.1648515 +22.5058193     553.6479     72.29919      1.532     3.30     5.309387       20.403      55.0657         9     0.914     0.722  19.08   0
       300   1000.5934    226.4231 300.4131784 +22.7432733     217.2581     72.29919      1.157     4.31     5.078699       20.403     42.34188         7     1.021     0.607 -21.76   0
       301    881.3352    222.1932 300.3773469 +22.7063718     327.2392     72.28077      1.264     2.10     5.032212       20.403     53.76521         5     0.719     0.426  69.43   0
       302    809.9980    219.9773 300.3558207 +22.6843849     514.7275     72.26234      1.240     2.58     5.255645       20.403     108.6391        10     0.867     0.728 -73.68   0
       303    400.4113    219.6316 300.2283458 +22.5616455     335.4839     72.31762      1.399     3.02     5.588562       20.403     52.05692         7     0.814     0.662 -79.52   0
       304    900.6744    213.0575 300.3863412 +22.7095312     255.1885     72.37286      1.213     4.23     5.121173       20.403     36.79444         7     0.744     0.684  81.17   0
       305    908.0579    209.0688 300.3899376 +22.7105932     2047.815     72.33604      1.405     2.50     5.155282       20.403     268.2391        23     1.101     1.018  63.61   0
       306    326.6393    206.0920 300.2097802 +22.5356558     2124.573     72.31762      1.333     2.41     5.685405       20.403     302.4322        21     1.111     0.971  63.53   0
       307    404.4339    201.3641 300.2355212 +22.5576013     1157.408     72.39126      1.468     3.23     5.600264       20.403      115.397        14     1.102     0.860 -21.16   0
       308    806.3464    200.9334 300.3608577 +22.6778148      457.188     72.35445      1.135     2.09     5.342967       20.403     92.48344         9     0.807     0.651  24.41   0
       309    156.5029    201.5189 300.1583489 +22.4833641     423.2105     72.44644      1.729     3.94     5.558903       20.403     40.96965         5     1.098     0.404 -34.43   0
       310    913.3713    197.8602 300.3952296 +22.7089587     271.5014     72.33604      1.221     2.84     5.230872       20.403     64.68147         5     0.823     0.465 -37.91   0
       311      3.0930    194.9727 300.1127930 +22.4355041     493.4237     65.22836      2.283     2.43     6.105159       20.403     46.69804         5     0.765     0.487  31.46  16
       312    221.3668    193.4666 300.1811284 +22.5004883     797.2292     72.31762      1.523     2.76     5.632418       20.403       103.04        11     0.962     0.763  19.18   0
       313    759.2157    190.3655 300.3495917 +22.6606693     1715.544     72.31762      1.334     2.50     5.214152       20.403     225.4421        17     1.030     0.889 -85.97   0
       314    824.1068    189.8132 300.3700010 +22.6799318     604.9435      72.2439      1.358     3.71     5.346854       20.403     83.85734        11     1.088     0.722 -74.04   0
       315    242.5841    186.5072 300.1899833 +22.5048464     447.2482      72.2439      1.569     3.97     5.718371       20.403     84.12143        11     1.230     0.703  68.97   0
       316    486.0211    186.1865 300.2658393 +22.5776751     172.0383     72.29919      1.477     4.36     5.470523       20.403      23.6727         5     1.049     0.515 -37.99   0
       317    763.1957    182.0112 300.3535412 +22.6594579      718.827     72.15164      1.268     2.22     5.279581       20.403     113.8116        10     0.852     0.691   5.02   0
       318    683.7642    181.0731 300.3290895 +22.6354120     1318.145     72.28077      1.389     2.62     5.304239       20.403     159.2545        17     1.129     0.895 -74.05   0
       319    532.7407    182.5164 300.2815765 +22.5906108     376.0697     72.42805      1.315     2.50     5.434523       20.403     56.85829         6     0.702     0.646  52.30   0
       320    505.0457    177.5077 300.2745766 +22.5808778     363.0605     72.33604      1.400     2.88     5.461568       20.403     46.39829         6     0.771     0.497   5.47   0
       321    879.1692    172.6363 300.3927409 +22.6914682     1523.228     72.33604      1.387     2.54      5.39525       20.403     224.9408        17     1.039     0.958  61.92   0
       322    609.6673    172.7203 300.3087120 +22.6108279      1084.95     72.42805      1.497     2.87     5.384605       20.403      138.302        14     1.008     0.846  52.94   0
       323    891.2908    171.6178 300.3968517 +22.6948023      903.652      72.2439      1.545     3.52      5.40098       20.403     93.66717        16     1.050     1.028  64.93   0
       324   1007.7759    162.1855 300.4362496 +22.7269385     1152.883     72.33604      1.401     2.74     5.454771       20.403     128.9163        14     0.962     0.870 -12.03   0
       325     31.5110    158.7756 300.1333575 +22.4336290     416.3257     72.26234      1.387     4.59     6.056749       20.403     64.53664        10     1.135     0.797   1.17   0
       326    242.0866    155.1101 300.2000074 +22.4956778     690.8436     72.48321      1.310     2.74     5.927884       20.403     102.8086        12     0.978     0.767  52.44   0
       327    103.7456    149.6448 300.1587662 +22.4526557     2145.609     72.33604      1.662     3.09     6.056182       20.403     246.1548        28     1.301     1.185  70.43   0
       328    926.9101    146.8822 300.4159815 +22.6983432     727.3091     72.42805      1.437     3.97     5.551373       20.403     95.23353        14     1.306     0.763  47.40   0
       329     53.3766    146.6070 300.1440967 +22.4366881      596.496     72.29919      1.607     3.12     6.056749       20.403     72.97359        11     1.026     0.756 -29.13   0
       330    261.2331    142.9632 300.2099002 +22.4979242     5667.448     72.35445      1.456     2.83     5.971147       20.403     639.8307        37     1.305     1.140  69.60   0
       331    243.3681    144.1489 300.2039593 +22.4929127      390.355     72.35445      1.180     1.67     5.949818       20.403     57.33636         5     0.667     0.435  65.75   0
       332     45.3813    137.3897 300.1445999 +22.4316450     1328.208     72.28077      1.610     3.04     6.056749       20.403      162.749        21     1.196     1.050  44.68   0
       333    244.5399    134.0971 300.2075821 +22.4903760     575.7637     72.39126      1.463     2.96     5.970801       20.403     74.71053        11     1.008     0.718 -40.66   0
       334    905.4086    124.7143 300.4164610 +22.6855322     3515.438     72.26234      1.480     2.76     5.691603       20.403     422.9219        31     1.220     1.097 -81.42   0
       335   1008.9797    123.5389 300.4491543 +22.7161771     2778.022     72.26234      1.492     2.58     5.776525       20.403     395.9814        30     1.286     1.103  59.14   0
       336    454.6423    120.0076 300.2775246 +22.5492566     456.0953     72.33604      1.111     2.06      5.57398       20.403     116.0098         9     0.798     0.729  62.79   0
       337    207.5531    120.4172 300.2005136 +22.4753649     400.5045     72.35445      1.630     3.99     6.001361       20.403      37.4301         8     0.912     0.719  49.85   0
       338    568.9371    117.5541 300.3139090 +22.5827731     265.6962     72.35445      1.237     2.24     5.394163       20.403     67.00146         5     0.735     0.552 -83.11   0
       339    378.8123    111.7438 300.2566009 +22.5241725     578.7054     72.31762      1.329     2.65     5.779156       20.403     78.24409        10     0.873     0.734 -45.37   0
       340    913.7684    110.2573 300.4237549 +22.6838735       233.13     72.33604      1.243     4.26     5.785225       20.403     39.49844         6     0.781     0.661   4.47   0
       341    383.5370    110.3298 300.2585296 +22.5251811      360.495     72.35445      1.301     3.72     5.755255       20.403     40.80173         7     0.915     0.550 -30.63   0
       342    145.0730    108.5738 300.1849256 +22.4532429     635.1658     72.31762      1.564     2.89     6.068513       20.403     89.85127        10     1.014     0.712  56.66   0
       343    506.0451    107.0867 300.2977163 +22.5609340     1769.155     72.29919      1.346     2.70     5.501706       20.403     225.2649        22     1.064     0.995 -81.15   0
       344    434.1906    107.5788 300.2751867 +22.5395598      507.171     72.29919      1.456     2.67     5.591022       20.403     63.64756        10     0.919     0.713  88.96   0
       345    567.7623    106.1791 300.3172301 +22.5791509     406.1838     72.33604      1.492     3.73     5.388104       20.403     50.25884         8     0.928     0.685  28.64   0
       346    329.7989    103.3227 300.2440790 +22.5070728     160.8951     72.20701      1.037     2.77     5.966892       20.403     42.14706         5     0.750     0.427 -18.04   0
       347    249.8922    102.3149 300.2195482 +22.4828480     372.4298     72.48321      1.271     2.64     6.035457       20.403      59.4875         6     0.828     0.487 -40.63   0
       348    794.2618     96.8606 300.3908299 +22.6442630     401.1673     72.35445      1.267     2.61     5.858762       20.403     59.25079         6     0.748     0.539 -33.13   0
       349    280.1925     86.8994 300.2339691 +22.4874950     6069.783     72.20701      1.457     2.71     6.070743       20.403     689.9868        37     1.265     1.148  66.42   0
       350    786.4853     87.3263 300.3914957 +22.6391933     407.7723     72.44644      1.475     4.12     5.877309       20.403     45.83953         7     1.131     0.428  75.73   0
       351    131.4406     86.3280 300.1878973 +22.4427681     789.6276     72.29919      1.450     3.28     6.073147       20.403     85.06747        14     1.106     0.789  54.38   0
       352    909.4673     84.8343 300.4306536 +22.6752716     412.0303     72.31762      1.968     1.83      5.87778       20.403     51.53331         5     0.655     0.474 -69.72   0
       353    251.7950     80.7796 300.2271193 +22.4772303     467.1119     72.29919      1.611     4.18     6.046481       20.403     58.17801         5     1.207     0.446  44.50   0
       354    295.8520     78.1235 300.2416845 +22.4896636     352.8884     72.31762      1.351     3.80     6.060246       20.403     46.63758         5     0.789     0.526  37.50   0
       355    922.4086     76.7881 300.4372982 +22.6768276     124.6809     72.20701      1.141     3.44     5.899501       20.403      25.1194         5     0.756     0.453 -71.63   0
       356     42.2182     77.3301 300.1630822 +22.4134487     408.2524     72.33604      1.600     2.52     6.107328       20.403     51.81697         6     0.705     0.612 -41.98   0
       357    526.3046     72.2352 300.3153202 +22.5569799     6333.576     72.31762      1.383     2.51     5.432253       20.403     778.2758        35     1.259     1.057  88.82   0
       358    411.6378     72.1372 300.2796534 +22.5226190     622.6326     72.33604      1.272     2.55     5.624843       20.403     86.24943        11     0.964     0.702  -1.49   0
       359    778.8474     62.1467 300.3972751 +22.6296643     877.7768     72.35445      1.591     3.17     5.901849       20.403     87.42601        13     1.018     0.899 -74.70   0
       360    720.1718     63.1674 300.3786549 +22.6124000      288.976     72.31762      1.411     3.90     5.941478       20.403      36.4673         6     0.788     0.553  42.76   0
       361    871.4644     60.6794 300.4266292 +22.6569523     440.0965     72.42805      1.590     4.62     5.853046       20.403      61.2282         9     1.188     0.742  87.37   0
       362    938.5883     58.6911 300.4482104 +22.6764595     209.4025     72.26234      1.341     3.95     5.943277       20.403     28.19892         6     0.968     0.461   2.33   0
       363    219.1378     56.3226 300.2248882 +22.4604206     562.2501     72.39126      1.502     2.29     6.028285       20.403     55.23868         7     0.695     0.643 -18.21   0
       364    577.8693     54.8234 300.3370220 +22.5674096     528.3797     72.33604      1.811     2.86     5.521165       20.403     77.82095         7     0.963     0.535 -19.19   0
       365    654.6736     52.3736 300.3617423 +22.5896936     6394.588     72.31762      1.418     2.44     5.811181       20.403     928.2324        39     1.284     1.108  74.99   0
       366    429.6748     51.3224 300.2920128 +22.5220366     1488.201     72.42805      1.346     2.31     5.600569       20.403       207.76        19     1.068     0.923  86.54   0
       367    695.8709     50.0513 300.3753321 +22.6013550     739.2958     72.31762      1.224     2.34     5.930599       20.403     125.3765        10     0.834     0.717  -2.32   0
       368    711.7515     45.8441 300.3816445 +22.6048972     626.7229     72.35445      1.503     2.77     5.984743       20.403     90.13364        12     0.994     0.794 -66.76   0
       369    178.4562     44.1271 300.2161895 +22.4447300     700.3478     72.35445      1.478     2.62     6.063811       20.403     101.8274        11     1.024     0.648 -35.48   0
       370    981.4499     43.5800 300.4664797 +22.6849305     628.7272     72.29919      1.888     4.69     5.976657       20.403     72.87856        11     1.313     0.778  44.46   0
       371     25.2953     44.0342 300.1686128 +22.3988146     357.9095     72.31762      1.429     5.30     6.216898       20.403     39.60193         7     1.365     0.581  37.48   0
       372    750.0241     41.2580 300.3950594 +22.6150305     485.1501     72.31762      1.327     2.47      5.99531       20.403     69.92733         8     0.808     0.616  49.97   0
       373    698.8685     37.2254 300.3804224 +22.5985628     2793.182     72.29919      1.427     2.49     6.017694       20.403     389.7773        27     1.303     0.974  74.30   0
       374    339.5220     38.1150 300.2682358 +22.4912443     489.7239     72.42805      1.587     3.84     5.945245       20.403     65.06311         8     1.073     0.704  64.66   0
       375    713.5115     35.4764 300.3855526 +22.6024416     739.4514     72.44644      1.358     3.24     6.034058       20.403     90.76189        10     1.053     0.663 -26.17   0
       376    785.3922     28.9890 300.4100603 +22.6220833     1504.795     72.20701      1.389     2.43     5.895261       20.403     185.5067        18     1.098     0.877  68.56   0
       377    863.2051     23.4842 300.4361066 +22.6437786     250.9883      72.2439      1.211     3.44     5.844766       20.403     35.15492         5     0.782     0.438  21.79   0
       378    723.2551     22.2297 300.3928816 +22.6015466      678.762     72.31762      1.188     2.50     6.074976       20.403     83.37802         9     0.871     0.629 -26.25   0
       379    528.9703     21.4885 300.3325944 +22.5431866     1095.675     72.29919      1.341     2.39     5.421032       20.403     155.0062        13     1.012     0.760 -87.94   0
       380    101.9679     20.9990 300.1999043 +22.4151709     562.7534     72.28077      1.518     4.67     6.123958       20.403     63.93849        11     1.249     0.887 -61.15   0
       381    432.9269     19.5181 300.3033304 +22.5138673     779.7025     72.44644      1.298     3.08     5.600569       20.403     109.3232        13     1.184     0.759 -55.77   0
       382    814.9540     18.3592 300.4227212 +22.6278693     292.7832     72.37286      1.102     1.96     5.844766       20.403     70.57923         7     0.747     0.564  34.49   0
       383    326.6636   1019.0203 299.9457480 +22.7690054     416.7523     72.29919      1.467     5.21      13.0905       20.403     47.89587         8     1.208     0.635 -74.44  19
       384    329.2969   1017.9724 299.9469081 +22.7694951     770.0074     72.26234      1.534     5.60     12.38562       20.403     86.02716        14     1.522     0.860  49.30  18
       385    165.0622   1013.5027 299.8972912 +22.7189205     1697.028     72.40966      2.831    14.96     94.28236       20.403     53.70573        52     2.844     2.188 -20.43  16
       386    208.4760   1005.8056 299.9132918 +22.7297453     2383.121     72.22546      5.480    21.78     80.85958       20.403     65.48802       104     4.193     3.143 -89.56  19
       387    204.9574   1003.4889 299.9129515 +22.7280250     482.5475     72.31762      0.978     3.52     78.95194       20.403     55.91947         5     0.801     0.446  19.55   3
