#   1 NUMBER                 Running object number                                     
#   2 X_IMAGE                Object position along x                                    [pixel]
#   3 Y_IMAGE                Object position along y                                    [pixel]
#   4 ALPHA_J2000            Right ascension of barycenter (J2000)                      [deg]
#   5 DELTA_J2000            Declination of barycenter (J2000)                          [deg]
#   6 FLUX_APER              Flux vector within fixed circular aperture(s)              [count]
#   7 FLUXERR_APER           RMS error vector for aperture flux(es)                     [count]
#   8 FLUX_RADIUS            Fraction-of-light radii                                    [pixel]
#   9 FWHM_IMAGE             FWHM assuming a gaussian core                              [pixel]
#  10 BACKGROUND             Background at centroid position                            [count]
#  11 THRESHOLD              Detection threshold above background                       [count]
#  12 FLUX_MAX               Peak flux above background                                 [count]
#  13 ISOAREA_IMAGE          Isophotal area above Analysis threshold                    [pixel**2]
#  14 A_IMAGE                Profile RMS along major axis                               [pixel]
#  15 B_IMAGE                Profile RMS along minor axis                               [pixel]
#  16 THETA_IMAGE            Position angle (CCW/x)                                     [deg]
#  17 FLAGS                  Extraction flags                                          
         1    474.8428     17.3350 300.3326381 +22.5431952      1131.37     72.05619      1.683     3.08     6.425496     20.33442     128.1834        19     1.148     0.994  77.43   0
         2     48.1739     17.5047 300.1998009 +22.4155148     541.1529     72.01945      2.247     2.90     7.050148     20.33442     44.15716         6     0.734     0.639 -57.55   2
         3    760.9521     14.3707 300.4227752 +22.6279319     455.8558      72.0929      1.782     3.44     6.815627     20.33442      51.2648         8     0.937     0.771 -67.68   0
         4   1021.5490     12.6162 300.5046647 +22.7053405     2286.233       66.538      1.808     3.87     6.074556     20.33442      194.493        34     1.464     1.302  79.30  24
         5    718.2541      6.4009 300.4120410 +22.6128681     556.2544     72.01945      1.597     3.98     7.079543     20.33442     64.24373        11     1.282     0.737  74.26  16
         6    149.9848      5.2225 300.2354404 +22.4424724     3902.404     71.83549      1.923     3.53     6.898762     20.33442     357.3258        45     1.540     1.432  24.54  16
         7    572.4931      3.1126 300.3676685 +22.5683208     319.1521     65.23262      1.286     3.16     6.478837     20.33442     39.14399         5     0.737     0.597 -18.26  16
         8    333.9466    999.6569 299.9699552 +22.7832046     779.3312      72.1296      2.532     8.09     5.386862     20.33442     39.96518        16     1.873     0.977  82.53   0
         9     82.6215    944.2467 299.9097916 +22.6919123      2563.68     72.11126     22.104    31.50      36.3414     20.33442     1356.539       227     6.397     4.305 -10.68   3
        10     65.9107   1011.2244 299.8828177 +22.7061058       5042.3     72.01945     14.619    74.33     76.26753     20.33442     155.3921      1736    15.594    10.284  36.67  27
        11     57.3483    949.0421 299.9003754 +22.6857041     4965.632     72.07455     23.529    96.29     37.16239     20.33442     97.66167      3506    21.314    16.105  83.60  19
        12    538.4893    946.2872 300.0510022 +22.8292212      1361.46     72.23959      1.945     5.90     5.225578     20.33442     79.29797        27     1.502     1.295  52.54   0
        13    151.8602    998.0168 299.9138377 +22.7281094     2896.642     72.03782      6.832    24.82     79.82298     20.33442     81.05203       222     5.562     3.714  74.78  17
        14    617.4010    986.3346 300.0625671 +22.8643745     9602.704     72.05619      2.320    12.54     4.539977     20.33442     472.9721        67     2.570     1.704  -5.93   3
        15    433.4229    942.9774 300.0193546 +22.7967708     837.4597     72.07455      1.829     6.34     5.272101     20.33442     67.72541        16     1.662     0.811  79.10   2
        16    431.0000    942.9720 300.0186019 +22.7960427     557.0167     72.01945      1.568     3.72     5.277647     20.33442     44.24689         5     1.304     0.305  79.44   3
        17    362.8908    940.6089 299.9981653 +22.7749409     6635.538     72.00108      2.186     4.72     5.413871     20.33442     411.7149        54     1.661     1.634 -75.03   0
        18    713.4730    989.9617 300.0913333 +22.8942118      517.725     72.03782      2.309     4.99     4.712441     20.33442      29.4036         6     1.075     0.654 -34.63   0
        19    126.2300   1008.7245 299.9023851 +22.7234899     468.3661     72.07455      1.701     5.01     88.68044     20.33442     39.09073         7     1.043     0.682   7.29   0
        20    396.1457    927.5767 300.0127551 +22.7811728     510.6101      72.0929      1.771     4.40     5.405837     20.33442     42.84146         7     1.375     0.400  72.13   0
        21    525.2626    993.1929 300.0316289 +22.8387213     2333.666     72.03782      2.167     5.27     4.776002     20.33442     132.2383        35     1.571     1.432  33.43   0
        22    145.4988    979.1554 299.9179927 +22.7207909      1869.46     72.07455      3.868    13.67     63.48739     20.33442     63.19769        52     2.738     1.899 -60.35   3
        23    143.5333    974.9560 299.9187470 +22.7189966     965.8011     72.05619      2.822     7.39     60.09069     20.33442     42.42382        15     1.675     0.911 -19.45   3
        24    909.2625    919.6399 300.1752681 +22.9326739     2312.118     72.07455      2.323     5.38      5.30269     20.33442      99.8484        38     1.628     1.500 -36.77   0
        25    476.5484    976.4348 300.0219053 +22.8193050     390.8321      72.0929      2.298     4.80     4.731547     20.33442     30.52555         5     1.143     0.572 -58.32   0
        26    904.1992    972.4617 300.1565119 +22.9463341     806.5182     72.03782      2.311     8.23     4.990883     20.33442     38.41916        18     1.534     1.234  59.47   0
        27    246.9082    911.1490 299.9716479 +22.7317026     1789.514      72.1296      0.586     1.15     8.163847     20.33442     875.9479         8     0.562     0.434  -3.14   0
        28    697.9147    908.1606 300.1130818 +22.8660563     777.6592     72.05619      2.242     7.50     5.110847     20.33442     50.40571        13     1.395     1.129  88.03   0
        29    143.9266    971.0000 299.9201556 +22.7179799      717.298     71.94592      2.715     3.96      56.6706     20.33442     39.56834         5     1.069     0.419  -0.76   3
        30    141.1137    968.6584 299.9200422 +22.7164643     1027.135     72.18462      4.000     8.50     55.08081     20.33442      44.7625        19     2.083     0.970 -86.89   3
        31    732.7269    902.6100 300.1257400 +22.8748934     1139.267     72.07455      2.207     6.17     5.009138     20.33442     73.65664        22     1.547     1.181  63.15   0
        32    755.1371    896.3586 300.1347602 +22.8798124     11223.87     72.05619      2.046     4.92     5.050151     20.33442     622.3919        61     1.615     1.564  64.50   0
        33    947.3167    896.6734 300.1946105 +22.9374721     522.7845     72.20294      2.148     3.66     5.214046     20.33442     41.25902         5     1.015     0.694 -62.70   0
        34    800.3069    896.7620 300.1487158 +22.8934614     448.3232     72.07455      1.862     5.30     5.180166     20.33442     30.98804        10     1.112     0.712  53.02   0
        35    185.9377    896.1522 299.9575556 +22.7091117     778.8947     72.11125      6.899     7.11     12.16015     20.33442     26.01159         9     1.597     0.886  21.76   0
        36    124.9357    957.8712 299.9185188 +22.7085163     1908.813     72.11125     13.058    16.73     46.66591     20.33442     62.61615        58     4.542     1.712  -6.34   3
        37    140.9732    889.9053 299.9456013 +22.6938313     406.0041     72.00108      5.641     5.61     14.89163     20.33442     43.00296         8     1.497     0.592  27.75   0
        38    612.5297    988.5287 300.0603355 +22.8635442     9390.476     72.14794      2.410     6.43     4.488443     20.33442     413.2614        41     1.655     1.633 -84.12   3
        39    807.1943    884.2183 300.1549418 +22.8919210     411.0851     72.03782      1.695     5.22     5.183096     20.33442     38.53492         8     1.040     0.741 -76.05   0
        40    460.9789    884.7458 300.0468670 +22.7883166     477.9125     72.07455      1.764     3.71     5.337082     20.33442     48.10759         5     1.114     0.354 -13.86   0
        41    763.6227    878.4840 300.1432171 +22.8772199     1420.596     72.03783      2.042     5.35     5.068768     20.33442     80.40337        28     1.429     1.348   0.95   0
        42    615.2960    874.9457 300.0981277 +22.8317579     516.0276     72.14794      2.339     5.58     5.040996     20.33442     31.61264         6     1.383     0.635  52.04   0
        43    801.6743    871.7426 300.1572756 +22.8866829     882.9844      72.1296      2.590     7.93     5.161587     20.33442     45.56572        17     1.585     1.109  78.60   0
        44    329.5366    866.0620 300.0120170 +22.7435437     1412.751     72.11125      0.763     1.56     5.460639     20.33442       559.32         7     0.682     0.407 -50.68   0
        45    850.6780    863.5038 300.1752394 +22.8989951     576.8328     72.20294      2.501     5.10     5.271631     20.33442     26.53246         6     1.173     0.627  45.52   0
        46    701.5308    861.9384 300.1292351 +22.8538631     768.7379     72.11125      2.067     6.18     5.040527     20.33442     48.44766        17     1.530     0.939  72.09   0
        47    713.0059    859.3613 300.1336504 +22.8565610     602.7479     72.11125      2.126     6.81     5.035269     20.33442     41.46817        16     1.532     0.918 -43.40   0
        48    414.2065    858.3266 300.0408896 +22.7667099     4283.482     72.01945      2.015     4.27     5.372948     20.33442      290.166        42     1.531     1.443  44.06   0
        49    193.4348    847.4011 299.9757331 +22.6973724     398.9739     72.03783      2.001     4.05     7.682992     20.33442     32.12941         5     0.956     0.491  85.33   0
        50    457.2738    846.4830 300.0581500 +22.7762207     392.0778     72.18462      1.954     4.74     5.374548     20.33442     45.96112         6     1.417     0.673 -77.04   0
        51    140.3455    844.4777 299.9601709 +22.6806099      716.397     72.11126      2.156     5.25     9.252404     20.33442     47.26925        12     1.101     0.953  74.03   0
        52    116.6800    840.9370 299.9539622 +22.6724953     1462.241     72.18462      2.126     4.69     9.311698     20.33442     94.86872        28     1.418     1.401 -17.31   0
        53    629.9983    955.6038 300.0764864 +22.8593267     6775.682     71.85391      2.132     4.88     4.838546     20.33442     344.4703        54     1.666     1.572  83.90   0
        54    988.2857    830.6003 300.2288760 +22.9307504     2132.901     71.94592      2.068     4.97     5.014244     20.33442     108.0361        36     1.539     1.461  38.35   0
        55    942.6609    828.9464 300.2151731 +22.9166128     2190.532      72.1296      2.237     5.62     5.312067     20.33442     106.9657        36     1.578     1.507  32.30   0
        56    726.0932    822.9894 300.1495524 +22.8500332     732.9083     72.01945      1.930     6.10     5.075627     20.33442     44.70046        14     1.227     0.978  38.82   0
        57    149.4482    822.3105 299.9702056 +22.6769800     336.6244     72.05619      1.692     5.09     7.415696     20.33442     41.03702         8     1.187     0.617  75.30   0
        58    594.2052    816.5339 300.1105402 +22.8086613     4804.864     72.07455      1.862     4.01      5.33652     20.33442     349.8428        41     1.443     1.381 -77.91   0
        59     84.6271    817.5112 299.9516083 +22.6561595     390.9676     72.05619      1.886     4.92     7.153257     20.33442     32.94828         6     0.990     0.692 -23.36   0
        60    396.3067    813.4974 300.0498856 +22.7484739      588.224      72.2579      1.739     6.06     5.414728     20.33442     42.34451        13     1.273     0.812 -23.66   0
        61    144.3873    810.1710 299.9725764 +22.6719787     1376.975     72.07455      2.230     5.74     6.498813     20.33442     83.55045        27     1.582     1.319  58.51   0
        62    614.6794    809.3016 300.1192709 +22.8127193     734.1973     72.20294      1.883     6.48     5.341157     20.33442     62.53428        15     1.481     1.023 -50.93   0
        63    143.3668    950.5964 299.9266157 +22.7119595     765.5192     72.07455      4.297     5.19     39.64032     20.33442     33.68024         7     1.243     0.612  20.28   3
        64    531.3969    800.6047 300.0961473 +22.7852639     101.6417     71.89073      1.217     4.40     5.472671     20.33442     37.09076         5     1.174     0.470  -7.16   0
        65    987.2552    797.5866 300.2392837 +22.9209516     1210.243     72.07455      2.208     4.80     5.046532     20.33442     72.28093        19     1.373     0.980  11.79   2
        66    770.2504    796.3873 300.1719669 +22.8556181     4266.083      72.1296      1.955     4.26      5.10695     20.33442     296.3211        38     1.420     1.414 -81.21   0
        67    179.5642    790.6644 299.9898555 +22.6769313     481.3388     72.07455      2.053     4.05     5.761459     20.33442     37.05499         6     1.060     0.443 -34.58   0
        68    487.3951    788.8351 300.0862652 +22.7686964     641.2721     72.07455      1.817     4.31     5.425789     20.33442     55.18549        12     1.041     0.872 -10.53   0
        69    133.4137    786.5395 299.9768421 +22.6619066     1042.368     72.03783      1.989     6.15     5.775073     20.33442     74.15741        24     1.488     1.365  33.66   0
        70    283.2528    778.6637 300.0260143 +22.7045797     53775.46      72.1296      1.948     3.96     5.533359     20.33442     4348.035       101     1.654     1.586  42.72   0
        71    549.3130    782.1628 300.1077215 +22.7853366     471.4214     72.05619      1.727     4.75      5.41325     20.33442      33.4413         8     0.970     0.658  -4.47   0
        72    954.0280    777.3804 300.2354787 +22.9051941     854.8088     72.07455      2.149     8.00     5.287758     20.33442     51.86769        19     1.501     1.192 -67.37   0
        73    541.1129    778.0215 300.1065124 +22.7816898      1552.82     72.00108      1.691     3.56      5.40527     20.33442     140.0077        23     1.247     1.126  20.60   0
        74    212.2473    777.1306 300.0044196 +22.6828485     507.1448     72.05619      1.688     5.15     5.697046     20.33442     33.45608        10     1.164     0.645 -45.83   0
        75    570.3815    773.9435 300.1169565 +22.7892893     825.4335     72.05619      1.645     3.84     5.363689     20.33442     68.73616        17     1.131     1.022  38.51   0
        76    581.2137    772.3309 300.1208557 +22.7920720     663.0471      72.0929      1.856     4.94     5.344994     20.33442     47.21474        15     1.249     1.055 -34.26   0
        77    686.6030    769.0266 300.1547762 +22.8226990      440.046     72.01945      1.744     6.11     5.209947     20.33442     30.87737         9     1.348     0.778 -24.56   0
        78    724.0249    758.7799 300.1697726 +22.8309653     793.1266      72.0929      1.715     6.06     5.091348     20.33442     57.11107        16     1.250     0.996 -46.31   0
        79    333.0135    755.9529 300.0488797 +22.7129788     31614.62      72.0929      1.854     3.74     5.442743     20.33442     2478.153        80     1.564     1.515  44.15   0
        80    347.2979    756.5675 300.0531264 +22.7174375     2001.126     72.05619      1.807     3.65     5.418118     20.33442     180.2828        26     1.317     1.176 -22.53   0
        81    856.2463    752.2469 300.2131332 +22.8686894     2875.546      72.0929      1.899     4.13     5.288621     20.33442     177.9486        37     1.413     1.412  -7.43   0
        82    344.4214    750.3409 300.0542539 +22.7147875     515.3109     72.07455      1.397     3.79     5.429368     20.33442     57.29857         7     1.066     0.443  59.50   1
        83    614.0278    748.0010 300.1389862 +22.7949152     1039.196     72.03782      1.998     4.44     5.246901     20.33442     66.35979        19     1.291     1.032 -11.87   0
        84    450.6227    748.0225 300.0880729 +22.7459550      615.413     72.07455      2.244     5.74     5.367979     20.33442     38.51226         8     1.070     0.867  -8.97   0
        85    215.5557    747.3505 300.0151238 +22.6752932     837.9729     72.11126      1.941     6.41     5.583145     20.33442      62.1637        17     1.261     1.171  -5.14   0
        86    461.3450    742.8547 300.0930910 +22.7476845     855.3835     72.11125      1.832     6.33     5.338496     20.33442       54.783        17     1.222     1.036  23.74   0
        87     20.9923    743.4175 299.9558985 +22.6158136     544.7925     72.01945      2.793     4.71     5.272191     20.33442     34.24828         7     0.895     0.703  66.72   0
        88    862.3766    740.2322 300.2189494 +22.8670718     594.9576     72.07455      1.836     5.42     5.272721     20.33442     41.38457        11     1.199     0.691 -36.57   0
        89    407.3856    737.8692 300.0779076 +22.7300803     428.7027      72.0929      1.715     5.54     5.428449     20.33442     35.96654         7     1.033     0.837 -67.76   0
        90     49.1464    737.2047 299.9666685 +22.6224759     566.6591     72.05619      2.177     4.45     5.405493     20.33442     44.23515         8     0.940     0.735  -6.10   0
        91    213.3745    732.3530 300.0193172 +22.6703345     434.9617      72.0929      1.569     4.72     5.559075     20.33442     48.65006         8     1.019     0.620 -17.87   0
        92    537.0804    723.1238 300.1230917 +22.7647134     360.2057     72.18462      1.573     3.16      5.35633     20.33442     36.00291         8     0.807     0.677 -47.57   0
        93    506.0673    721.0905 300.1140909 +22.7548362     615.5216     72.20294      1.938     4.42     5.343457     20.33442     64.19004        12     1.273     0.815 -32.68   0
        94    922.6372    717.5257 300.2451291 +22.8785884     4685.644     72.01945      1.908     4.22       5.5292     20.33442     279.7115        43     1.510     1.443  37.67   0
        95    528.2806    718.3181 300.1219113 +22.7606962     1452.112     72.22127      1.790     3.82     5.375462     20.33442     106.2641        26     1.310     1.220 -24.53   0
        96    448.1749    717.8182 300.0971227 +22.7365473     279.9989      72.0929      1.470     3.89     5.415363     20.33442     33.12778         5     0.762     0.678  38.94   0
        97    910.9922    708.9781 300.2442720 +22.8726445     1775.346     72.05619      1.867     4.31     5.530602     20.33442     125.8218        27     1.371     1.288  66.11   0
        98    737.2057    700.1971 300.1929142 +22.8180790     2624.094     71.89073      1.776     3.54     5.109133     20.33442     205.0356        33     1.447     1.253  87.26   0
        99    290.6573    703.2529 300.0528163 +22.6851511     280.8042      72.1296      1.609     3.19     5.584772     20.33442     31.53728         5     0.732     0.454 -75.94   0
       100    274.0724    702.4185 300.0479262 +22.6799396     897.4827     72.07455      1.711     3.79     5.574793     20.33442     80.50477        17     1.094     1.058 -19.08   0
       101    942.3207    699.2742 300.2572011 +22.8792342     1686.739     72.18462      1.954     4.25     5.570463     20.33442     113.6924        27     1.338     1.293  13.96   0
       102    819.8928    686.3972 300.2231847 +22.8388756       610.11      71.9827      1.465     2.99     5.303167     20.33442     60.57817        11     0.995     0.722  25.00   0
       103    122.8988    685.9138 300.0062595 +22.6298759     680.5735     72.23959      1.957     6.06     5.744346     20.33442     57.69384        15     1.412     1.191 -63.44   0
       104    855.8660    677.0684 300.2374368 +22.8469656     147554.1      72.1296      1.830     3.86     5.441228     20.33442     10354.21       161     1.661     1.573 -78.06   0
       105   1003.2468    679.0265 300.2827955 +22.8916507     1353.209     72.11125      2.144     6.59     5.355872     20.33442     78.02347        28     1.566     1.316 -40.18   0
       106    618.7188    680.7577 300.1622916 +22.7770017     308.9377     72.03783      1.621     4.94     5.448383     20.33442     32.48436         8     0.964     0.804 -73.39   0
       107    708.3053    677.6722 300.1912195 +22.8029498     830.7739     72.18462      1.881     3.81     5.200293     20.33442     69.07459        14     1.076     0.899 -16.86   0
       108    888.8613    670.0310 300.2500172 +22.8548215     463.0092     72.11125      1.670     6.25     5.617186     20.33442     37.00555        10     1.288     0.852 -15.07   0
       109    542.0905    665.9103 300.1432361 +22.7497792     1658.884     72.23959      1.643     3.21     5.725992     20.33442     155.6689        26     1.268     1.159 -59.04   0
       110    723.3779    663.1394 300.2006391 +22.8032875     9296.462     72.03782      1.713     3.46     5.199486     20.33442     759.1288        44     1.407     1.318 -76.42   0
       111    224.8468    657.9554 300.0470500 +22.6524174      4866.68     72.11125      1.815     3.69     5.542996     20.33442     382.7698        40     1.436     1.370  42.53   0
       112    306.7271    656.1154 300.0731267 +22.6764339     1204.983     72.18462      1.800     4.76     5.589641     20.33442     90.22399        20     1.384     1.085  42.32   0
       113    182.6855    654.3825 300.0350942 +22.6387517     469.4745     72.03783      2.025     4.20     5.778257     20.33442     40.02749         6     1.072     0.470  30.88   2
       114    515.3074    651.9657 300.1394209 +22.7377488     863.1078     72.01945      1.687     3.47     5.832054     20.33442     79.33408        14     1.157     0.788  54.57   0
       115    506.7729    643.8355 300.1394025 +22.7328561     3309.976      72.0929      1.670     3.40     5.921436     20.33442     276.5831        32     1.351     1.201  82.20   0
       116    497.0534    637.4994 300.1384325 +22.7281238     1354.388     72.16628      1.609     3.74     6.000654     20.33442     142.1247        24     1.349     1.151  67.01   0
       117    890.9318    636.2526 300.2616336 +22.8457298     374.0754      72.0929      1.694     4.39     5.868109     20.33442     33.30825         7     0.756     0.726 -23.45   0
       118    160.7189    633.9065 300.0349106 +22.6262879      597.403     72.22127      1.446     3.04     6.030117     20.33442     73.56541        11     0.998     0.734 -45.52   0
       119    174.6277    631.9850 300.0398607 +22.6299062      574.553      72.0929      1.530     5.61     5.933609     20.33442     52.60228        12     1.140     0.866  28.14   0
       120    943.7068    629.1749 300.2804013 +22.8594931     442.9442     72.01945      1.696     5.46     5.850899     20.33442     38.38892         8     0.999     0.964   9.73   0
       121    231.3497    629.1647 300.0584222 +22.6461010     368.5883      72.0929      1.847     5.14     5.533427     20.33442     33.15144         7     1.315     0.569 -11.40   0
       122    200.4564    628.5049 300.0490252 +22.6366505     620.2253      72.1296      1.804     4.42     5.745839     20.33442     55.35372        12     1.284     0.733  31.06   0
       123    521.0481    628.3203 300.1488878 +22.7326757     488.5581      72.0929      2.029     5.07     6.145997     20.33442     38.17147         8     1.220     0.597  18.95   0
       124    421.9951    627.2587 300.1183816 +22.7026921     1711.361     72.03782      1.553     3.29     6.063667     20.33442     160.8815        24     1.180     1.143 -15.44   0
       125    997.6809    625.5063 300.2984401 +22.8745935     850.0544     72.22127      1.891     4.38     5.409597     20.33442     72.98874        16     1.268     1.032  43.47   0
       126     75.7917    621.9504 300.0123823 +22.5973919     19913.79     72.07455      1.992     3.97     5.934834     20.33442     1538.561        73     1.655     1.591  37.44   0
       127    506.7636    622.5021 300.1463271 +22.7267246     917.5353     72.07455      1.632     4.63     6.199412     20.33442     85.54634        18     1.193     1.112 -87.26   0
       128    542.3950    621.5303 300.1577430 +22.7371201     341.1758     72.03783      1.713     6.00     6.234491     20.33442     36.44995         7     1.276     0.794 -21.02   0
       129    924.5292    609.3645 300.2808492 +22.8480558     1015.572      72.0929      1.820     4.18     6.060327     20.33442     80.38718        19     1.190     1.158  66.65   0
       130     21.9168    606.2252 300.0007391 +22.5767234      1647.66     72.05619      2.311     5.87     5.618829     20.33442     99.18108        34     1.832     1.403 -78.67   0
       131    791.6376    607.3677 300.2400372 +22.8076972     493.6286      72.0929      1.714     4.48     5.788119     20.33442     46.38412         9     1.183     0.899  10.03   0
       132     87.8420    606.4272 300.0211690 +22.5965496     483.0283      72.0929      2.035     4.33     6.120058     20.33442     43.62578         5     1.150     0.465  31.56   0
       133    470.3676    603.5667 300.1411387 +22.7103803      484.471     72.14794      1.414     4.95     6.356453     20.33442     51.78785        11     1.068     0.837   5.98   0
       134    864.7801    601.7142 300.2646894 +22.8279701     921.3259     72.00108      2.229     4.98     6.046391     20.33442     74.62972        16     1.419     0.842  31.49   0
       135    427.1242    595.7195 300.1302192 +22.6951695     723.9738     72.18462      1.514     3.86      6.24665     20.33442     63.03001        15     1.127     0.974 -53.02   0
       136    574.5109    594.5789 300.1765006 +22.7389967     476.4967     72.00108      1.740     4.91     6.113226     20.33442     52.30618        12     1.304     0.785 -13.01   0
       137    592.2191    591.5426 300.1830045 +22.7434284     1315.555     72.05619      0.854    -0.91     5.979393     20.33442     806.0476        12     0.969     0.564  70.46   0
       138    622.3140    593.0023 300.1919096 +22.7528619     536.3937     72.00108      1.801     4.64     5.771431     20.33442     47.49874        10     1.027     0.744 -45.03   0
       139    470.9928    591.3013 300.1453157 +22.7070440     788.1802     71.96432      1.621     4.02     6.359244     20.33442     70.56017        20     1.222     1.122 -46.09   0
       140    904.9855    587.1188 300.2819735 +22.8358087     3311.579     72.05619      1.780     3.70     6.043902     20.33442     250.1932        33     1.351     1.338   4.45   0
       141    436.5788    586.9210 300.1360200 +22.6954748     1679.573     72.07455      1.610     3.67     6.272892     20.33442     170.1526        22     1.217     1.084  12.86   0
       142   1003.0406    585.1285 300.3132245 +22.8645844      768.466     72.05619      1.903     4.80     5.716971     20.33442     67.67769        11     1.124     0.949  63.47   0
       143      1.1838    579.8834 300.0028462 +22.5629461     552.0426     55.21385      1.303     3.69      5.74847     20.33442     102.8579         8     1.316     0.518  83.81  24
       144    465.8365    577.9635 300.1480399 +22.7016673     288.1196     72.14794      1.654     3.81     6.346832     20.33442     27.16025         5     1.279     0.325 -26.84   0
       145    300.0880    573.4172 300.0979115 +22.6506959     9235.746     72.00108      1.712     3.30     5.386261     20.33442     904.6953        48     1.388     1.345  40.74   0
       146    422.5268    570.5673 300.1369533 +22.6865667     9001.875     72.07455      1.651     3.23     6.238882     20.33442     968.1354        44     1.348     1.267  60.15   0
       147    668.8843    567.0464 300.2148523 +22.7593493     353.1261     72.05619      1.708     5.21     5.750603     20.33442      28.9099         6     0.920     0.833  -5.57   0
       148    834.2660    564.7649 300.2671663 +22.8082111     1851.472     72.07455      1.663     3.56     5.922196     20.33442     150.3752        25     1.257     1.146  81.17   0
       149    918.9262    562.2251 300.2944060 +22.8328227     12493.21      72.0929      1.772     3.54     6.045707     20.33442     1006.011        56     1.447     1.410 -72.47   0
       150    483.1215    560.2053 300.1591886 +22.7017436     11542.68      71.9827      1.602     3.10     6.384729     20.33442     1102.244        48     1.322     1.314  55.88   0
       151    210.6374    555.4879 300.0758976 +22.6187376     1497.083     72.05619      1.852     4.35     5.421574     20.33442     136.5278        25     1.376     1.217   0.83   0
       152    652.6110    556.3370 300.2132562 +22.7513978     465.8348     72.01945      1.358     3.11     5.911907     20.33442     58.38624         9     0.943     0.662  -7.53   0
       153    368.1768    554.9724 300.1250934 +22.6658020     371.5331     72.07455      1.601     3.88     5.844488     20.33442     33.95083         5     0.844     0.511 -31.00   0
       154    414.8521    548.3488 300.1417761 +22.6778844     4559.194     72.11125      1.629     3.26     6.211042     20.33442     424.5526        33     1.327     1.179  63.09   0
       155    757.6913    548.6827 300.2485031 +22.7806622     894.1904     72.20294      1.748     3.73     5.724181     20.33442     78.99847        16     1.198     0.934  -6.34   0
       156    393.2430    546.8932 300.1355201 +22.6709918     1278.917      72.0929      1.556     3.06     6.043942     20.33442     131.5331        16     1.076     0.909 -24.87   0
       157    147.8640    546.1504 300.0594019 +22.5972402     665.0828      72.1296      1.525     3.88     5.667113     20.33442      74.9991        12     1.052     0.828 -67.14   0
       158    834.5572    544.1837 300.2739385 +22.8023804     1624.536      72.0929      1.751     4.27     5.894015     20.33442     113.2133        24     1.297     1.180   6.64   0
       159    531.4677    535.9617 300.1821187 +22.7092597     206041.1     72.03782      1.586     3.03     6.372188     20.33442     19893.34       192     1.553     1.510 -39.76   0
       160    355.7169    542.9366 300.1251214 +22.6586113      209.321     72.16628      1.157     3.75     5.749669     20.33442     35.93279         5     0.804     0.502 -39.22   0
       161    715.1749    541.0637 300.2377187 +22.7657420      838.028     72.05619      1.452     4.80     5.756257     20.33442     78.81862        13     1.173     0.894 -77.80   0
       162    217.5233    535.6694 300.0844727 +22.6151105     3553.502     72.16628      1.798     3.50     5.343667     20.33442     348.6074        36     1.406     1.305  15.48   0
       163    783.6345    532.4510 300.2618631 +22.7837625     496.3217      72.0929      1.661     3.11     5.754908     20.33442      51.9485         6     0.791     0.551  40.26   0
       164    422.0682    516.1324 300.1544800 +22.6707907     2779.031      72.1296      1.689     3.02     6.121634     20.33442     224.8774        30     1.270     1.171  89.11   2
       165    266.4328    518.8361 300.1051545 +22.6249342     350.8877      72.0929      1.584     4.14     5.286177     20.33442     41.39193         6     0.984     0.686 -84.75   0
       166    738.9271    505.4720 300.2566776 +22.7626211     333.1434      72.1296      1.175     3.66     5.789754     20.33442      35.7976         6     0.790     0.499   2.50   0
       167    819.1395    502.7750 300.2825700 +22.7858579     1708.788     72.07455      1.616     3.11     5.542352     20.33442     158.7107        22     1.233     1.005   0.65   0
       168    690.3396    500.2573 300.2432207 +22.7465749     2473.207     72.14794      1.516     2.92      5.96883     20.33442     248.3873        25     1.180     1.095 -89.09   0
       169    934.6310    498.4922 300.3199954 +22.8191924      328.875     72.01945      1.346     4.03     5.865595     20.33442     44.83528         8     1.076     0.564  38.44   0
       170    900.1708    497.2953 300.3096298 +22.8085352     281.3875     72.01945      1.345     3.43     5.683496     20.33442     35.15611         5     0.962     0.353 -45.05   0
       171    595.2148    497.2428 300.2145487 +22.7172242     344.3563      72.0929      1.513     2.93     6.203722     20.33442     42.87022         7     0.834     0.602 -29.78   0
       172    947.7622    494.6515 300.3253403 +22.8220172     1301.411      72.0929      1.689     3.40     5.861741     20.33442     120.6063        21     1.286     1.055  68.19   0
       173    477.5836    496.2046 300.1782370 +22.6816950     607.6246     72.00108      1.292     2.80     6.276474     20.33442     70.26461        11     0.960     0.706 -19.12   0
       174    933.2499    493.6777 300.3211270 +22.8173942     710.6163     72.07455      1.806     3.56     5.845828     20.33442     57.18864        11     1.033     0.721  53.26   1
       175    819.4067    492.7066 300.2859211 +22.7830425     2294.314     71.96432      1.938     4.12     5.460402     20.33442     209.7661        33     1.659     1.144  74.03   0
       176    572.6454    490.5187 300.2096978 +22.7085326     777.5517     72.05619      2.082     4.08     6.248128     20.33442      74.4697        11     1.160     0.807  63.60   2
       177    358.5258    490.9449 300.1428701 +22.6445175     248.4867     72.11125      1.068     3.49     5.369967     20.33442     33.52165         6     0.911     0.524 -18.22   0
       178    411.7381    489.5640 300.1598859 +22.6600626     364.4518      72.0929      1.735     4.38      5.93983     20.33442     39.35905         5     1.079     0.506  58.63   0
       179    857.5721    487.8378 300.2994076 +22.7930658     4289.714      72.0929      1.661     3.33      5.39432     20.33442     377.0703        36     1.340     1.291 -60.81   0
       180    949.4039    478.4492 300.3311111 +22.8178477     784.3594     72.05619      1.733     3.97     5.778995     20.33442     73.23806        13     1.240     0.798  52.99   0
       181     89.3761    477.7719 300.0634044 +22.5600751     940.1345     72.07455      1.774     4.47     6.058644     20.33442     94.42555        17     1.268     1.075  -6.85   0
       182    750.2300    471.9622 300.2710776 +22.7563699     339.7608     72.11125      1.631     5.40     5.712065     20.33442     35.93249         5     1.173     0.703 -72.24   0
       183    945.5693    467.7880 300.3333741 +22.8136335     299.4991     72.07455      1.386     3.98     5.747775     20.33442     39.97345         7     0.872     0.816  14.76   0
       184    689.8258    462.2127 300.2554070 +22.7354833     451.8646     72.07455      1.689     6.03     5.960073     20.33442     42.37939         9     1.203     0.972 -23.61   0
       185    579.1120    460.1692 300.2215617 +22.7017458     452.7164     72.05619      1.761     4.08     6.149239     20.33442     43.36736         8     0.983     0.663  23.61   0
       186    630.9689    458.2547 300.2383442 +22.7167234     838.1264      72.0929      1.575     3.74     6.056338     20.33442     80.83092        17     1.127     1.016 -76.80   0
       187    945.8643    450.5846 300.3390489 +22.8087728     583.5331     72.05619      1.802     4.97     5.695698     20.33442     52.01669        15     1.223     1.078 -22.08   0
       188    691.7296    450.2609 300.2598789 +22.7326169     836.6365     72.11126      1.482     4.01     5.902221     20.33442      100.445        21     1.249     1.088  77.17   0
       189    849.1327    447.0052 300.3100255 +22.7787961     1113.842     72.05619      1.804     3.84     5.329467     20.33442     89.27737        20     1.225     1.133  -5.10   0
       190    833.5514    442.9226 300.3064893 +22.7729586     639.7242     72.07455      1.596     5.45     5.333779     20.33442     63.95713        11     1.311     0.701 -46.27   0
       191    577.5855    440.9085 300.2273358 +22.6957523     3346.868     72.00108      1.550     2.93     6.090058     20.33442      356.654        29     1.204     1.135  54.90   0
       192    937.8811    440.3251 300.3398864 +22.8034326     501.1812     72.18462      1.643     3.63     5.640624     20.33442     48.27721         7     0.874     0.561  36.11   0
       193     54.0379    432.0727 300.0672443 +22.5363610     285.6107     72.03782      0.980     2.82     5.948417     20.33442     41.70074         5     0.638     0.575 -87.92   0
       194    417.4892    427.6926 300.1817529 +22.6440073     422.9052     72.23959      1.618     4.57     5.654313     20.33442     42.60325         6     1.038     0.710  45.12   0
       195    988.9534    420.4140 300.3622886 +22.8129849     1311.447      72.0929      1.635     3.60     5.771695     20.33442     121.0928        23     1.195     1.144 -61.67   0
       196    947.3548    418.8231 300.3498200 +22.8000813       995.02     72.11125      1.730     3.99     5.601713     20.33442     92.35555        16     1.169     0.941  69.20   0
       197    860.7744    419.8063 300.3224828 +22.7744568     510.5477     72.05619      1.384     3.07     5.323277     20.33442     57.85649         9     0.860     0.730  82.25   0
       198    688.2937    415.0062 300.2702465 +22.7214515     1093.966     71.96432      1.507     2.92     5.801585     20.33442     114.4178        16     1.052     0.945  66.79   0
       199    483.8515    415.5935 300.2063463 +22.6604061     453.4668     72.07455      1.723     4.07     5.804543     20.33442     47.15015         7     0.975     0.486  -4.97   0
       200    192.2002    412.8009 300.1164643 +22.5722340     697.0119     71.85391      1.644     3.86     5.333446     20.33442     66.95423        13     1.006     0.926 -25.22   0
       201    987.6879    407.4959 300.3660848 +22.8088894     4278.702      72.2579      1.730     3.40     5.719801     20.33442     377.1383        41     1.433     1.333  71.78   0
       202    254.5625    408.4626 300.1372747 +22.5896737      3847.14      72.0929      1.749     3.22     5.356398     20.33442     409.6046        35     1.347     1.292 -58.67   0
       203    201.7196    403.2770 300.1225153 +22.5723508     7734.263     72.18462      1.721     3.25     5.378522     20.33442     780.7026        44     1.400     1.311  43.40   0
       204    579.8397    403.5763 300.2401504 +22.6856955     223.5601     72.11125      1.176     3.44     5.967235     20.33442     28.69987         5     0.794     0.430  21.32   0
       205    967.4883    398.5075 300.3626955 +22.8002600     1864.998     72.23959      1.744     3.68     5.619288     20.33442     169.6347        23     1.213     1.166  68.26   0
       206    342.5322    397.5811 300.1681840 +22.6129019     4815.908     72.07455      1.637     3.03     5.556562     20.33442     549.1313        37     1.329     1.212  64.93   0
       207    586.7701    394.4646 300.2452660 +22.6851510     18651.33      72.0929      1.563     2.86      5.92695     20.33442     2165.132        56     1.343     1.270  77.66   0
       208    604.0957    394.5421 300.2506402 +22.6903607     702.8631     72.14794      1.944     6.83     5.905864     20.33442     54.62732        16     1.472     0.889 -40.63   0
       209    213.6300    392.5775 300.1296916 +22.5728462     285.0204     72.05619      1.241     2.69     5.424374     20.33442     52.93704         5     1.004     0.584 -31.68   0
       210    830.3915    391.2633 300.3222643 +22.7571543     350.7082     72.03783      1.733     4.59     5.361809     20.33442      33.9541         8     1.014     0.590 -20.22   0
       211    783.7891    385.0187 300.3097534 +22.7414114     373.7041     72.03782      1.503     4.44     5.351768     20.33442     34.19157         6     0.896     0.626  49.79   0
       212    206.7925    381.2654 300.1312337 +22.5675480     353.9568     72.05619      1.560     5.41     5.485321     20.33442     36.45626         7     1.033     0.800  13.58   0
       213    920.4236    377.4089 300.3548506 +22.7801085      780.382     72.07455      1.670     3.64     5.478043     20.33442     76.35605        16     1.203     0.882 -40.99   0
       214    141.4990    374.2964 300.1131834 +22.5459815     2061.932      72.2579      1.752     3.44      5.56786     20.33442     207.3497        30     1.389     1.238 -83.72   0
       215    940.9520    364.7152 300.3653751 +22.7825980     1153.198     72.05619      1.607     3.47     5.485894     20.33442     108.6833        18     1.234     0.887  22.30   0
       216    527.4507    363.8678 300.2367077 +22.6585939     6510.103     72.05619      1.528     2.86     5.817682     20.33442     696.0687        36     1.240     1.197 -56.50   0
       217    242.3676    363.3005 300.1481294 +22.5730458     624.7148     72.05619      1.443     3.54     5.608677     20.33442     72.88817        13     1.033     0.900  -6.69   0
       218     99.9406    356.7124 300.1059621 +22.5284774     505.3592     72.14794      1.893     4.25     5.703612     20.33442     48.81928         9     1.094     0.753 -85.63   0
       219    787.0131    355.6194 300.3202956 +22.7339202      383.866     72.03782      1.529     3.61     5.363884     20.33442     36.01235         7     0.864     0.740  83.06   0
       220    641.2079    354.2350 300.2752821 +22.6898817     652.4377     72.07455      1.786     4.48     5.793429     20.33442     60.38819        10     1.050     0.828  89.69   0
       221    731.4213    353.0064 300.3038060 +22.7165312     1154.159     72.05619      1.673     4.41     5.412848     20.33442      97.3338        19     1.273     0.982  60.52   0
       222    434.0127    350.0771 300.2120760 +22.6266500     6335.928      72.0929      1.554     3.01     5.661153     20.33442     586.0803        39     1.304     1.232  86.32   0
       223    923.2865    345.3272 300.3661506 +22.7717344     555.7979     72.20294      1.572     3.86     5.477177     20.33442     52.18877        12     1.011     0.939 -85.84   0
       224    826.0729    344.9322 300.3359459 +22.7425344     1531.808     72.14794      1.554     2.91     5.436007     20.33442     163.1399        21     1.113     1.060 -58.95   0
       225    501.7145    337.4492 300.2372587 +22.6432932     631.8267     72.05619      1.736     4.83     5.745717     20.33442     51.60218        12     1.188     0.823  47.27   0
       226    418.6733    338.7748 300.2109648 +22.6188077     543.2048     72.11126      1.607     6.22     5.642744     20.33442     48.23981        13     1.202     0.904  53.79   0
       227    482.3966    335.0469 300.2320202 +22.6368183     372.8618     72.05619      1.655     2.84     5.726399     20.33442     41.69042         5     0.743     0.598   8.50   0
       228    799.1243    332.7060 300.3315051 +22.7309533     532.7819     72.22127      1.432     3.16      5.42031     20.33442     68.04313         9     1.042     0.575 -16.30   0
       229    321.5603    329.2063 300.1838331 +22.5869725     2510.062     72.11125      1.553     2.98     5.788445     20.33442     288.4413        29     1.242     1.188  25.40   0
       230     40.3054    326.6769 300.0971604 +22.5019797     1046.227     72.18462      1.975     3.31     5.887147     20.33442     119.5082        18     1.236     0.999 -26.15   0
       231    290.9289    318.5919 300.1777412 +22.5747473     29942.72     72.05619      1.635     3.15     5.832521     20.33442     2964.858        75     1.481     1.347  63.85   0
       232    825.6471    316.5370 300.3450225 +22.7342382     1274.738      72.0929      1.550     3.22     5.525012     20.33442     142.7588        20     1.220     1.053 -51.16   0
       233    780.9225    314.1257 300.3318537 +22.7201618     302.2898     72.18462      1.164     3.31     5.508635     20.33442     48.58085         7     0.896     0.544  47.49   0
       234    741.0018    305.6325 300.3221580 +22.7057725     574.9114     72.03782      1.741     5.37     5.625051     20.33442     51.05348        12     1.161     0.920 -56.15   0
       235    165.4854    305.2268 300.1430439 +22.5333282     476.1401     72.07455      1.616     4.14     5.815978     20.33442     51.96029         8     0.997     0.575 -14.77   0
       236    389.4539    304.1885 300.2130825 +22.6001165     575.7363     72.07455      1.790     2.43     5.712828     20.33442     58.20805         7     0.729     0.630  63.00   0
       237    701.3922    298.6239 300.3120799 +22.6919027     1800.108     72.07455      1.536     3.04     5.719516     20.33442     194.2107        23     1.224     1.026  71.57   0
       238    916.4624    291.6162 300.3814403 +22.7542377     622.9594     72.05619      1.696     4.07     5.558145     20.33442     67.11257        13     1.242     0.844  67.72   0
       239    509.8051    293.3272 300.2540875 +22.6330310     357.6718     72.01945      1.480     3.70     5.715771     20.33442     48.34095         7     0.979     0.549  25.81   0
       240    714.1888    285.0622 300.3204675 +22.6918316     1409.945     72.01945      0.580     0.87     5.745266     20.33442     875.7506         7     0.513     0.398 -61.79   0
       241    363.2586    283.1057 300.2117629 +22.5862121     2214.958     72.14794      1.761     3.50     5.786107     20.33442     214.8347        28     1.412     1.139  42.28   0
       242    575.8020    282.0717 300.2783002 +22.6495520     255.0599     72.01945      1.040     2.94     5.778162     20.33442     49.05062         6     0.785     0.649 -72.86   0
       243    802.3510    276.3775 300.3507785 +22.7157141     588.4427     72.07455      1.380     2.54     5.582739     20.33442     75.45472        10     0.867     0.734 -59.63   0
       244    794.9137    277.2401 300.3481789 +22.7137371     279.3982     72.05619      1.180     3.92     5.593352     20.33442      34.7248         6     0.968     0.454 -37.44   0
       245    684.7145    274.1748 300.3148080 +22.6798793     360.9458     72.03782      1.230     3.42     5.777528     20.33442     48.34821         7     0.888     0.652 -79.22   0
       246    652.8077    273.3651 300.3051238 +22.6700972     256.8146     72.07455      1.332     3.41     5.792191     20.33442     30.59163         5     0.764     0.440 -18.19   0
       247    439.0370    262.4857 300.2420446 +22.6029761     1285.956     72.05619      1.541     3.12     5.712413     20.33442     150.3532        19     1.192     0.965  62.79   0
       248    950.3912    259.1804 300.4025471 +22.7550520     337.9446     72.03782      1.568     4.32     5.636311     20.33442     35.26527         7     1.067     0.499  41.63   0
       249    821.9091    255.9216 300.3635120 +22.7156803     265.3752     72.22127      1.298     4.04     5.700968     20.33442     32.69601         6     0.798     0.586  45.27   0
       250    684.0223    254.5263 300.3209629 +22.6740205     2176.227      72.0929      1.502     2.79     5.811507     20.33442     261.2196        25     1.173     1.091 -82.52   0
       251    945.3303    248.9939 300.4042703 +22.7506065     3034.818     72.03782      1.642     3.34     5.682402     20.33442     304.0448        33     1.420     1.208 -57.23   0
       252   1006.4654    243.9099 300.4250027 +22.7674273     460.5472     72.20294      1.527     5.10     5.688953     20.33442     42.44327        10     0.973     0.919  29.53   0
       253   1014.6508    237.0675 300.4297767 +22.7679055     1695.789     72.05619      1.770     3.42     5.723868     20.33442     152.4715        26     1.388     1.119 -79.76   0
       254    392.0470    238.0220 300.2353428 +22.5818737     533.4711      72.0929      1.380     4.62     5.834212     20.33442     89.90796        11     1.132     0.715  35.75   0
       255     97.9582    232.5271 300.1456117 +22.4922116     610.9721     72.05619      1.546     4.75     5.923162     20.33442     56.80278         9     1.065     0.658 -35.76   0
       256     66.8675    232.7069 300.1358856 +22.4829483     1852.067     72.22127      2.156     7.96     6.124816     20.33442     466.1184        26     1.951     0.909 -31.16   0
       257    961.2972    230.2343 300.4153361 +22.7499826     477.7712     72.07455      1.537     3.91      5.76463     20.33442     49.27507         8     0.893     0.656  32.18   0
       258    805.1519    226.7662 300.3677371 +22.7022780     329.4176     72.11125      1.530     3.34     5.735124     20.33442     43.47396         5     0.945     0.342  42.73   0
       259    151.4796    224.2258 300.1649482 +22.5058604     579.9958     72.05619      1.940     3.75      5.90486     20.33442     52.38044         9     1.137     0.664 -63.91   0
       260    946.3204    222.4579 300.4131824 +22.7432651      200.512     72.11126      1.136     3.68     5.805775     20.33442     39.64312         6     1.011     0.386  19.68   0
       261    827.0637    218.7181 300.3771814 +22.7065174     297.7018     72.18462      1.159     2.85       5.8118     20.33442     41.28764         5     0.858     0.450   0.10   0
       262    755.7057    216.1243 300.3557647 +22.6844228     654.2565     72.22127      1.395     3.16     5.826379     20.33442     73.84408        11     0.957     0.840 -13.00   0
       263    346.0934    215.6398 300.2282911 +22.5616797     410.1238      72.0929      1.725     3.75     6.098546     20.33442     38.50716         6     0.813     0.645 -26.50   0
       264    853.8965    205.1490 300.3899514 +22.7106393      1992.74     72.14794      1.564     3.00     5.895091     20.33442     205.8683        25     1.222     1.080  82.69   0
       265    272.2477    201.9764 300.2097346 +22.5356387         2200      72.0929      1.671     3.26     6.138619     20.33442     216.0142        27     1.287     1.149  66.66   0
       266    350.1913    197.0613 300.2355888 +22.5575661     1117.196     72.03782      1.767     3.67     6.278207     20.33442     91.53792        23     1.275     1.143 -80.79   0
       267    752.3233    197.0046 300.3609076 +22.6779097     484.8822      71.9827      1.373     3.01     5.838006     20.33442     57.18807         9     0.913     0.646  18.41   0
       268    858.9009    193.8083 300.3951889 +22.7088725     333.3562     71.94592      1.439     4.67     5.910107     20.33442     44.95458         6     0.901     0.686  66.40   0
       269    167.1202    189.7345 300.1809929 +22.5006347     753.7911     72.18462      1.691     3.72     6.072915     20.33442     80.92084        10     1.034     0.740 -40.66   0
       270    704.9689    186.6546 300.3494958 +22.6607638     1749.119      72.0929      1.546     2.69     5.866501     20.33442     208.0721        19     1.099     0.991  -2.39   0
       271    770.2488    186.1230 300.3700252 +22.6801416     569.9365     72.07455      1.642     3.68     5.810662     20.33442      54.8698        10     1.012     0.722 -17.56   0
       272    189.1538    182.3298 300.1902471 +22.5051063     504.5719     72.05619      1.538     5.55     6.151683     20.33442     51.58114        11     1.358     0.640 -57.02   0
       273    976.3380    179.4195 300.4365034 +22.7398535     787.7169     72.05619      1.553     2.91     6.204704     20.33442     90.18049        14     1.032     0.858 -32.39   0
       274    478.4988    178.6489 300.2815121 +22.5906851     311.5551     72.11126      1.386     4.63     6.231763     20.33442     41.86623         7     0.889     0.859   0.40   0
       275    708.9148    178.0199 300.3535248 +22.6594602     790.0027     72.00108      1.627     3.93     5.866658     20.33442     72.05173        13     1.157     0.822   3.55   0
       276    629.4222    177.0778 300.3290483 +22.6354033     1362.312     72.05619      1.638     3.23     5.870516     20.33442     137.7955        22     1.219     1.076 -80.00   0
       277    825.0231    168.6822 300.3927636 +22.6915081     1495.004     72.03782      1.612     3.10     5.830907     20.33442     163.5066        24     1.298     1.121 -70.66   0
       278    555.6693    168.6564 300.3087928 +22.6109093      984.418      72.0929      1.660     3.58     5.860189     20.33442     102.5786        18     1.133     1.055 -73.84   0
       279    837.1372    168.0421 300.3967503 +22.6949474     800.8322     72.05619      1.618     3.36     5.859878     20.33442     80.41032        13     1.055     0.805 -15.36   0
       280    883.2799    167.6075 300.4112881 +22.7086235      147.748     72.00108      1.248     3.48     5.957007     20.33442     35.42286         5     0.762     0.459 -15.81   0
       281    997.9897    158.8507 300.4499293 +22.7404063     1727.876      72.0929      1.692     3.75     6.508291     20.33442     153.9549        27     1.285     1.255  70.42   0
       282    953.6797    158.2202 300.4363015 +22.7269751     1113.012     72.07455      1.562     3.38     6.238078     20.33442     131.2042        20     1.238     0.992  59.73   0
       283    187.7059    150.7425 300.2000332 +22.4955949     821.9307      72.1296      1.728     4.69     6.300367     20.33442      78.4174        14     1.100     1.011 -80.64   0
       284     49.6756    145.6533 300.1587541 +22.4527882     2184.239      72.0929      1.843     3.95     6.578006     20.33442     201.3719        30     1.457     1.221  29.87   0
       285    872.7164    143.2827 300.4158754 +22.6984629     745.0224     72.20294      1.567     3.33     6.071599     20.33442      71.4004        12     0.942     0.870  52.52   0
       286    206.9441    138.8593 300.2098692 +22.4979412     5644.036     72.14794      1.683     3.38     6.363056     20.33442     488.2253        40     1.407     1.293  79.70   0
       287    190.5023    130.1350 300.2075808 +22.4905098     679.7642     72.18462      1.696     3.01     6.358026     20.33442     71.91225        10     0.954     0.705   0.06   0
       288   1005.9650    126.7808 300.4628123 +22.7335575     18374.45      72.0929      1.805     3.61     6.517148     20.33442     1659.195        66     1.617     1.415 -76.83   0
       289    851.2221    120.8503 300.4164382 +22.6855777     3542.407     72.07455      1.612     3.12      6.20298     20.33442     334.7397        33     1.364     1.207  86.44   0
       290    954.7833    119.6504 300.4491453 +22.7162014     2855.697      72.0929      1.673     3.56     6.386421     20.33442     262.3162        33     1.387     1.200  81.55   0
       291    400.7665    116.3604 300.2774883 +22.5495052     638.0898     72.11126      1.468     3.12      6.47558     20.33442     68.80167        10     0.941     0.737  39.88   0
       292    153.8106    116.5486 300.2005689 +22.4756164     342.7766     72.07455      1.393     3.58     6.387731     20.33442      42.6349         8     0.816     0.783  77.61   0
       293    515.1089    113.9554 300.3138815 +22.5830373     327.5786     72.05619      1.377     3.95     6.348499     20.33442     33.75433         5     0.834     0.535  30.21   0
       294    325.2338    107.0376 300.2569926 +22.5242129     635.4231     72.11125      1.688     7.11     6.567517     20.33442     68.41588        16     1.913     0.808 -55.72   2
       295    329.1344    106.3171 300.2584403 +22.5251735     290.9562     72.18462      1.934     3.51     6.569727     20.33442     47.29248         5     1.015     0.349 -47.56   3
       296     90.7038    105.0253 300.1846753 +22.4534041     662.0206     72.00108      1.915     5.27     6.641714     20.33442     47.34619        11     1.088     0.722 -14.86   0
       297    452.0152    103.1206 300.2977382 +22.5610378     1818.519      72.0929      1.487     3.08     6.439394     20.33442     170.5029        25     1.250     1.072  72.97   0
       298    379.8223    103.6713 300.2750781 +22.5395869      404.248     72.11125      1.268     3.25     6.519929     20.33442     63.80479         9     0.917     0.797 -53.00   0
       299    514.0109    102.5543 300.3172335 +22.5794294     381.7258      72.0929      1.306     2.95     6.401426     20.33442     45.21427         6     0.776     0.493  -6.37   0
       300    194.9160     98.6097 300.2191682 +22.4827705     454.2228     72.01945      1.930     3.53     6.433869     20.33442     43.23087         5     0.810     0.445  17.24   0
       301    739.7391     93.1640 300.3906349 +22.6442649     321.0077      72.0929      1.562     3.62     6.315768     20.33442     42.15028         5     1.025     0.368   2.68   0
       302    325.5657     88.4299 300.2631246 +22.5189622      157.904      72.0929      1.110     4.33     6.509849     20.33442     26.44307         5     0.973     0.549  45.38   0
       303   1016.3732     84.1540 300.4798741 +22.7243951     3569.629      72.0929      1.835     3.57     6.420412     20.33442     327.3282        40     1.483     1.347 -68.21  16
       304    732.8248     84.0838 300.3914206 +22.6395835     401.9544     72.03782      1.728     3.31     6.391363     20.33442     35.85913         6     0.893     0.466  54.26   0
       305    225.9599     82.5845 300.2340187 +22.4874599     5998.072      72.0929      1.755     3.59     6.489701     20.33442     536.6669        43     1.487     1.316  65.81   0
       306     76.8110     82.1698 300.1877597 +22.4426751     830.2354     72.07455      1.954     5.33     6.821897     20.33442     68.33648        14     1.377     0.892  54.95   0
       307    197.9720     77.0899 300.2270907 +22.4774999     378.2162     72.05619      1.320     3.34     6.516163     20.33442     48.24678         7     0.903     0.491 -45.39   0
       308    702.0515     74.9774 300.3847751 +22.6277577     382.3681     72.07455      1.659     3.99     6.470768     20.33442     41.94146         5     0.872     0.523 -27.12   0
       309    472.1151     68.2174 300.3153066 +22.5570150      6343.36     72.03782      1.626     3.00      6.43539     20.33442      679.613        44     1.399     1.275  83.46   0
       310    357.5009     68.1728 300.2796289 +22.5226975     754.9052     72.01945      1.729     4.69     6.239328     20.33442     56.07317        13     1.122     0.874 -11.70   0
       311    529.5148     62.7274 300.3349668 +22.5726128     407.1796     72.18462      1.707     3.35     6.425994     20.33442     42.85067         7     1.041     0.558 -46.41   0
       312    724.3625     58.7013 300.3970049 +22.6297476     874.0241     72.07455      1.715     4.29     6.611933     20.33442     72.50036        14     1.243     0.922 -64.66   0
       313    817.0458     57.6160 300.4262637 +22.6571553     329.3744      72.0929      1.198     3.54     6.428888     20.33442     49.56469         8     1.001     0.554  22.85   0
       314    165.1490     52.3562 300.2248916 +22.4605618     336.7756     72.11125      1.358     3.56     6.630847     20.33442     61.16207         7     0.862     0.597 -37.73   0
       315    523.6462     50.6670 300.3370452 +22.5673873     396.0798     72.07455      1.557     3.67     6.427656     20.33442     53.91077         9     1.015     0.898  48.69   0
       316    600.5204     48.3603 300.3617473 +22.5897249     6301.731     72.05619      1.674     3.01     6.464357     20.33442     704.5814        42     1.442     1.224  82.88   0
       317    375.1540     47.2358 300.2919073 +22.5219608     1445.621     72.11125      1.615     3.13     6.128134     20.33442     166.4363        22     1.267     1.035  47.52   0
       318    641.4535     46.1838 300.3752108 +22.6013445     874.7765     72.05619      1.557     2.85     6.599805     20.33442     88.77779        14     1.041     0.810   3.39   0
       319    657.5909     42.0400 300.3815837 +22.6049796     634.5245     72.07455      1.768     3.32     6.695674     20.33442     59.87293         8     0.925     0.702  58.64   0
       320    124.5428     40.0174 300.2162578 +22.4448557     619.4038     72.05619      1.762     4.49     6.854039     20.33442     57.18712        12     1.099     0.784 -48.46   0
       321    927.1852     39.9769 300.4663447 +22.6850106      446.336     72.07455      1.401     3.01     6.417985     20.33442     54.28375         8     0.829     0.635  47.37   0
       322    696.2572     37.5737 300.3950853 +22.6152606     362.7763     72.07455      1.361     3.07     6.797213     20.33442     57.14428         7     0.953     0.484  -7.07   0
       323    644.7844     33.2002 300.3804548 +22.5986048     2807.018     71.92754      1.674     3.19     6.689116     20.33442     321.2606        32     1.388     1.228 -88.37   0
       324    285.4212     33.9884 300.2682646 +22.4912910     398.5378     72.05619      1.403     5.53     6.578295     20.33442     38.39951        10     1.131     0.763 -54.69   0
       325    659.9329     32.3330 300.3854581 +22.6028868     1010.531      72.1296      2.042     5.15     6.778008     20.33442     80.85036        16     1.436     0.907  41.82   0
       326    731.1978     25.1766 300.4099960 +22.6221434     1478.097     72.01945      1.539     3.03     6.911909     20.33442     150.4639        25     1.228     1.118  52.84   0
       327    890.8056     23.9890 300.4601701 +22.6695304     404.8004     71.94592      1.681     4.53     6.410707     20.33442     50.08701         5     1.093     0.534  10.34   0
       328    669.0501     18.5033 300.3927798 +22.6016342     748.1212     72.14794      1.523     3.95     6.936757     20.33442     70.80639        14     1.176     0.885  31.85   0
       329    274.5919   1013.9228 299.9468442 +22.7694934      496.608     72.03782      1.830     6.11     18.95938     20.33442     43.60416        10     1.442     0.791  77.80   2
       330    109.6778   1009.4836 299.8969914 +22.7187407     2063.512     72.18462      3.580    15.07     88.25291     20.33442     57.91268        62     2.952     2.139 -37.30  16
       331    378.5269     15.6891 300.3031755 +22.5138978     802.6863     72.23959      1.517     2.56     5.932474     20.33442     90.32699        12     0.884     0.810 -14.38   0
       332    209.1060   1002.5314 299.9301749 +22.7465799     1745.017     72.22127      3.364    16.65     64.61159     20.33442     76.57039        53     2.794     2.757   5.94   3
       333    177.9737    987.6223 299.9253395 +22.7329629     4265.223     72.05619      8.951    25.05     65.04611     20.33442     99.68046       351     6.233     4.957  89.67  19
       334    196.7131    987.0289 299.9313613 +22.7384149     5207.475     72.07455     11.631    47.91     57.57241     20.33442     97.20996       637    11.865     5.369 -49.99  19
       335    216.3872    975.3309 299.9412853 +22.7409615     7701.393      72.0929      8.233    33.61     42.80304     20.33442     161.0149       752    10.869     4.942  63.68  18
