#   1 NUMBER                 Running object number                                     
#   2 X_IMAGE                Object position along x                                    [pixel]
#   3 Y_IMAGE                Object position along y                                    [pixel]
#   4 ALPHA_J2000            Right ascension of barycenter (J2000)                      [deg]
#   5 DELTA_J2000            Declination of barycenter (J2000)                          [deg]
#   6 FLUX_APER              Flux vector within fixed circular aperture(s)              [count]
#   7 FLUXERR_APER           RMS error vector for aperture flux(es)                     [count]
#   8 FLUX_RADIUS            Fraction-of-light radii                                    [pixel]
#   9 FWHM_IMAGE             FWHM assuming a gaussian core                              [pixel]
#  10 BACKGROUND             Background at centroid position                            [count]
#  11 THRESHOLD              Detection threshold above background                       [count]
#  12 FLUX_MAX               Peak flux above background                                 [count]
#  13 ISOAREA_IMAGE          Isophotal area above Analysis threshold                    [pixel**2]
#  14 A_IMAGE                Profile RMS along major axis                               [pixel]
#  15 B_IMAGE                Profile RMS along minor axis                               [pixel]
#  16 THETA_IMAGE            Position angle (CCW/x)                                     [deg]
#  17 FLAGS                  Extraction flags                                          
         1    215.3451     14.5665 300.2354276 +22.4424532     4020.306     72.32214      1.658     2.80     5.065125     20.39908     453.4908        37     1.471     1.148  34.51   0
         2    783.4963     15.0076 300.4121675 +22.6126489     629.6707     72.19315      1.438     2.97     5.448689     20.39908     83.97092        12     0.999     0.774  55.11   0
         3    637.8725     11.9151 300.3677911 +22.5681874     414.9052     72.41415      1.358     2.36     4.726123     20.39908     57.20088         6     0.704     0.570  47.04   0
         4    541.6642     12.0697 300.3377766 +22.5394384      416.679     72.34055      1.396     3.15     4.074122     20.39908     45.73077         8     0.954     0.576 -24.64   0
         5    776.9094      7.1342 300.4126659 +22.6084135     869.5864     72.43253      1.394     3.23     5.493861     20.39908     102.1074        14     1.155     0.746  66.87  16
         6    331.4652      6.8237 300.2740531 +22.4750028     1059.351     72.28531      1.380     2.70     4.922792     20.39908     147.2286        18     1.119     0.907  51.51  16
         7    558.2135      4.1609 300.3454931 +22.5421178     329.3885     69.33287      1.231     2.50       4.1471     20.39908      40.1145         6     0.711     0.570  48.14  16
         8    491.8702      4.1447 300.3248413 +22.5222555     770.6284     69.27522      0.559     1.03     3.912287     20.39908     404.5679         6     0.507     0.432 -13.79  16
         9    814.7402      2.3049 300.4260240 +22.6183414     616.2615     61.60387      1.373     4.43     5.444111     20.39908      69.3228        10     0.983     0.704  60.00  24
        10    738.0171      2.2202 300.4021365 +22.5953643     432.2165     61.12648      1.172     2.87     5.523597     20.39908     73.51398         8     0.914     0.647  -2.64  24
        11    591.1699   1002.3765 300.0315876 +22.8386905     2376.299     72.30373      1.903     4.59     3.466335     20.39908     147.4624        32     1.434     1.368  82.02   0
        12    339.5796   1022.9907 299.9465777 +22.7691294     616.5819     60.04957      1.497     6.51     15.17247     20.39908      88.9579        13     1.224     0.972  25.03  24
        13    293.3568   1022.8281 299.9322543 +22.7552122      609.082     60.88638      1.644     7.34     51.33045     20.39908     36.96159        15     1.949     0.773  -1.10  24
        14    176.2942   1017.7359 299.8975156 +22.7186188     1331.233     72.41415      3.322    11.73     90.69911     20.39908     44.17208        26     2.092     1.831 -24.13  18
        15    122.7147    961.9238 299.8990235 +22.6865394      5206.44     72.41415     23.277    91.00     35.97869     20.39908     107.1659      3441    19.913    16.579 -42.00  19
        16    210.7328    985.7667 299.9186237 +22.7197915     1306.458     72.30373      4.828    13.15       63.782     20.39908     50.21632        33     3.081     1.562  67.33   2
        17     26.6567    983.4858 299.8621638 +22.6638829     692.2485     72.41415      2.789     5.07     1.431132     20.39908      67.0721         9     1.261     0.576  74.16   0
        18    969.6347    981.0096 300.1564929 +22.9460139     839.2161     72.28531      2.462     7.19     3.001785     20.39908     47.94985        11     1.933     0.752 -53.37   2
        19     15.4771   1000.9612 299.8530052 +22.6655339     1339.682     72.28531     11.299    11.96     -9.18581     20.39908     43.79827        27     2.867     1.388 -81.31  27
        20      2.3317    971.8112 299.8584066 +22.6532345     823.4653     61.62548      8.623     9.16    -10.85553     20.39908     40.02988        14     2.258     1.037  66.84  25
        21    188.4899    966.2902 299.9180461 +22.7075327     1685.052     72.46929      5.774    12.98     46.95881     20.39908     59.11099        34     2.689     1.743  24.73   2
        22    121.0902    927.8237 299.9096120 +22.6762775     4114.113     72.23003     17.203    55.54     10.77273     20.39908     81.92202       985    12.354     6.928 -31.13   3
        23    145.9027   1022.3401 299.8865714 +22.7108158     3662.788     63.37256      5.682    23.84     88.99106     20.39908     98.22488       169     6.788     2.325   1.21  27
        24    191.2044   1018.1059 299.9020299 +22.7232003      90.9851     72.21159      1.904     6.47     90.69911     20.39908     35.39127         7     2.227     0.527  33.46  16
        25    576.2272    959.6215 300.0408470 +22.8219428      455.952     72.30373      1.754     4.79     3.424834     20.39908     46.26974         6     1.336     0.487  51.15   0
        26    695.9646    964.7780 300.0764630 +22.8593257     6822.954     72.32214      1.846     4.10      3.90722     20.39908     420.7827        44     1.488     1.364  31.47   0
        27    604.4649    955.6129 300.0509445 +22.8292604     1493.456     72.24846      1.751     3.95     3.571207     20.39908     120.4168        21     1.258     1.094 -15.58   0
        28    498.2968    951.8275 300.0191209 +22.7963349     950.4707     72.24846      1.681     3.82     3.323492     20.39908     85.80341        18     1.155     1.041  17.44   0
        29    428.8038    949.8079 299.9981498 +22.7749114     6625.637     72.13779      1.816     3.89     3.489491     20.39908     505.9991        46     1.454     1.397  70.66   0
        30    778.0002    998.2571 300.0911309 +22.8935284     575.0923     72.21159      1.672     5.73     3.336506     20.39908     37.31142        12     1.020     0.908 -21.87   0
        31    935.7282    946.9982 300.1569848 +22.9260874     1105.867     72.23003      0.587     1.67     3.433283     20.39908     534.3134         5     0.594     0.244  -0.10   0
        32      2.2554    998.3309 299.8497544 +22.6608104     1201.177     61.36564      9.288    15.08    -18.88562     20.39908     43.59559        53     5.754     1.100  84.99  27
        33    168.5037    936.2849 299.9215953 +22.6929330     1005.442     72.48766      5.302     4.73     21.72402     20.39908     33.45327         5     1.417     0.448 -30.30   3
        34    461.8038    936.6859 300.0126886 +22.7810460     470.7702     72.23003      1.561     4.20     3.474627     20.39908      45.6687        10     1.083     0.650  71.14   0
        35    975.2724    928.7046 300.1752708 +22.9326832     2047.014     72.41415      1.974     4.76     3.839262     20.39908     119.8914        31     1.529     1.287  26.84   0
        36    625.6304    926.2159 300.0671004 +22.8271715     435.3863     72.30373      1.678     4.01     3.538175     20.39908     47.00144         7     1.019     0.742  57.21   0
        37    127.0827   1016.9285 299.8824837 +22.7036154     4836.109     72.43253      9.012    32.13     78.75021     20.39908     91.01717       510     7.293     6.183 -14.29  27
        38    473.5853    924.3304 300.0203749 +22.7810352     254.0133     72.32214      1.235     3.31     3.569519     20.39908      36.9154         5     1.103     0.288  67.95   0
        39    763.8337    917.4819 300.1129985 +22.8660966     849.6497     72.26689      2.010     7.12     3.766251     20.39908     69.70472        18     1.639     1.003  45.70   0
        40    798.9404    911.8660 300.1257670 +22.8750070     939.3882     72.34055      1.707     4.55     3.806419     20.39908      58.0605        20     1.207     1.099  41.92   0
        41    576.5325    912.5909 300.0562428 +22.8085400     449.3171     72.30373      1.908     7.29     3.566841     20.39908      40.6121        11     1.494     0.997 -27.01   0
        42      8.3924    909.1113 299.8806854 +22.6370863     409.3522     72.21159      1.758     7.08     3.157139     20.39908      43.9058        13     1.549     0.907 -26.08  16
        43      7.2117   1002.4991 299.8499376 +22.6634929     1736.006     72.21159     12.971    17.82    -15.98117     20.39908     42.85267        46     3.915     2.254  83.45  19
        44    821.1181    905.4628 300.1347629 +22.8798155     11385.62     72.41415      1.803     3.86     3.822816     20.39908     728.7407        54     1.466     1.415  15.39   0
        45    866.9786    905.6751 300.1489909 +22.8936203     470.2474     72.28531      1.754     6.45     3.790839     20.39908     39.70808        11     1.206     0.970   6.70   0
        46   1010.9592    905.4832 300.1939582 +22.9367058     218.1562     72.26689      1.510     4.60     4.091031     20.39908     36.65272         5     0.876     0.685  41.07   0
        47      7.3370   1013.0423 299.8465458 +22.6665514     2006.528     72.30373     10.116    24.29     -18.7978     20.39908     60.32127       106     5.037     3.252  27.62  27
        48    677.6104    997.5814 300.0600707 +22.8632359     8404.848     72.26689      1.869     4.12     4.182542     20.39908     514.7875        47     1.532     1.371  60.03   3
        49    132.4241    896.8746 299.9232011 +22.6708071     1024.401     72.34055      5.387     5.11     9.318655     20.39908     62.51948        16     1.468     1.099  -2.46   0
        50    526.6938    893.7880 300.0468419 +22.7881999     459.2662     72.24846      1.597     4.72     3.673583     20.39908     42.70049         8     0.985     0.642  -2.77   0
        51    872.6884    893.4903 300.1547350 +22.8918327     324.6838     72.46929      1.521     5.50     3.892213     20.39908     37.86625         9     1.301     0.656   5.48   0
        52    683.1495    995.3910 300.0625091 +22.8642683     9578.646     72.30373      1.960     4.82      4.15461     20.39908     550.1245        52     1.578     1.479 -43.94   3
        53    829.7402    887.6846 300.1432339 +22.8772952     1418.799     72.41415      1.702     3.96     3.915296     20.39908     102.7095        20     1.288     0.984  21.05   0
        54   1012.7382    887.1927 300.2004633 +22.9319853     304.0736     72.28532      1.375     3.38     4.146086     20.39908     35.02513         5     0.943     0.351  46.72   0
        55    681.5414    884.2978 300.0981521 +22.8319035     527.5521     72.39576      1.975     6.54     3.488735     20.39908       34.048        11     1.352     0.887  43.64   0
        56    867.8231    881.3417 300.1571698 +22.8868864     921.0191     72.30373      2.051     6.88     3.996618     20.39908     53.82756        15     1.519     0.949  58.90   0
        57      2.8922    984.0191 299.8546088 +22.6569009     1181.278     64.33186     13.997    16.23    -13.92381     20.39908     38.00317        27     3.569     2.051  84.90  27
        58    975.5542    878.0881 300.1918251 +22.9182307     305.6812     72.28531      1.656     4.61     4.063881     20.39908     34.67892         5     0.854     0.706  38.51   0
        59    916.0620    872.2380 300.1751728 +22.8987264     657.0436     72.32214      1.853     7.75     3.990295     20.39908     53.47721        19     1.716     0.980  44.89   0
        60    767.5828    871.4930 300.1291267 +22.8540181     708.5476     72.23003      1.718     3.55     3.847358     20.39908     60.69531        13     1.116     0.785 -23.51   0
        61    778.6588    868.4748 300.1335603 +22.8564711     638.8664     72.35896      1.712     5.85     3.889397     20.39908     49.85298        13     1.363     0.706  15.52   0
        62    480.0343    867.6332 300.0408244 +22.7667034     4097.718     72.37736      1.631     3.34     4.091503     20.39908     390.2996        34     1.310     1.219  -1.01   0
        63      3.0759   1020.2007 299.8428930 +22.6673229     1961.258     63.91654      7.749    19.48    -24.66229     20.39908     52.28666        81     3.910     2.696  50.25  27
        64    205.2698    852.9642 299.9601244 +22.6800767     685.1337     72.30373      1.808     5.63     6.972174     20.39908     56.38599        15     1.229     1.057  21.58   0
        65    182.3609    850.2347 299.9538905 +22.6724203     1480.792     72.35896      1.763     4.30     6.919588     20.39908     133.7371        26     1.348     1.266  55.89   0
        66    114.3296    851.2839 299.9324049 +22.6523068     363.2834     72.43253      1.904     3.79     5.240345     20.39908     41.76066         5     0.926     0.446  44.23   0
        67    735.6663    844.7700 300.1278721 +22.8367804     2610.114     72.30373      0.790     1.75     3.888846     20.39908     912.5372        10     0.769     0.436  19.05   0
        68   1008.7352    837.8232 300.2152724 +22.9166049     2256.503     72.28532      1.965     4.62     4.176337     20.39908     133.7091        37     1.523     1.425 -36.85   0
        69    713.8310    838.7512 300.1230258 +22.8285080     368.3179     72.34055      1.619     5.65     3.805143     20.39908     37.36961        10     1.244     0.723  -4.84   0
        70    484.8875    837.0042 300.0522960 +22.7593706     112.3096     72.23003      1.417     5.54     4.153626     20.39908        23.75         8     1.262     0.686  70.29   0
        71    791.9915    832.0048 300.1495770 +22.8499957     566.2062     72.15625      1.485     4.99     4.083312     20.39908     47.19521        12     1.055     0.915  23.40   0
        72    214.8933    831.8809 299.9699722 +22.6769181     375.6954     72.45091      1.512     4.46     5.875875     20.39908      40.1604         7     1.014     0.558 -78.73   0
        73    660.1440    825.6774 300.1105517 +22.8086629     4689.057     72.34055      1.584     3.23     3.720636     20.39908     450.0566        33     1.235     1.199  25.89   0
        74    150.0242    826.7167 299.9514868 +22.6559740     308.7137     72.26689      1.444     3.21     5.489464     20.39908     47.46113         6     0.885     0.482 -39.74   0
        75    462.3430    822.9444 300.0498512 +22.7485760     550.7385     72.37736      1.393     3.32     4.171788     20.39908       82.116        10     0.937     0.823  32.71   0
        76    210.3038    819.5856 299.9725433 +22.6720152     1291.444     72.21159      1.670     3.40     5.280252     20.39908     130.8533        21     1.197     1.089 -20.25   0
        77    680.9400    818.3940 300.1193985 +22.8128056     749.0281     72.26689      1.764     4.65     3.745617     20.39908     61.12547        16     1.243     0.998 -45.18   0
        78    229.6149    816.6663 299.9794965 +22.6769716     446.7049     72.28532      1.511     5.09     5.062005     20.39908     53.78249        10     1.104     0.878   9.68   0
        79    597.4274    808.8511 300.0964894 +22.7850329      306.875     72.32214      1.483     3.64     4.160176     20.39908     35.27552         5     1.005     0.659  26.28   0
        80    836.1927    805.5110 300.1719708 +22.8556329     4248.802     72.21159      1.667     3.29      4.27459     20.39908     353.7927        37     1.364     1.224  38.98   0
        81    244.3116    799.1467 299.9897624 +22.6763558     591.1205     72.32214      1.909     5.53      4.31235     20.39908     46.03714        13     1.131     0.954  53.67   0
        82    553.0376    797.8525 300.0862430 +22.7685686     616.9156     72.32214      1.501     3.94     4.238808     20.39908     60.00212        14     1.032     1.002   4.42   0
        83    199.3393    795.8140 299.9768637 +22.6619085     1000.346     72.26689      1.688     4.28     4.273267     20.39908     90.89212        18     1.166     1.077 -13.74   0
        84    614.9594    791.4996 300.1075913 +22.7853079     497.7634     72.28531      1.546     4.24     4.222867     20.39908     57.96389        12     1.082     0.960 -15.12   0
        85    349.1566    787.9542 300.0260092 +22.7045934     53870.85     72.34055      1.575     3.13      4.28103     20.39908     5646.484        99     1.468     1.390  32.07   0
        86    607.1827    787.0133 300.1066280 +22.7816890     1563.264     72.26689      1.415     2.97     4.267298     20.39908     174.9289        20     1.052     1.012  63.20   0
        87   1019.9380    786.3878 300.2354941 +22.9051839     973.8315     71.73055      1.904     4.91     4.128803     20.39908     69.28282        21     1.289     1.244 -17.06  16
        88    277.6668    786.1049 300.0043747 +22.6826206     523.7462     72.43253      1.551     4.58     4.197439     20.39908     51.80811        12     1.168     0.905   7.46   0
        89    635.8564    783.1702 300.1168081 +22.7891808     942.5437     72.32214      1.675     3.81     4.145836     20.39908     87.18215        19     1.355     0.906  44.43   0
        90      2.4809    782.7814 299.9199284 +22.5991021     849.8167     62.41985      1.866     5.02     4.016678     20.39908     88.95382        17     1.449     0.974  65.94  24
        91    646.7045    781.8383 300.1206201 +22.7920499     692.6389     72.28532      1.766     4.21     4.098637     20.39908     55.61282        13     1.018     0.944   7.78   0
        92     35.5844    782.2623 299.9303802 +22.6088878     907.5202     72.26689      1.917     3.53     4.091818     20.39908     91.14948        15     1.118     0.957  73.52   0
        93    967.4287    778.4357 300.2216988 +22.8871719     243.5468     72.32214      1.434     5.16     4.195954     20.39908     27.47846         9     0.950     0.792 -16.62   0
        94    752.2654    778.1573 300.1547056 +22.8226294     395.1557     72.28532      1.317     3.73     4.327819     20.39908     53.50972         7     0.862     0.605 -27.42   0
        95    790.0106    768.2886 300.1696779 +22.8311059     769.3858     72.24846      1.548     4.08     4.354447     20.39908     75.68921        13     1.050     0.948  52.37   0
        96    398.8786    765.2341 300.0488650 +22.7129861     31867.79     72.24846      1.547     3.04     4.259541     20.39908     2872.629        74     1.400     1.302  27.97   0
        97    413.1244    765.7731 300.0531226 +22.7174126     1974.816     72.28531      1.514     3.22     4.250168     20.39908     205.7292        21     1.185     0.984  14.76   0
        98    922.0704    761.2769 300.2131306 +22.8686560     2923.037     72.41415      1.648     3.36     4.319567     20.39908     226.3622        27     1.236     1.179  -9.33   0
        99    409.9660    759.4713 300.0541884 +22.7146573     814.3757     72.30373      1.767     5.31     4.260245     20.39908     68.86062        16     1.445     0.906  59.68   1
       100    281.2994    757.0543 300.0149486 +22.6753771     864.2515     72.39576      1.668     5.18     4.005905     20.39908     83.14646        17     1.220     1.077  81.53   0
       101    679.8516    757.2686 300.1389338 +22.7949308     922.3693     72.28532      1.490     3.55     4.229708     20.39908      87.1237        15     1.072     0.898  21.43   0
       102    516.3483    757.2646 300.0880162 +22.7459203     520.5851     72.34055      1.655     3.81     4.323708     20.39908     49.19494        10     0.915     0.782 -61.16   0
       103    526.7238    752.1119 300.0929214 +22.7475519     832.9167     72.43253      1.486     3.69     4.340333     20.39908      89.7558        14     1.043     0.936   1.40   0
       104     86.3652    752.4279 299.9558555 +22.6155716     481.5312     72.32214      1.823     4.56      4.18449     20.39908     43.59079         9     1.203     0.534  48.86   0
       105    927.9438    749.1522 300.2189042 +22.8669324     501.2184     72.34055      1.643     4.34     4.338111     20.39908     51.03942        10     1.026     0.951 -75.23   0
       106    385.2280    747.6971 300.0503187 +22.7038608      305.475     72.24846      1.412     4.87     4.278949     20.39908     36.39242         6     0.881     0.763  70.66   0
       107    472.9889    746.7896 300.0779244 +22.7299147     435.4098     72.19315      1.437     4.00     4.316855     20.39908     46.12988        11     0.920     0.898  58.10   0
       108    114.5303    746.0498 299.9666809 +22.6221933     604.4691     72.30373      2.216     5.87      4.18564     20.39908     49.35073        12     1.302     0.776  37.26   0
       109    681.1683    746.2198 300.1429359 +22.7921531     342.0014     72.30373      1.355     3.90      4.32874     20.39908     42.09211         6     0.897     0.493  33.99   0
       110    906.3225    743.3167 300.2140585 +22.8587795     338.1908     72.41415      1.659     5.16     4.415775     20.39908     26.36044         9     1.179     0.637  76.68   0
       111    279.0935    741.0737 300.0194573 +22.6701311     665.4263     72.45091      1.804     3.30     3.901475     20.39908     55.56542        10     1.005     0.709  50.87   0
       112    602.4018    732.0264 300.1230152 +22.7644713     422.4707     72.24846      1.346     4.03      4.41023     20.39908     55.53242         7     1.001     0.636  51.81   0
       113    571.9392    729.9188 300.1142139 +22.7547355     573.1914     72.39576      1.463     3.99     4.401365     20.39908     61.77274        10     0.927     0.768  70.20   0
       114    593.8506    727.4216 300.1218490 +22.7605863     1451.571     72.30373      1.506     3.02     4.420609     20.39908     144.3329        19     1.135     0.980  53.91   0
       115    481.7243    729.5383 300.0862511 +22.7275825     431.5873     72.35896      2.144     3.44      4.34084     20.39908     39.50478         5     0.811     0.421  22.69   0
       116    988.4827    726.5627 300.2451309 +22.8785746     4502.112     72.26689      1.719     3.63     4.207453     20.39908     354.1044        37     1.350     1.255  11.24   0
       117    513.4327    727.1055 300.0969124 +22.7363901     440.5829     72.28531      1.551     4.85     4.364123     20.39908     47.11457         9     1.177     0.770  26.52   0
       118    675.9702    722.2255 300.1491163 +22.7837059      192.925     72.30373      1.402     4.87      4.44652     20.39908     33.48153         6     0.867     0.793  74.74   0
       119    976.9067    717.9977 300.2443039 +22.8726468     1683.701     72.21159      1.600     3.34     4.271453     20.39908     146.4742        22     1.239     1.041  38.55   0
       120    339.8488    711.5867 300.0479384 +22.6798917     945.3154     72.34055      1.651     4.06     4.235372     20.39908     90.62103        18     1.212     1.082 -12.08   0
       121   1008.0732    708.2299 300.2572019 +22.8791738     1594.989     72.32214      1.774     3.67      4.20846     20.39908     123.3674        27     1.301     1.219  73.40   0
       122    803.4910    709.1701 300.1930980 +22.8181662     2528.116     72.26689      1.640     3.15     4.474491     20.39908     233.5507        33     1.547     1.114   9.91   0
       123    227.8244    708.8598 300.0139853 +22.6455128     222.4847     72.30373      1.409     3.68     4.165713     20.39908     35.86953         5     1.360     0.287  79.16   0
       124     25.5993    699.4681 299.9541893 +22.5821532     973.9525     72.26689      1.903     5.09     3.760183     20.39908     70.88584        18     1.283     1.058 -62.23   0
       125    886.0080    695.0951 300.2233987 +22.8388419     653.8179     72.19315      1.653     4.58     4.525993     20.39908     66.86179        17     1.298     1.037  43.28   0
       126    188.6445    695.6360 300.0061021 +22.6299678     574.8811     72.35896      1.571     4.05      4.27332     20.39908      57.7612        13     1.054     0.845  41.66   0
       127    921.7075    686.1625 300.2374347 +22.8469681     148338.9     72.30373      1.579     3.13     4.514035     20.39908     13325.26       163     1.500     1.466  32.09   0
       128    773.9615    686.6211 300.1912230 +22.8028429     728.3624     72.32214      1.536     3.64     4.507351     20.39908     73.19865        13     1.166     0.745  33.14   0
       129    954.0474    678.8190 300.2499080 +22.8545437     545.4528     72.34055      1.560     4.00     4.459424     20.39908     42.91692        10     0.916     0.753  78.15   0
       130    607.8970    674.9933 300.1432637 +22.7497441     1701.183     72.19315      1.404     2.87      4.60936     20.39908     215.6746        20     1.092     0.986 -38.02   0
       131    789.1746    672.2993 300.2006192 +22.8032869     9425.512     72.24846      1.450     2.72     4.487894     20.39908     965.9777        41     1.228     1.168  29.63   0
       132    290.6018    667.2736 300.0470216 +22.6524093     4948.867     72.21159      1.532     2.96     4.292042     20.39908     510.9704        34     1.248     1.160  28.60   0
       133    372.8113    665.5793 300.0731448 +22.6765735     1152.302     72.28531      1.417     2.71     4.290932     20.39908     143.3313        17     1.089     0.904  27.14   0
       134      4.3077    665.6705 299.9585581 +22.5660735     1768.356     69.92571      1.940     3.54     3.653316     20.39908     164.2295        30     1.446     1.267  34.46  24
       135    248.5874    662.7281 300.0354329 +22.6385056     545.9592     72.32214      1.656     2.95     4.456209     20.39908     58.18044         6     0.879     0.444   1.58   0
       136    580.8438    660.7609 300.1394638 +22.7375501     682.1542     72.39576      1.423     3.80      4.56403     20.39908     72.84999        11     1.016     0.758  45.18   0
       137    572.5990    653.0543 300.1394007 +22.7328665     3245.991     72.23003      1.394     2.50     4.579017     20.39908     412.8222        27     1.113     1.042  47.94   0
       138    562.8217    646.8376 300.1383762 +22.7281513      1434.77     72.32214      1.422     3.04     4.593594     20.39908     171.6915        19     1.040     1.040 -13.88   0
       139    956.1525    644.5290 300.2617083 +22.8453209     518.5196     72.28531      1.822     4.43      4.42794     20.39908     42.18713        10     1.088     0.704  49.04   0
       140    473.4795    643.8694 300.1115265 +22.7005213     316.3263     72.41415      1.301     3.38     4.358384     20.39908     43.42495         5     1.001     0.330   4.03   0
       141    226.0865    642.5438 300.0349951 +22.6259668     674.9166     72.39576      1.598     3.58     4.549967     20.39908     71.28426        14     1.048     0.949 -76.36   0
       142    240.1643    641.3934 300.0397461 +22.6298586     675.3182     72.32214      1.580     3.55     4.498444     20.39908     73.54523        12     1.114     0.740  15.02   0
       143    126.1466    641.2033 300.0043637 +22.5956078     435.6417     72.28531      2.217     3.92     4.385776     20.39908     29.83794         6     0.767     0.572  40.19   0
       144    265.7611    638.1187 300.0487697 +22.6365949     669.0864     72.26689      1.550     6.06     4.404405     20.39908     80.83804        13     1.368     1.034 -59.71   0
       145    297.7934    638.6727 300.0585517 +22.6463591     369.2177     72.24846      1.460     3.73     4.317642     20.39908     43.37387         5     0.891     0.449  47.73   0
       146   1009.8301    638.0948 300.2805442 +22.8595449     532.8896     72.21159      1.522     4.75     4.239889     20.39908     49.29058        10     0.928     0.895  16.39   0
       147    586.9144    637.0657 300.1490539 +22.7325659      466.097     72.41415      1.246     2.52     4.649872     20.39908      72.8731         8     0.779     0.678  34.03   0
       148    487.6633    636.4806 300.1183423 +22.7026517     1751.997     72.41415      1.376     2.65     4.402424     20.39908       210.39        18     1.030     0.936  38.75   0
       149    141.6020    631.3607 300.0123651 +22.5974202     19931.61     72.32214      1.645     3.13     4.401232     20.39908     2037.419        64     1.444     1.330  43.83   0
       150     62.7942    633.1074 299.9873077 +22.5742819     625.6458     72.21159      1.616     2.66     4.256793     20.39908     74.91065        11     0.957     0.714 -12.01   0
       151    572.5450    631.8925 300.1462601 +22.7267743     872.5261     72.35896      1.318     2.53     4.668684     20.39908     137.9861        14     0.980     0.868   3.70   0
       152    607.7747    630.8937 300.1575559 +22.7370448     441.7327     72.24846      1.596     2.68     4.659914     20.39908     61.43815         7     0.798     0.731 -45.33   0
       153    325.6794    623.5376 300.0721429 +22.6503771     219.4798     72.39576      1.482     5.43     4.323201     20.39908     37.99094         5     1.024     0.813  63.63   0
       154    990.6273    618.2870 300.2809897 +22.8481026     1108.137     72.30373      1.594     3.25      4.26019     20.39908     102.2074        17     1.178     0.916  69.98   0
       155    655.7170    619.7034 300.1761248 +22.7481969     239.5084     72.46929      1.102     3.89     4.632841     20.39908     45.17644         6     0.782     0.554  39.19   0
       156     87.6831    615.5713 300.0007383 +22.5767182     1599.772     72.30373      2.120     4.99     4.366727     20.39908     109.6381        24     1.540     1.087 -87.42   0
       157    857.3044    616.1436 300.2401059 +22.8075621     460.5385     72.37736      1.415     2.98     4.475001     20.39908     55.38253         7     0.744     0.635  78.37   0
       158    154.0833    616.3712 300.0211144 +22.5968637     372.4353     72.30373      1.331     1.97      4.41991     20.39908     58.83362         5     0.699     0.428  23.98   0
       159    536.0831    612.7530 300.1411255 +22.7103518     414.1293     72.30373      1.157     3.16     4.748444     20.39908     56.08356         7     0.912     0.538  17.49   0
       160    930.9289    610.9193 300.2647621 +22.8281095     882.1389     72.41415      2.305     3.36     4.467103     20.39908     77.55358        11     1.005     0.762   2.82   2
       161    675.6056    608.8748 300.1858389 +22.7510458     315.3864     72.23003      1.302     3.37     4.615884     20.39908     41.70982         5     0.769     0.428  68.27   0
       162    492.8061    604.8699 300.1302136 +22.6951182     779.4581     72.26689      1.373     2.33     4.485162     20.39908     106.9504        11     0.841     0.774 -56.11   0
       163    640.6573    603.4730 300.1767070 +22.7390234     544.9893     72.34055      1.349     3.48     4.652753     20.39908     62.66689        10     0.946     0.776  44.34   0
       164    687.6417    602.1302 300.1917800 +22.7527147     508.0053     72.26689      1.386     3.45     4.608794     20.39908     73.26247        10     1.057     0.714   3.44   0
       165    658.3925    601.5764 300.1828477 +22.7437925      627.758     72.30373      1.333     2.88     4.638808     20.39908     75.08585        10     0.963     0.705  11.98   0
       166    536.7764    600.7039 300.1452559 +22.7071000     1018.352     72.19315      1.534     2.62     4.781625     20.39908     126.9975        13     0.923     0.863 -67.41   0
       167    970.7910    596.2160 300.2819728 +22.8358201     3262.273     72.23003      1.478     2.92     4.401852     20.39908     342.4414        26     1.197     1.088  31.34   0
       168    502.3329    596.0849 300.1360333 +22.6954513     1700.086     72.39576      1.298     2.44     4.559347     20.39908     247.0433        18     1.009     0.911  36.37   0
       169     64.4075    589.5836 300.0019482 +22.5622823     5229.294     72.23003      1.738     3.20     4.376554     20.39908     536.3574        44     1.441     1.342  69.24   0
       170    477.8031    590.8186 300.1301084 +22.6865876     365.0063     72.21159      1.473     5.56     4.431787     20.39908     38.49524         9     1.290     0.677  68.55   0
       171   1010.2464    586.2675 300.2975138 +22.8447737     386.2158     72.28532      1.384     5.66     4.502234     20.39908     46.60271         8     1.137     0.794  35.63   0
       172    323.2724    587.1954 300.0832008 +22.6392256     330.2502     72.24846      1.475     4.58     4.335674     20.39908     27.24148         6     0.968     0.615 -26.16   0
       173    365.8499    582.7465 300.0978914 +22.6507130     8996.124     72.34055      1.405     2.64     4.326004     20.39908     1162.098        37     1.196     1.080  48.12   0
       174    488.2951    579.8377 300.1369415 +22.6865795     8846.124     72.28532      1.358     2.41     4.502336     20.39908     1173.535        40     1.182     1.083  57.04   0
       175    892.7500    577.7316 300.2636380 +22.8071399     298.2035     72.30373      1.351     3.76     4.395737     20.39908     29.53073         5     0.921     0.440  45.39   0
       176    734.4706    576.7390 300.2146203 +22.7594499     361.6965     72.34055      1.493     4.77      4.58494     20.39908     45.56149         7     0.975     0.665  38.64   0
       177    253.5613    577.3439 300.0647199 +22.6154976     315.2792     72.30373      1.373     3.49     4.449596     20.39908     39.78857         5     1.046     0.336  19.80   0
       178    900.0001    574.0163 300.2671058 +22.8082432     1701.557     72.19315      1.456     3.01      4.39055     20.39908     173.5527        21     1.070     1.023  22.14   0
       179    984.6900    571.2838 300.2944085 +22.8328156     12473.07     72.45091      1.548     2.89     4.621662     20.39908     1253.273        53     1.319     1.281  50.96   0
       180    548.8716    569.4139 300.1591867 +22.7017400     11714.24     72.30373      1.353     2.46     4.824568     20.39908     1498.894        44     1.194     1.104  64.18   0
       181    718.4667    565.3304 300.2133393 +22.7513786     421.9748     72.35896      1.134     2.80     4.615304     20.39908       75.855         9     0.943     0.661  15.61   0
       182    276.3236    564.6280 300.0759289 +22.6186732     1286.237     72.28532      1.452     2.72     4.384508     20.39908     182.6154        18     1.172     0.893  51.93   0
       183    523.3631    562.3369 300.1535434 +22.6920639     390.1612     72.30373      1.120     2.63     4.720199     20.39908     75.15447         8     0.791     0.665  10.65   0
       184    823.3487    557.6849 300.2485116 +22.7805961     853.2079     72.28532      1.388     2.51     4.354976     20.39908     124.7621        15     1.014     0.892 -47.22   0
       185    480.6060    557.5786 300.1417785 +22.6778842     4359.825     72.28532      1.313     2.31      4.51171     20.39908     638.6803        28     1.088     1.034  49.27   0
       186    458.8358    556.1277 300.1354735 +22.6709431     1304.327     72.26689      1.356     2.31     4.451146     20.39908     194.1471        19     1.110     0.857  37.44   0
       187    213.0798    555.5321 300.0592174 +22.5971004     676.3155     72.41415      1.347     3.86     4.516245     20.39908     80.17194        13     1.076     0.896 -62.55   0
       188    900.5349    553.1761 300.2740424 +22.8024144     1575.815     72.28531      1.471     2.95     4.342635     20.39908      171.932        24     1.317     1.050 -24.67   0
       189    147.4807    552.9167 300.0396742 +22.5766789      209.107     72.45091      1.541     3.50     4.493463     20.39908     46.72706         5     0.938     0.676 -18.32   0
       190    597.1887    545.1415 300.1821169 +22.7092470     201070.2     72.24846      1.341     2.48     4.709214     20.39908     24114.96       196     1.432     1.393   3.41   0
       191    420.6171    551.2436 300.1251655 +22.6580863      379.312     72.32214      1.240     4.28     4.338203     20.39908     52.09601         9     1.034     0.679  17.98   0
       192    283.2591    545.0285 300.0844518 +22.6151276     3488.316     72.30373      1.434     2.70      4.36395     20.39908     410.7535        29     1.272     1.038  18.86   0
       193    849.0082    541.1670 300.2618766 +22.7835339     466.1079     72.30373      1.389     3.70     4.306429     20.39908     42.52824         9     0.814     0.752  12.84   0
       194    868.1202    539.1807 300.2684808 +22.7886862     345.6137     72.30373      1.567     4.49     4.295754     20.39908     32.03392         6     0.963     0.594 -26.60   0
       195    628.6813    531.9355 300.1962148 +22.7148892     304.9872     72.41415      1.173     1.87     4.743331     20.39908     63.69482         5     0.790     0.466  89.73   0
       196    487.7883    525.8424 300.1543220 +22.6709241     2893.318     72.30373      1.522     2.86     4.593157     20.39908     337.4987        32     1.523     1.064  87.27   0
       197    332.2471    527.8073 300.1052822 +22.6248703     416.7007     72.32214      1.301     3.33     4.336611     20.39908     59.35411         8     0.925     0.605  81.72   0
       198    899.3359    522.5567 300.2836141 +22.7932555     351.8956     72.30373      1.213     3.51     4.365788     20.39908     48.66477         5     0.747     0.476 -14.31   0
       199    780.8550    550.1005 300.2377294 +22.7656903     841.2949     72.39576      1.487     3.30     4.442162     20.39908     98.21973        17     1.125     0.956  48.94   0
       200    804.9569    514.1384 300.2569224 +22.7625754     369.3804     72.30373      1.212     2.53     4.379667     20.39908     59.39254         8     0.787     0.658  53.63   0
       201    884.8344    511.6611 300.2826307 +22.7857821     1683.267     72.32214      1.394     2.53     4.370548     20.39908     218.4244        20     1.134     0.935  34.56   0
       202    756.0186    509.3460 300.2432254 +22.7465423     2661.883     72.28531      1.368     2.46     4.537717     20.39908     319.1737        24     1.074     1.026  43.53   0
       203     15.1995    509.9600 300.0125204 +22.5246827      809.744     72.32214      1.859     3.94     4.583939     20.39908     73.40661        11     1.036     0.851  45.09   0
       204    999.1746    502.7677 300.3211824 +22.8174567      968.712     72.30373      2.030     5.27     4.985762     20.39908     82.75611        15     1.413     0.861  50.94   2
       205    661.1581    505.9889 300.2147582 +22.7171651     514.2424     72.30373      1.585     5.22     4.731885     20.39908     47.97916         9     1.239     0.772 -57.68   0
       206    965.2016    505.7734 300.3096081 +22.8081509     388.3934     72.24846      1.673     4.84     4.719511     20.39908      38.4012         7     1.058     0.628  80.59   0
       207    543.3060    505.1226 300.1783351 +22.6816096     749.5979     72.41415      1.329     2.61     5.017876     20.39908     95.02409        12     0.898     0.798  27.37   0
       208   1013.5067    503.5146 300.3254114 +22.8219615     1276.436     72.48766      1.711     3.44     5.102719     20.39908     113.9812        18     1.125     1.005  38.91   0
       209    885.1358    501.8379 300.2859150 +22.7830491     2251.524     72.28532      1.590     3.53      4.39054     20.39908     227.4286        26     1.387     1.027  69.69   0
       210    638.5070    500.0587 300.2096280 +22.7086764     563.2474     72.35896      1.094     2.41     4.848772     20.39908     90.47137        10     0.855     0.754  67.98   2
       211    638.2523    496.0033 300.2108656 +22.7074351     406.9039     72.30373      1.772     5.34     4.869134     20.39908     46.75328         9     1.112     0.823  72.56   3
       212    477.2610    498.4807 300.1599308 +22.6599126     322.0737     72.39576      1.225     4.20      4.55483     20.39908     61.99168         7     1.152     0.439  42.14   0
       213    923.3386    496.9527 300.2994153 +22.7930828      4043.99     72.34055      1.380     2.71     4.447702     20.39908      507.435        31     1.212     1.056  27.28   0
       214    564.0569    496.5352 300.1875852 +22.6853604     358.8857     72.35896      1.238     3.73     5.056251     20.39908     38.05961         6     0.807     0.495   5.60   0
       215    661.3386    493.9414 300.2187268 +22.7137583     275.1975     72.35896      1.172     4.28     4.747734     20.39908     36.44458         5     0.999     0.580  17.64   0
       216   1014.9906    487.3471 300.3311249 +22.8177577     673.5413     72.30373      1.394     3.41     5.098718     20.39908     75.21614        10     0.909     0.771  57.64   0
       217    155.4397    487.2027 300.0634884 +22.5602098     1081.358     72.32214      1.614     4.87     4.511919     20.39908     105.5781        17     1.449     0.902 -18.48   0
       218    954.3316    485.4041 300.3128325 +22.7990416     234.0332     72.26689      1.326     4.93     4.658996     20.39908     33.17022         7     0.921     0.747  16.77   0
       219    816.2850    481.1223 300.2711758 +22.7564800     416.1095     72.41415      1.324     3.28     4.407571     20.39908     47.54447         6     0.754     0.608 -18.76   0
       220    421.4134    480.1699 300.1484949 +22.6379191     213.7626     72.30373      1.212     3.47     4.395164     20.39908     34.12084         5     0.771     0.451  71.49   0
       221    203.1548    479.1251 300.0809444 +22.5721978     203.8633     72.28531      1.147     3.68     4.480777     20.39908     36.68591         5     1.269     0.307  58.38   0
       222   1011.2502    476.3245 300.3335374 +22.8134691     377.1324     72.30373      1.523     4.31     5.066319     20.39908     43.11553         7     1.110     0.477  61.24   0
       223    147.7122    477.1211 300.0643599 +22.5549998     466.9666     72.45091      1.544     3.56     4.513535     20.39908     58.44987        11     1.048     0.725 -11.65   0
       224    755.7144    471.4753 300.2554288 +22.7355697     543.6567     72.41415      1.608     3.30     4.536242     20.39908     54.38337        11     0.953     0.873  24.74   0
       225    363.8837    469.5934 300.1340281 +22.6176412     270.8031     72.23003      1.584     4.44     4.437181     20.39908     26.63593         5     1.174     0.478   6.10   0
       226    696.7252    467.3481 300.2383870 +22.7167173     767.0117     72.32214      1.307     2.84     4.690615     20.39908     99.89796        14     1.019     0.822  67.75   0
       227    675.1957    465.6691 300.2322244 +22.7097866     287.9143     72.26689      1.229     3.86     4.752004     20.39908     37.81147         6     1.036     0.412  13.82   0
       228   1011.4561    459.8283 300.3389584 +22.8087879     581.2511     72.30373      1.552     3.81     5.066319     20.39908     91.10966        14     1.174     0.925 -76.16   0
       229    757.3630    459.3976 300.2598643 +22.7325928     853.4394     72.32214      1.349     2.58     4.535773     20.39908     110.6661        14     1.019     0.782  55.39   0
       230    914.5702    455.8028 300.3100432 +22.7786294     942.4125     72.24846      1.378     2.67     4.472008     20.39908     123.0006        13     1.031     0.725  41.52   0
       231    898.8773    452.2726 300.3062954 +22.7729167     611.4618     72.39576      1.393     2.59     4.455102     20.39908     80.91544         9     0.797     0.740  63.89   0
       232    879.5090    452.5724 300.3001583 +22.7672045     275.0979     72.28532      1.384     4.41     4.434348     20.39908      38.8905         7     0.969     0.671 -46.26   0
       233    873.3088    453.5097 300.2979207 +22.7656177     166.4702     72.46929      0.874     3.40     4.426438     20.39908     47.99881         5     0.920     0.495   5.01   0
       234    643.2603    450.0680 300.2273413 +22.6957392     3230.042     72.34055      1.325     2.37     4.913215     20.39908     422.2713        28     1.122     1.006 -78.28   0
       235    119.3322    441.8279 300.0669975 +22.5363626     544.1225     72.28532      2.039     5.50     4.521469     20.39908     52.39977         8     1.209     0.705  -8.37   0
       236   1003.6354    448.9644 300.3400459 +22.8033236     415.1159     72.37736      1.235     2.77     5.016901     20.39908     67.30603         7     0.747     0.616  44.91   0
       237    415.0478    437.5222 300.1603608 +22.6237655     355.8518     72.30373      1.462     4.17      4.68784     20.39908     33.44557         5     1.130     0.440  64.06   0
       238    483.0341    437.0306 300.1816804 +22.6439954     442.3242     72.32214      1.404     4.05     4.714019     20.39908     55.37728         7     0.904     0.520  44.81   0
       239    926.5079    429.0295 300.3224592 +22.7745065     629.0871     72.26689      1.560     3.50     4.485534     20.39908     69.39031        10     0.997     0.675  30.72   0
       240   1012.9042    427.8272 300.3498006 +22.8000202     871.9838     72.23003      1.476     3.23     5.080439     20.39908       101.75        12     0.940     0.874 -80.82   0
       241    662.8572    425.7675 300.2413355 +22.6946270     406.2595     72.32214      2.163     4.28     4.951563     20.39908     38.43923         5     1.098     0.475  58.45   0
       242    753.8422    423.8639 300.2703038 +22.7213273      988.474     72.30373      1.356     3.08     4.549204     20.39908     122.2456        15     1.060     0.821  67.30   0
       243    549.6710    424.5872 300.2064664 +22.6603850     422.5028     72.32214      1.091     2.70     4.891015     20.39908      69.6853         7     0.841     0.557  53.76   0
       244    257.7966    422.2241 300.1164081 +22.5722456      626.408     72.26689      1.319     2.96     4.662987     20.39908     82.73045        12     1.030     0.737  86.78   0
       245     98.0354    419.9153 300.0674922 +22.5236889     282.7438     72.28531      1.320     4.67     4.524476     20.39908     37.79385         7     0.937     0.660  36.05   0
       246    320.1849    417.8705 300.1372256 +22.5896946     3702.402     72.32214      1.369     2.58     4.833069     20.39908      466.387        28     1.166     1.015  56.64   0
       247    267.4056    412.6328 300.1225099 +22.5723723     7594.897     72.30373      1.435     2.45     4.743418     20.39908     1058.079        39     1.239     1.116  49.03   0
       248    408.1913    406.9247 300.1681599 +22.6129245     4757.559     72.28531      1.341     2.34     4.862206     20.39908      655.095        30     1.152     1.003  42.06   0
       249    652.3790    403.6499 300.2452514 +22.6851339     18617.54     72.30373      1.314     2.24     4.936762     20.39908      2537.61        59     1.292     1.187  16.62   0
       250    669.8882    403.6775 300.2506971 +22.6903857     747.6412     72.45091      1.721     5.70     4.971396     20.39908     60.85096        16     1.451     0.798 -43.61   0
       251    849.4993    394.0739 300.3097929 +22.7414051     422.2433     72.43253      1.342     3.76     4.450283     20.39908     52.66776         7     0.917     0.641 -74.56   0
       252    272.4362    390.6951 300.1311952 +22.5675820     345.3172     72.30373      1.327     5.21     4.835906     20.39908     44.77287         8     1.178     0.651 -61.29   0
       253    986.1036    386.4765 300.3548631 +22.7801092     746.4342     72.45091      1.553     3.43     4.725407     20.39908     85.66538        14     1.138     0.901 -66.45   0
       254    523.1268    385.6046 300.2108558 +22.6412356     278.4335     72.24846      1.216     2.76     4.849502     20.39908     35.68283         5     0.729     0.444 -20.78   0
       255    206.9600    383.6109 300.1131341 +22.5459233     2093.333     72.30373      1.485     2.87     4.632683     20.39908     234.2911        23     1.209     1.007  61.63   0
       256    696.0876    384.5917 300.2650552 +22.6927471     277.7524     72.23003      1.138     2.77     4.775506     20.39908     59.81101         5     0.834     0.523 -45.57   0
       257    593.0804    373.0318 300.2367196 +22.6585770     6703.751     72.30373      1.346     2.50     4.856693     20.39908     915.1832        33     1.181     1.006  55.49   0
       258   1006.6564    373.5017 300.3654869 +22.7825289     1037.809     72.39576      1.379     2.68     4.720145     20.39908     142.5185        16     1.077     0.858  57.47   0
       259    307.7322    372.4246 300.1481032 +22.5729143     641.4634     72.28532      1.360     2.67     4.926248     20.39908     86.12334        11     0.918     0.776  19.50   0
       260    165.4432    365.5289 300.1060956 +22.5282881     499.4478     72.26689      1.363     3.82     4.493897     20.39908     68.79948        12     1.186     0.726  43.28   0
       261    853.3243    364.8976 300.3204560 +22.7341629     248.2938     72.45091      1.302     3.17     4.471168     20.39908     50.03902         7     0.854     0.593  62.08   0
       262    797.2082    362.1924 300.3038395 +22.7165864      1192.06     72.15625      1.375     3.04     4.445249     20.39908     141.4321        18     1.104     0.946 -86.66   0
       263     12.7007    363.1791 300.0593927 +22.4818214     1312.656     72.23003      1.577     3.66     5.282649     20.39908     131.8902        22     1.256     1.014  22.92   0
       264    707.0273    363.2429 300.2753932 +22.6898878     475.4009     72.32214      1.411     2.72     4.643144     20.39908     66.82456         9     0.884     0.668  13.24   0
       265    499.6782    359.2953 300.2120947 +22.6266538     6184.388     72.43253      1.326     2.36     4.876364     20.39908     807.1932        35     1.164     1.053  77.23   0
       266    891.6408    353.8075 300.3360032 +22.7424438     1329.759     72.32214      1.284     2.43     4.496724     20.39908     186.9318        17     0.998     0.890  57.51   0
       267    989.2386    354.0828 300.3663557 +22.7717323     669.5812     72.26689      1.425     2.83     4.558053     20.39908     86.05161        12     0.948     0.820  23.67   0
       268    484.4018    348.1866 300.2109443 +22.6188866      456.215     72.13779      1.388     2.31     4.888915     20.39908     67.72502         7     0.794     0.572   7.22   0
       269    566.9285    345.8883 300.2373848 +22.6429457     458.1056     72.46929      1.311     3.15     4.861592     20.39908     59.20181         8     0.809     0.691 -39.34   0
       270     11.2329    344.6248 300.0649578 +22.4760570     1120.296     72.28532      1.633     3.42     5.289118     20.39908     127.7075        19     1.166     1.068  27.44   0
       271    864.7230    341.6707 300.3315486 +22.7308975     517.9337     72.41415      1.353     2.27     4.491478     20.39908     92.68872         8     0.835     0.618 -54.71   0
       272    387.2368    338.4485 300.1838641 +22.5869805     2535.879     72.32214      1.337     2.44     4.936635     20.39908     303.4682        25     1.121     1.041  81.20   0
       273    105.7119    335.7912 300.0971803 +22.5018470       1029.5     72.23003      1.554     2.79     4.584452     20.39908     149.2469        16     1.095     0.909  24.04   0
       274    356.5959    327.9574 300.1777348 +22.5747870     29836.19     72.32214      1.390     2.45     4.902311     20.39908     4037.282        71     1.341     1.164  49.16   0
       275    891.2909    325.6046 300.3450471 +22.7342302     1369.899     72.21159      1.337     2.54     4.502932     20.39908     186.7344        15     0.949     0.884 -89.98   0
       276     52.8831    315.6830 300.0872888 +22.4802384     5184.082     72.43253      1.610     3.14     4.969567     20.39908     533.0132        41     1.445     1.187  50.26   0
       277    806.5610    314.5804 300.3222068 +22.7056995     609.8629     72.34055      1.564     3.96     4.643386     20.39908     74.56711         9     1.125     0.565  63.19   0
       278    231.0393    314.5923 300.1430190 +22.5333257     559.6172     72.32214      1.613     4.85     4.861036     20.39908      54.4018        13     1.172     0.950  21.40   0
       279    931.0449    313.6138 300.3613365 +22.7426799     313.9419     72.32214      1.767     4.85     4.510404     20.39908     31.47885         5     0.979     0.681  87.99   0
       280    455.2687    313.0309 300.2132841 +22.6000608      599.732     72.28531      1.467     3.41     4.903194     20.39908     74.87382        11     1.084     0.777  44.53   0
       281    767.1002    307.8403 300.3120938 +22.6919493     1922.575     72.28532      1.347     2.51     4.704757     20.39908     278.0265        21     1.130     0.892  50.48   0
       282    575.5057    302.4146 300.2541632 +22.6330233     469.9255     72.23003      1.260     3.05     4.844603     20.39908     62.97809         9     0.899     0.727  68.27   0
       283    982.3409    300.6415 300.3815470 +22.7542993     579.2611     72.28532      1.438     2.99     4.476328     20.39908     84.25696        11     0.903     0.877 -14.83   0
       284    428.8117    292.3125 300.2117722 +22.5861839     2058.724     72.24846      1.458     2.96     4.905006     20.39908     268.9406        22     1.280     0.888  61.03   0
       285    641.1902    291.5966 300.2781317 +22.6495837     271.1307     72.11933      1.097     3.45     4.847254     20.39908     49.36242         5     0.735     0.467 -15.31   0
       286    860.5962    286.0135 300.3483228 +22.7136599     251.4465     72.15625      1.425     4.41     4.542242     20.39908     38.22637         7     0.966     0.595 -33.93   0
       287    867.9485    285.3076 300.3508444 +22.7156573     660.9124     72.35896      1.419     2.75     4.528134     20.39908     88.28448         8     0.812     0.652  48.44   0
       288    767.3372    282.7638 300.3203043 +22.6848115      203.748     72.30373      1.138     4.61     4.829086     20.39908     47.09254         7     1.013     0.596  50.20   0
       289    750.1298    283.3608 300.3147476 +22.6798321      273.062     72.26689      1.179     2.72     4.835167     20.39908     64.03837         6     0.770     0.474  -7.27   0
       290      1.6670    282.6093 300.0821076 +22.4553919     444.4811     58.20283      1.380     3.82     5.252537     20.39908     61.61772         9     1.089     0.619  87.21  24
       291    718.7866    281.8627 300.3054660 +22.6700184     216.8788     72.26689      1.183     3.90     4.849071     20.39908     32.49485         6     0.767     0.569  46.74   0
       292    829.2101    276.6849 300.3415638 +22.7015839     293.0937     72.26689      1.613     4.56     4.714224     20.39908     26.99289         6     0.993     0.594  65.52   0
       293    504.7166    271.7817 300.2420604 +22.6030212     1119.833     72.24846      1.336     2.07     4.858315     20.39908     189.8935        14     0.904     0.810  76.74   0
       294    311.4486    271.5154 300.1820029 +22.5450504     246.4781     72.28532      1.482     4.20     4.940581     20.39908     30.69083         5     1.014     0.497 -88.66   0
       295   1016.6247    267.6930 300.4029341 +22.7550804     418.4215     72.24846      1.755     3.59      4.32071     20.39908     50.40406         7     0.971     0.548 -64.61   0
       296    910.2147    264.8180 300.3706728 +22.7224142     229.4929     72.28531      1.652     4.41      4.55439     20.39908     23.44383         5     0.775     0.715  47.88   0
       297    887.7466    265.2316 300.3635317 +22.7158095     346.7296     72.32214      1.238     3.12     4.585404     20.39908     44.31325         5     0.902     0.353  45.10   0
       298    749.5776    263.6285 300.3209775 +22.6739943      2180.77     72.30373      1.278     2.36     4.844045     20.39908     320.8262        20     1.015     0.946  65.23   0
       299   1010.9035    257.9844 300.4042989 +22.7505761      3240.06     72.21159      1.462     2.97     4.288387     20.39908     388.2082        28     1.221     1.107  84.51   0
       300    381.9967    249.3354 300.2111465 +22.5598148      222.163     72.30373      1.394     4.64     4.889692     20.39908     28.97085         6     0.928     0.658  37.13   0
       301    457.8644    247.3199 300.2354113 +22.5819606     678.4387     72.41415      1.262     2.40     4.867447     20.39908     98.15398        10     0.938     0.621  25.20   0
       302    132.6960    241.6587 300.1361064 +22.4829129     1432.263     72.37736      1.806     2.95      4.97648     20.39908     157.3225        25     1.266     1.201 -70.50   0
       303    163.6488    241.7909 300.1456850 +22.4922270     568.2188     72.32214      1.259     2.41     4.830986     20.39908     82.40297         8     0.813     0.643  30.55   0
       304    870.4243    235.6866 300.3677150 +22.7021295      286.149     72.26689      1.192     3.83     4.731297     20.39908     36.13967         6     0.908     0.464  -0.30   0
       305    216.6298    233.8046 300.1647473 +22.5058102     602.6026     72.28531      1.659     3.23     4.863908     20.39908     64.85602        11     1.036     0.713 -46.35   0
       306   1011.9688    231.3628 300.4132677 +22.7432369     383.6917     72.30373      1.478     3.12     4.158681     20.39908     38.60934         7     0.723     0.687 -22.46   0
       307     72.0869    230.6526 300.1208402 +22.4615878     322.6864     72.34055      1.388     4.87     5.262705     20.39908     45.95644         7     1.201     0.610  12.42   0
       308    893.0980    227.4195 300.3774672 +22.7065369     436.7424     72.23003      1.535     3.92     4.684937     20.39908       53.145         6     0.984     0.489   4.45   0
       309    820.9459    225.0885 300.3557261 +22.6842748     549.1894     72.34055      1.226     2.73     4.902053     20.39908     98.43301        11     0.870     0.810  34.97   0
       310    411.7958    224.4091 300.2285049 +22.5615801     365.4773     72.13779      1.357     2.48     4.863873     20.39908     63.68771         7     0.787     0.603  28.60   0
       311    912.0098    218.4786 300.3862654 +22.7096244     319.8927     72.26689      1.360     3.76     4.648748     20.39908     36.28011         6     0.818     0.495   5.83   0
       312    919.4086    214.0995 300.3899935 +22.7105787      2011.78     72.19315      1.373     2.79     4.643165     20.39908     229.3282        21     1.145     0.939  78.17   0
       313    415.7311    206.4463 300.2355558 +22.5575981     1066.307     72.28532      1.609     2.94     4.860714     20.39908     131.1095        15     1.016     0.977  83.74   0
       314    167.8058    206.7460 300.1583440 +22.4834101     251.2643     72.28532      1.209     3.68     4.884509     20.39908     45.14548         8     1.060     0.720 -14.04   0
       315    817.7725    205.9220 300.3609537 +22.6778137     559.8274     72.32214      1.363     3.33     4.918949     20.39908     76.50029        11     0.958     0.811 -26.46   0
       316    337.8821    211.3075 300.2097560 +22.5356762     2183.418     72.45091      1.362     2.52     4.875688     20.39908     275.1832        23     1.105     1.017  62.91   0
       317     13.8490    200.0221 300.1126798 +22.4353390     451.0012     72.30373      1.780     5.29     5.298527     20.39908     41.72181         7     1.130     0.801 -44.98   0
       318    232.7230    198.7760 300.1811126 +22.5005727     747.0545     72.32214      1.452     2.95     4.838273     20.39908     82.14782        11     0.921     0.770  48.13   0
       319    770.4745    195.5406 300.3495771 +22.6606733     1655.952     72.35896      1.259     2.25     4.921068     20.39908     237.6512        18     1.046     0.860  65.11   0
       320    835.0463    194.9492 300.3698981 +22.6798275     495.8392     72.34055      1.317     3.32     4.898728     20.39908     67.13195        10     1.050     0.749  51.22   0
       321    253.8515    191.8246 300.1899374 +22.5049064     548.4321     72.32214      1.305     2.67     4.823129     20.39908     85.80078        11     0.916     0.768  34.65   0
       322    543.5128    188.0154 300.2813112 +22.5905681     285.3059     72.24846      1.186     2.62     4.857389     20.39908     46.56118         6     0.765     0.496 -84.19   0
       323    774.5984    187.0997 300.3536002 +22.6594805     784.3397      72.1747      1.359     2.35     4.932105     20.39908     97.26068        10     0.867     0.662  28.29   0
       324    695.0198    186.2777 300.3290669 +22.6354259     1241.646     72.30373      1.306     2.52     4.984468     20.39908     156.9639        17     1.016     0.987 -47.59   0
       325    516.2399    183.3018 300.2743481 +22.5810471     409.6217     72.30373      1.297     2.16     4.857389     20.39908     54.99162         5     0.693     0.448  11.12   0
       326    890.6497    177.6080 300.3928602 +22.6914782     1517.922     72.30373      1.407     2.59     4.848277     20.39908     191.1215        20     1.181     0.997  54.99   0
       327    621.1249    177.9853 300.3087352 +22.6109218     941.5523     72.30373      1.325     2.44     4.960642     20.39908     139.7681        12     0.883     0.801  11.70   0
       328    902.3694    176.9551 300.3967269 +22.6947969     809.7275     72.34055      1.319     2.66     4.836185     20.39908      102.311        12     0.869     0.843   0.56   0
       329    949.1731    176.0608 300.4116149 +22.7085424     320.5474     72.30373      1.256     3.88     4.623734     20.39908     37.42899         5     0.828     0.520 -40.50   0
       330   1019.3005    166.9154 300.4364591 +22.7268894     1207.408     72.46929      1.555     3.85     3.975196     20.39908      119.061        20     1.249     1.063  69.59  16
       331     42.8029    163.9926 300.1333590 +22.4336739     516.3519     72.11933      1.626     4.57     5.298527     20.39908     53.21862         9     1.044     0.844  -9.53   0
       332    253.2250    160.0479 300.2000473 +22.4955917     781.9772     72.30373      1.447     3.36     4.782468     20.39908     92.11539        11     0.974     0.821  87.25   0
       333    136.1287    159.3362 300.1638715 +22.4603041     332.9321     72.34055      1.387     3.36     5.078022     20.39908     37.06593         5     0.758     0.433  17.77   0
       334    115.0878    154.8475 300.1587871 +22.4527103     2280.544     72.28531      1.520     2.92     5.183274     20.39908     246.0084        26     1.315     1.033  56.56   0
       335    938.3199    151.8257 300.4160890 +22.6983240     809.3037     72.28532      1.534     2.71     4.814237     20.39908     99.02849        13     0.942     0.856 -57.23   0
       336     65.1019    151.5499 300.1443223 +22.4367843     518.9709     72.37736      1.432     3.76     5.262849     20.39908     53.99854         9     1.021     0.661 -30.33   0
       337    272.5588    148.1956 300.2099034 +22.4979790     5637.225     72.32214      1.418     2.54     4.792052     20.39908     656.8536        35     1.271     1.059  63.05   0
       338     56.7294    142.6852 300.1445949 +22.4317300     1174.374     72.41415      1.510     3.43     5.226289     20.39908     161.5583        17     1.130     0.955  22.77   0
       339    256.0254    138.9413 300.2077620 +22.4903680     609.3626     72.30373      1.325     3.14     4.822261     20.39908      75.2797        11     0.994     0.761  20.80   0
       340    916.6732    129.8295 300.4164701 +22.6855206     3736.243     72.32214      1.467     2.85     4.936549     20.39908     433.1196        29     1.230     1.052  70.41   0
       341   1020.3638    128.6331 300.4492052 +22.7161927     2779.492     70.79627      1.540     2.73     4.393135     20.39908     345.5942        30     1.240     1.122 -79.64  16
       342    466.2516    124.8330 300.2777457 +22.5492759     553.5771     72.32214      1.266     3.13     4.857389     20.39908     80.13854        13     0.977     0.884 -49.77   0
       343    580.5005    122.6786 300.3140165 +22.5828619     325.3883     72.43253      1.627     3.73     4.928548     20.39908     48.72304         5     0.979     0.447  75.13   0
       344    390.0702    116.9915 300.2565782 +22.5242102      624.268     72.28531      1.525     2.93     4.859174     20.39908     61.27306        10     0.870     0.733  11.10   2
       345    394.1998    115.6697 300.2582918 +22.5250671     467.3582     72.23003      1.722     3.22      4.85891     20.39908     44.73105         7     0.775     0.701  32.96   2
       346    156.2262    113.9033 300.1848493 +22.4532784     844.4454     72.26689      2.115     3.13     5.007598     20.39908     91.74297        14     1.112     0.909  -5.76   0
       347    517.4175    112.4214 300.2976985 +22.5610282     1653.668     72.28532      1.253     2.29     4.857389     20.39908     214.3296        17     0.932     0.905 -88.28   0
       348    445.4671    112.9547 300.2751273 +22.5396388     570.8954     72.30373      1.368     2.76     4.857389     20.39908      59.8279         8     0.789     0.675  -7.89   0
       349    579.2632    111.4553 300.3172700 +22.5792653      279.282     72.35896      1.218     3.23     4.924595     20.39908     45.78195         7     0.903     0.527  52.15   0
       350    260.9303    107.8577 300.2193652 +22.4829082     337.0559     72.32214      1.303     3.42     4.878708     20.39908     47.63002         7     0.944     0.615 -86.06   0
       351    805.9646    102.0030 300.3909718 +22.6443944     407.1481     72.30373      1.362     3.73     4.986047     20.39908     48.94587         5     0.678     0.591   0.06   0
       352    162.9367     97.7257 300.1921799 +22.4506425     260.0512     72.34055      1.008     2.52     5.015514     20.39908     42.67909         5     0.759     0.485 -58.38   0
       353    951.6704     96.9265 300.4380544 +22.6865236     325.4653     72.37736      1.318     3.08     4.949943     20.39908     52.18291         5     0.779     0.574  10.36   0
       354    291.5717     92.0760 300.2340116 +22.4875522     6024.595     72.30373      1.437     2.60     4.874224     20.39908     707.2927        35     1.274     1.067  71.20   0
       355    797.8629     92.9425 300.3913837 +22.6393643     402.6848     72.35896      1.527     2.92     5.011437     20.39908      48.3383         5     0.771     0.492 -24.09   0
       356    142.6323     91.4867 300.1878906 +22.4427675     809.3798     72.28532      1.645     3.46     5.028982     20.39908      88.4696        16     1.088     1.003 -39.67   0
       357    921.3058     90.0047 300.4308272 +22.6754494     390.3182     72.19315      1.417     3.84     4.996972     20.39908     42.34464         5     1.008     0.420 -21.22   0
       358    263.5611     85.7253 300.2273582 +22.4773380     376.1285     72.26689      1.543     4.09     4.911241     20.39908     47.48687         6     1.043     0.459 -57.47   0
       359    307.2835     83.7507 300.2415976 +22.4898660     341.0398     72.28532      1.495     3.07     4.878912     20.39908     46.59534         5     0.886     0.423   6.73   0
       360     53.5186     82.7094 300.1630407 +22.4135465       477.22     72.41415      1.502     4.37     4.994886     20.39908     46.85575         8     1.017     0.620 -51.87   0
       361    537.5743     77.4523 300.3153112 +22.5570108     6177.469     72.32214      1.351     2.35     4.671575     20.39908     862.5178        35     1.234     1.044  56.33   0
       362    422.9114     77.2600 300.2796788 +22.5226267     650.1905     72.37736      1.450     3.43     4.649972     20.39908     78.04842        10     0.980     0.728 -85.62   0
       363    594.5006     72.4678 300.3346549 +22.5726179     338.5591     72.39576      1.578     4.29     4.846908     20.39908     39.43333         6     1.139     0.460 -44.97   0
       364    291.2591     71.5839 300.2405570 +22.4815710     250.7864     72.26689      1.074     3.41     4.896053     20.39908     31.71203         5     0.726     0.464 -17.25   0
       365    731.5292     68.9571 300.3784840 +22.6126177     425.5817     72.26689      1.374     2.85     5.123914     20.39908     48.03132         8     0.798     0.679  -1.22   0
       366    789.9053     67.3982 300.3971841 +22.6296363     758.7865     72.21159      1.346     2.85     5.156711     20.39908     89.31104         9     0.964     0.608  29.87   0
       367    882.8140     66.4025 300.4264742 +22.6571450     412.0953     72.13779      1.222     2.87     5.040112     20.39908     62.77695         6     0.766     0.606 -30.99   0
       368    230.3809     61.3182 300.2249511 +22.4603879     529.3816     72.28532      1.314     3.43     4.991605     20.39908     53.51464         9     0.979     0.715 -74.36   0
       369    589.1066     60.2707 300.3369286 +22.5674967      512.869     72.43253      1.440     2.29      4.76133     20.39908     75.74739         9     0.853     0.641 -66.90   0
       370    665.9697     57.5655 300.3617485 +22.5897232     6202.333     72.32214      1.385     2.46     4.865623     20.39908     929.2926        33     1.258     1.008  72.25   0
       371    440.7934     56.4800 300.2919801 +22.5220085     1552.019     72.23003      1.482     2.96     4.432185     20.39908     185.9146        19     1.164     0.957  63.13   0
       372    707.1390     55.1375 300.3753631 +22.6013449     812.5531     72.34055      1.254     2.65     5.050959     20.39908      121.306        13     1.006     0.739  89.34   0
       373    777.0056     52.5146 300.3979876 +22.6214957     361.3018     72.23003      1.296     2.61     5.234933     20.39908      39.8371         6     0.760     0.494   7.31   0
       374    723.2565     50.9542 300.3817416 +22.6049647     497.6746     72.34055      1.325     2.75     5.157558     20.39908     82.55699        10     0.868     0.777 -32.96   0
       375     36.8825     49.5788 300.1686101 +22.3990479      393.534     72.26689      1.643     4.52     4.831198     20.39908     36.49993         6     1.005     0.578 -69.31   0
       376    993.0619     48.8263 300.4665601 +22.6850628     495.9441     72.30373      1.258     2.43     4.968801     20.39908     100.6851        10     0.955     0.683  -3.13   0
       377    189.7095     48.8147 300.2163574 +22.4446135     639.0317     72.23003      1.444     3.58     5.018778     20.39908      93.2434        11     1.154     0.836  60.04   0
       378    761.6878     46.8381 300.3950531 +22.6152800     423.3438     72.28532      1.095     2.07      5.26843     20.39908     79.53906         8     0.735     0.646 -39.38   0
       379    247.7905     47.5639 300.2348231 +22.4616510     333.1632     72.30373      1.774     4.12     4.985137     20.39908     32.42608         7     1.024     0.474  -9.29   0
       380    725.0145     41.2449 300.3854365 +22.6026983     951.6174     72.32214      1.922     4.75      5.21056     20.39908     100.0171        17     1.595     0.732  49.55   0
       381    710.2228     42.3716 300.3804619 +22.5985963     2794.977     72.30373      1.423     2.72     5.094182     20.39908     368.6145        27     1.218     1.025  74.86   0
       382    350.8782     43.2521 300.2682869 +22.4912843     416.3044     72.30373      1.295     2.31     4.885325     20.39908     58.81108         8     0.801     0.621  51.98   0
       383      3.6503     36.7655 300.1624382 +22.3854109     881.5118     67.58224      1.642     3.26     4.639564     20.39908     107.0246        15     1.143     0.819 -40.69  16
       384    796.5991     33.9659 300.4101074 +22.6220223     1503.823     72.26689      1.343     2.68     5.341908     20.39908     182.8938        18     1.096     0.878  72.57   0
       385    956.8359     32.8058 300.4604514 +22.6696188     260.2448     72.34055      1.145     3.01     5.028728     20.39908     48.58135         5     0.921     0.339 -43.98   0
       386    734.6198     27.2141 300.3929775 +22.6015369     695.3035     72.26689      1.277     3.43     5.362538     20.39908     89.51982        12     0.987     0.822 -76.82   0
       387    540.2751     26.6295 300.3326254 +22.5432087     1160.169     72.32214      1.379     2.13     4.209693     20.39908     165.7423        14     0.893     0.846  83.23   0
       388    112.9412     26.0494 300.1998713 +22.4150777     619.6055     72.35896      1.824     5.78     5.016156     20.39908     64.37503        11     1.395     0.810  56.43   0
       389    444.1059     24.8103 300.3032756 +22.5138975     883.3079     72.24846      1.278     2.43     4.110689     20.39908     114.9891        11     0.830     0.779 -40.56   0
       390    826.1684     23.5570 300.4226993 +22.6278740     313.9674     72.35896      1.049     2.89     5.292344     20.39908     50.97914         8     0.815     0.676  44.49   0
       391    248.2355   1015.0066 299.9207688 +22.7394288     2479.117     72.32214      6.778    28.59     74.60445     20.39908     76.65919       208     5.762     3.938 -12.38  19
       392    275.9875   1011.1135 299.9306651 +22.7466413     2488.703     72.24846      5.723    21.25     55.80764     20.39908     86.12774       119     5.147     2.436   3.59  19
       393      7.9682     14.6580 300.1709439 +22.3803562     524.4798     72.32214      2.091     3.94     4.521616     20.39908     34.06264         6     1.032     0.430 -12.32  16
       394    244.1578    997.4938 299.9251997 +22.7331846     4192.756     72.32214      7.245    20.86     63.64993     20.39908     81.78432       256     4.927     4.421  89.37  19
       395    264.3518    995.8523 299.9320129 +22.7387743     5525.488     72.34055      9.379    28.11     53.13824     20.39908     101.9142       488     6.568     5.730 -42.51  19
       396    282.1885    984.7567 299.9411699 +22.7409457     7934.537     72.30373      8.888    34.70     38.43864     20.39908      172.937       797    11.558     4.850  64.28  19
       397    216.8936   1009.1765 299.9129216 +22.7283511     2899.951     72.23003      5.254    19.83     83.12868     20.39908     68.25936       115     4.384     2.492  13.54  18
       398    217.2034   1002.1195 299.9153143 +22.7264212     1712.419     72.21159      4.555    13.92     77.24055     20.39908     57.40839        42     2.936     1.836 -52.07   3
       399    531.3634   1012.1106 300.0097986 +22.8235455     359.1265     72.28531      1.695     3.53      2.79045     20.39908     35.09934         5     0.801     0.449  74.83   0
       400    399.8213   1007.8135 299.9702576 +22.7828526      676.832     72.28531      2.349     4.86     3.917218     20.39908     43.93527         6     1.425     0.515  73.70   0
