#   1 NUMBER                 Running object number                                     
#   2 X_IMAGE                Object position along x                                    [pixel]
#   3 Y_IMAGE                Object position along y                                    [pixel]
#   4 ALPHA_J2000            Right ascension of barycenter (J2000)                      [deg]
#   5 DELTA_J2000            Declination of barycenter (J2000)                          [deg]
#   6 FLUX_APER              Flux vector within fixed circular aperture(s)              [count]
#   7 FLUXERR_APER           RMS error vector for aperture flux(es)                     [count]
#   8 FLUX_RADIUS            Fraction-of-light radii                                    [pixel]
#   9 FWHM_IMAGE             FWHM assuming a gaussian core                              [pixel]
#  10 BACKGROUND             Background at centroid position                            [count]
#  11 THRESHOLD              Detection threshold above background                       [count]
#  12 FLUX_MAX               Peak flux above background                                 [count]
#  13 ISOAREA_IMAGE          Isophotal area above Analysis threshold                    [pixel**2]
#  14 A_IMAGE                Profile RMS along major axis                               [pixel]
#  15 B_IMAGE                Profile RMS along minor axis                               [pixel]
#  16 THETA_IMAGE            Position angle (CCW/x)                                     [deg]
#  17 FLAGS                  Extraction flags                                          
         1    685.5938     16.2465 300.3929097 +22.6017376       801.97     72.21775      1.554     3.29     6.935401     20.36963     83.49146        13     1.038     0.860 -17.03   0
         2    491.1242     15.2290 300.3326482 +22.5432437     1087.626     72.19936      1.670     3.68     6.576703     20.36963     111.3466        21     1.293     1.060 -68.97   0
         3    395.0057     13.4415 300.3032984 +22.5139551     782.3416     72.21775      1.450     3.33     6.563676     20.36963     87.97821        12     1.054     0.845  11.98   0
         4    734.4745      4.2387 300.4120380 +22.6129109     639.8983     69.51987      1.585     4.86     7.162591     20.36963     56.65417        13     1.174     1.026 -54.34  16
         5    166.4356      3.3354 300.2354515 +22.4426044     3614.303     66.17342      1.669     3.12     6.565079     20.36963     365.2911        35     1.375     1.216   5.41  24
         6    492.0529      1.4052 300.3374160 +22.5395494     264.4308      56.6144      1.234     4.31     6.694387     20.36963     51.50889         7     1.160     0.456  -9.85  24
         7    157.4606    997.1662 299.9100417 +22.7249654     1042.056     72.21775      2.489     9.42     81.75586     20.36963     50.40507        21     1.799     1.378  -6.62   3
         8     79.7497   1010.3978 299.8815794 +22.7054281     5338.934     72.18097     19.194   118.03     74.15299     20.36963     159.0556      2549    21.336    18.116 -36.24  27
         9     70.8910    946.2033 299.8997060 +22.6843801     5772.262     72.10735     33.817     8.45     21.34488     20.36963      1329.68      5357    24.056    17.540 -51.78  27
        10    126.6236   1007.7135 299.8970234 +22.7187306     1258.508     72.14417      3.271    11.56      92.4731     20.36963     42.11485        29     2.180     1.706 -30.85   2
        11    224.4792   1000.1594 299.9299088 +22.7459378     518.2231     72.18097      1.647     6.10     82.75173     20.36963     56.88715        12     1.389     0.753  79.98   0
        12      2.6030   1000.5914 299.8607950 +22.6794576      1582.75     62.79665      3.958    11.81     -19.3217     20.36963     51.98267        39     3.906     0.995  77.98  27
        13    646.6059    953.5548 300.0764802 +22.8592064     7032.412     72.19936      2.047     4.67     4.550438     20.36963     368.2796        56     1.681     1.549  32.07   0
        14    541.7066    991.1718 300.0315648 +22.8385370     2392.184     72.10735      2.175     5.59     4.439355     20.36963     126.9088        35     1.582     1.471 -22.10   0
        15    168.2642   1005.4721 299.9106990 +22.7305877      1041.24     72.23614      4.286    15.56     88.69456     20.36963      46.4931        32     4.084     1.648 -11.68  19
        16    238.6131    947.7825 299.9513413 +22.7351706     203.6246     72.14417      1.297     3.39     25.28878     20.36963     37.99535         5     0.778     0.427  68.93   0
        17    555.0040    944.3978 300.0509212 +22.8291122      1640.06     71.99679      1.964     5.11     4.480368     20.36963     87.54793        27     1.427     1.289  23.01   0
        18    202.8218   1001.0942 299.9228693 +22.7397057     595.7457     72.12577      4.417     5.33     84.25823     20.36963     39.19296         5     1.285     0.625 -25.58   1
        19    448.8968    940.7623 300.0190616 +22.7962463     961.5261     72.19936      1.952     5.50     4.943759     20.36963      76.7271        22     1.409     1.244  21.18   0
        20    379.5104    938.5854 299.9981709 +22.7748085     6505.992     72.14417      2.010     4.42     5.236866     20.36963     404.2526        50     1.566     1.507  -3.09   0
        21    155.9621    940.9805 299.9278504 +22.7084179       584.67     72.21775      3.958     4.59     31.60341     20.36963     33.70422         5     1.206     0.496 -69.81   0
        22    142.3200   1008.9838 299.9014900 +22.7238062     189.6347     72.21775      1.286     4.83     92.95339     20.36963       37.405         5     1.458     0.454 -85.53   0
        23    350.6300    998.2727 299.9697685 +22.7832527     453.7633     72.19936      1.872     5.04     5.425058     20.36963     31.69006         7     0.993     0.722 -72.88   0
        24    195.1562    985.5637 299.9255373 +22.7329553     3815.438     72.25452      7.520    22.44     70.22494     20.36963     82.42531       255     4.980     4.854  25.58   3
        25    412.2107    925.6620 300.0125521 +22.7809128     530.0051     72.14417      1.991     5.83     5.090036     20.36963     34.35897        10     1.144     0.836 -28.89   0
        26    925.8978    917.7859 300.1751951 +22.9326582     2200.928     72.08894      2.181     5.23     4.956313     20.36963     111.1404        36     1.553     1.462 -36.87   0
        27    714.6855    907.1402 300.1127928 +22.8663021     766.8482     72.30962      2.165     6.63     4.846159     20.36963     47.68678        14     1.277     1.033  27.81   0
        28    214.6332    983.7034 299.9321996 +22.7382677     4564.685     72.18097      7.987    27.89     67.22243     20.36963     88.02779       356     6.329     4.614 -54.36   3
        29    206.3569    902.8116 299.9559336 +22.7126036     706.0732     72.19936      6.710     6.75     11.65615     20.36963     27.35389        10     1.739     0.734  30.78   0
        30    749.4634    900.7106 300.1257247 +22.8748821     943.4327     72.29126      1.834     5.69     4.859937     20.36963     69.84006        22     1.307     1.263 -64.91   0
        31    526.4258    900.4200 300.0563227 +22.8079302     383.7534     72.19936      1.836     6.37      4.78857     20.36963     29.28795         8     1.302     0.874  83.76   0
        32    771.7305    894.3206 300.1347447 +22.8797228     11517.75     72.30962      1.975     4.67     4.854574     20.36963     628.1895        60     1.599     1.531  39.54   0
        33    817.8654    894.8307 300.1489640 +22.8936962     531.9045     72.19936      1.973     6.98     4.820804     20.36963     32.14518        13     1.357     1.006 -58.43   0
        34    628.4375    986.5439 300.0600882 +22.8632201     9209.278     72.19936      2.211     5.17      4.42939     20.36963     425.9972        54     1.758     1.534  19.60   3
        35    232.6859    972.9363 299.9413165 +22.7406001     7229.246     72.29126      8.251    32.27     49.50388     20.36963      153.888       688    10.248     4.867  63.40  18
        36    634.0043    984.4695 300.0624975 +22.8642945     9648.511     72.16257      2.154     5.53     4.439286     20.36963     486.7732        55     1.697     1.601  31.10   3
        37    962.8895    894.4722 300.1943190 +22.9370497     398.8887     72.36469      1.974     4.88     5.037585     20.36963      32.3025         6     1.117     0.604 -27.44   0
        38    728.6631    987.8589 300.0908948 +22.8936488     605.9574     72.23614      2.155     7.26     4.312869     20.36963     43.89371        10     1.464     1.008  29.46   0
        39    166.2800    998.7925 299.9122549 +22.7280785     1193.448     72.12577      3.853     8.43     83.35754     20.36963      74.4912        20     1.963     1.080 -53.78   3
        40    159.2186    969.0690 299.9197276 +22.7174432     1480.775     72.19936     11.631    12.75     56.82533     20.36963     43.64404        34     3.654     1.238  75.34   3
        41     83.0156    886.1369 299.9230067 +22.6708106     1279.324     72.18097      8.872     7.87     7.987972     20.36963     71.50207        26     1.841     1.504 -39.33   1
        42    162.0851    977.4131 299.9179049 +22.7206942     1930.941     72.14417      3.702    11.82     63.93868     20.36963      58.8606        42     2.451     1.587 -12.15   3
        43    823.2921    883.1043 300.1544696 +22.8919573     337.1466     72.38303      1.490     5.35     4.889609     20.36963     28.12778         8     1.337     0.604   2.54   0
        44    477.0448    882.6092 300.0467368 +22.7880137     453.8004     72.21775      1.706     4.35     5.016695     20.36963     45.91979         8     1.031     0.934   3.67   0
        45    780.4231    876.3976 300.1432832 +22.8771850     1477.757     72.14417      1.866     4.76     4.916521     20.36963     90.02693        22     1.276     1.173  46.68   0
        46     74.1801    877.3049 299.9231320 +22.6656283     688.6356     72.10735      2.790     4.22     6.903463     20.36963     46.20982         5     0.931     0.546 -48.66   0
        47    963.7363    875.7392 300.2006750 +22.9319257     417.3469     72.23614      2.022     7.08     4.996604     20.36963     26.88247        11     1.815     0.774 -14.36   0
        48    170.3237    998.1350 299.9137261 +22.7291038     2200.136     72.29126      4.288    15.21     82.34425     20.36963      60.5329        50     3.049     2.111  14.75   3
        49    633.1861    873.7993 300.0982362 +22.8323051     335.3151     72.03366      1.486     3.97      4.89761     20.36963     33.82262         6     1.096     0.411  61.05   0
        50    818.0251    869.8499 300.1571371 +22.8865750     866.3433     72.21775      2.334     7.61     4.950412     20.36963     57.25117        21     1.550     1.222  73.34   0
        51    926.5032    867.1132 300.1918628 +22.9182944     370.1797     72.38303      1.715     5.49     4.973476     20.36963     35.23703         6     1.070     0.793 -32.69   0
        52    346.4008    865.3164 300.0116923 +22.7438714     1390.425     72.08894      0.782     1.18     5.227547     20.36963     430.8818         5     0.517     0.473 -52.09   0
        53    866.5341    861.6835 300.1749211 +22.8987675     618.4739     72.30962      1.962     4.47     5.085923     20.36963     50.08897        11     1.130     0.826  34.27   0
        54    718.2943    860.3824 300.1291223 +22.8539682     729.3565     72.12577      1.992     4.97     4.984651     20.36963     56.40204        15     1.313     0.951  10.25   0
        55    729.6267    857.4688 300.1336021 +22.8565288     566.3336     72.18097      1.888     5.77     4.994646     20.36963     41.37653         9     1.154     0.811 -29.59   0
        56    430.6675    856.3393 300.0408391 +22.7665719     4165.098     72.23614      1.843     4.01     5.079481     20.36963      283.639        37     1.429     1.360  57.92   0
        57    156.2282    842.4355 299.9599750 +22.6802586     770.1141     72.21775      1.788     5.46     8.472478     20.36963     62.96073        18     1.314     1.193  -3.85   0
        58    165.1493    994.8367 299.9131901 +22.7266058      2478.58     72.19936      6.129    20.30     79.81233     20.36963     70.78619        94     5.895     1.942 -57.94  19
        59    194.1091   1001.8372 299.9199181 +22.7373036     1490.935     72.18097      3.681    12.23     85.42112     20.36963     45.14354        40     2.746     1.515  23.23   0
        60    133.0486    838.8642 299.9539290 +22.6722796     1606.259     72.21775      2.108     5.33     7.431191     20.36963     110.8345        30     1.627     1.327  19.09   0
        61     64.9839    839.2993 299.9326293 +22.6519786     485.6158     72.10735      2.296     6.21      5.81822     20.36963     38.57801         9     1.436     0.755  60.28   0
        62   1005.0151    828.4669 300.2289274 +22.9307192     2058.565     72.18097      2.021     5.32     4.955374     20.36963     125.0777        32     1.475     1.414  81.05   0
        63    959.3932    826.8849 300.2152047 +22.9165989     2200.375     72.12577      1.974     4.69     5.013937     20.36963     143.1701        32     1.486     1.338  36.67   0
        64    664.4093    827.2924 300.1230864 +22.8283222     381.3168     72.12577      1.794     5.21     4.933938     20.36963     31.98282         7     1.040     0.738 -38.05   0
        65    435.3105    825.9877 300.0521519 +22.7592605     204.3062     72.14417      1.382     5.23     5.137528     20.36963     25.24018         7     1.059     0.731  13.96   0
        66    742.4875    820.8961 300.1495016 +22.8498885     621.8185     72.38303      1.949     6.09     4.958206     20.36963     45.19379        14     1.267     1.004   4.62   0
        67    610.7587    814.5639 300.1105069 +22.8085880     4905.057     72.27289      1.788     3.98     4.998199     20.36963     343.0349        37     1.387     1.324 -26.57   0
        68    146.9583   1007.8799 299.9032912 +22.7248822     408.1329     72.18097      1.670     4.93     91.88245     20.36963     27.80446         5     1.483     0.464  72.53   0
        69    413.0593    811.4516 300.0499503 +22.7484190     596.5026     72.25452      1.765     6.63     5.098446     20.36963     50.46111        12     1.143     1.079  66.80   0
        70    679.9595    809.4304 300.1337391 +22.8278579     1090.987     72.19936      0.648     0.79     4.921741     20.36963     561.0855         6     0.495     0.384  87.82   0
        71    160.9506    808.0607 299.9726173 +22.6718234      1341.37     72.25452      1.979     4.31     6.362192     20.36963     101.2908        25     1.393     1.264   6.77   0
        72    631.6972    807.3401 300.1193790 +22.8127920     679.9821     72.27289      1.700     3.77     4.974948     20.36963     73.84942        13     1.174     0.794   1.34   0
        73    179.4126    805.3022 299.9792548 +22.6765720     389.4897     72.08894      2.093     5.96     6.092031     20.36963     28.46103         6     1.503     0.665 -13.66   0
        74   1003.8678    795.0934 300.2394189 +22.9207925      1196.42     72.34634      1.958     5.33      4.99592     20.36963     72.38026        22     1.391     1.076  32.61   0
        75    786.8660    794.3644 300.1719623 +22.8555730     4237.311     72.19936      1.852     4.08     4.964918     20.36963     273.8824        39     1.412     1.360 -87.04   0
        76    196.1669    788.6378 299.9898814 +22.6768217     379.7166     72.23614      1.404     3.02     5.871096     20.36963     53.04705         5     0.937     0.366  85.32   0
        77    503.7265    786.6594 300.0862382 +22.7684952     520.5931     72.23614      1.536     5.43     5.420818     20.36963     52.25824        14     1.204     0.985 -85.27   0
        78    149.8150    784.4695 299.9768225 +22.6617206     1117.067     72.21775      2.092     5.72     5.823241     20.36963     87.73745        22     1.571     1.232  19.12   0
        79    565.4238    780.2288 300.1075444 +22.7851472     511.4141     72.19936      1.668     5.06     5.249802     20.36963     46.27135        14     1.164     0.959  -1.32   0
        80    299.8240    776.7070 300.0260031 +22.7044952     53614.62     72.12577      1.839     3.98     5.816362     20.36963     4422.118       100     1.595     1.536  19.28   0
        81    970.6360    775.4833 300.2354225 +22.9052079     1023.093     72.18097      1.988     6.29      5.18782     20.36963      63.8254        19     1.432     1.071  35.37   0
        82    557.7847    775.8372 300.1065923 +22.7815972     1609.099     72.19936      1.719     3.96     5.293894     20.36963     122.5865        26     1.263     1.217 -27.50   0
        83    228.1371    774.8086 300.0043192 +22.6824481     565.1049     72.14417      2.092     6.32     5.874026     20.36963     48.02614         9     1.479     0.759 -18.69   0
        84    587.0562    771.9840 300.1169630 +22.7892665      935.996     72.18097      1.674     4.18     5.156942     20.36963     75.66534        16     1.105     1.063  37.70   0
        85    597.4960    770.6859 300.1206373 +22.7920234     512.8442     72.38303      1.506     4.42      5.10773     20.36963     60.89854        11     1.177     0.716 -22.90   0
        86    917.6276    768.2001 300.2212503 +22.8872385     277.2408     72.14417      1.955     4.41     5.257863     20.36963     25.59822         5     1.135     0.487 -32.80   0
        87    702.6187    767.0484 300.1545774 +22.8224869      443.142     72.23614      1.735     6.02     4.968861     20.36963      46.8206         9     1.116     0.914   4.13   0
        88    740.8875    756.9262 300.1697962 +22.8310499      768.925     72.34634      1.664     4.95     5.045581     20.36963     62.20752        18     1.314     1.024  30.13   0
        89    349.6037    753.9506 300.0488887 +22.7128994     31835.29     72.19936      1.790     3.71     5.629887     20.36963     2527.601        82     1.546     1.484  18.61   0
        90    363.9413    754.5967 300.0531409 +22.7173843     2024.656     72.16257      1.741     3.55     5.583737     20.36963     198.9191        27     1.261     1.214 -38.11   0
        91    872.7754    750.2801 300.2130829 +22.8686574     2756.685     72.18097      1.802     4.08     5.341826     20.36963     180.6197        32     1.436     1.237  73.24   0
        92    361.3735    748.3596 300.0543686 +22.7148256     559.9141     72.25452      1.566     3.87     5.599858     20.36963     63.13706        10     1.035     0.805  75.45   3
        93    358.3529    748.3766 300.0534230 +22.7139246      442.361     72.21775      2.391     3.83     5.606923     20.36963     39.19289         5     0.953     0.442 -40.32   3
        94    630.4250    746.0098 300.1389166 +22.7948129     954.7424     72.19936      1.864     4.47     5.029243     20.36963     81.50744        14     1.212     0.839   6.21   0
        95    467.2535    746.0497 300.0880792 +22.7459110     458.3566     72.23614      1.553     2.92     5.475579     20.36963     47.51492         8     0.900     0.618  29.40   0
        96    232.3901    745.9083 300.0150341 +22.6754382     682.1512     72.14417      1.612     4.07     5.861069     20.36963     63.60728        15     1.272     0.876 -18.00   0
        97    477.7544    740.8076 300.0930524 +22.7475555     778.7131     72.21775      1.537     4.69     5.475703     20.36963     74.51216        16     1.267     0.979  45.45   0
        98     37.1861    741.1159 299.9559000 +22.6155010     638.7652     72.16257      1.655     4.70     5.508312     20.36963     61.47939         9     1.230     0.510  55.04   0
        99    878.6003    737.5459 300.2190384 +22.8667462     610.8196     72.12577      1.862     6.38      5.38612     20.36963        43.55        12     1.185     0.964  10.16   0
       100    380.5986    737.6734 300.0638248 +22.7175259     448.1961     72.08894      1.853     4.48     5.585688     20.36963      46.6951         5     1.061     0.538  31.68   0
       101    423.4723    735.7124 300.0778077 +22.7298191     523.0613     72.34634      1.812     5.57     5.544523     20.36963     40.25434         9     1.149     0.762  33.73   0
       102     65.1243    735.4075 299.9664380 +22.6222481     714.8652     72.14417      2.357     5.50     5.549198     20.36963     51.38405        12     1.632     0.925 -34.56   0
       103    632.0801    735.0295 300.1430007 +22.7921580      406.778     72.19936      1.537     5.14     5.039832     20.36963     36.72178         7     1.113     0.671  23.75   0
       104    856.5409    732.6567 300.2137467 +22.8587342     429.7385     72.27289      1.678     5.90     5.370336     20.36963     41.57463         8     1.385     0.765 -12.92   0
       105    229.7247    730.4477 300.0192289 +22.6702060     600.9141     72.19936      1.801     5.02     5.837512     20.36963     49.43998        13     1.355     0.910  10.63   0
       106    552.9849    721.0814 300.1228919 +22.7644486     552.2555     72.18097      1.745     3.35     5.428422     20.36963     46.61199         9     0.906     0.704 -21.97   0
       107    522.8337    719.0179 300.1141714 +22.7548185     707.7886     72.18097      1.674     4.26     5.478772     20.36963     67.50623        13     1.197     0.838   1.88   0
       108    544.5419    716.1712 300.1218576 +22.7605090     1372.736     72.19936      1.671     4.53     5.470153     20.36963     115.6872        23     1.373     1.132  84.75   0
       109    432.4231    718.2306 300.0862749 +22.7274883     326.2966     72.18097      1.621     4.61     5.552203     20.36963     33.92963         5     0.816     0.738 -30.33   0
       110    939.1773    715.4384 300.2451211 +22.8785430     4637.125     72.21775      1.849     3.80     5.421409     20.36963     306.0389        42     1.482     1.393  55.29   0
       111    464.4083    716.1396 300.0969127 +22.7364779     241.4858     72.18097      1.538     3.11     5.518074     20.36963     42.42281         6     0.923     0.638 -56.46   0
       112    626.6008    711.3860 300.1489764 +22.7837309     314.2472     72.03366      1.422     3.50     5.135562     20.36963     33.29599         5     1.099     0.322  20.34   0
       113    927.7886    706.9982 300.2443104 +22.8727083     1753.872     72.01523      1.975     4.00     5.422478     20.36963     120.5981        27     1.302     1.257 -22.80   0
       114    695.8566    706.8383 300.1720366 +22.8031799     342.3813     72.19936      2.016     4.54     5.110789     20.36963     29.36147         5     0.813     0.721 -54.81   0
       115    157.3459    701.5792 300.0060993 +22.6402187     351.2252     72.19936      1.431     3.33     5.703259     20.36963     38.46097         5     1.080     0.297 -69.05   0
       116    306.9944    700.8517 300.0528836 +22.6848938     202.7537     72.18097      1.399     4.71     5.753877     20.36963     29.72787         5     0.960     0.657 -30.65   0
       117    290.2938    700.4670 300.0478124 +22.6797752     890.4773     72.34634      1.673     5.00      5.80245     20.36963     74.08298        19     1.338     1.020 -16.01   0
       118    753.9601    698.0502 300.1930043 +22.8180670     2721.243     72.21775      1.848     3.67     5.233675     20.36963     179.0145        33     1.447     1.213 -31.24   0
       119    958.8495    697.0577 300.2572321 +22.8791562     1654.774     72.25452      1.869     4.06     5.446444     20.36963     116.4089        26     1.321     1.239  -4.39   0
       120    139.1881    684.5063 300.0060001 +22.6298772     634.8352     72.14417      1.956     5.22     5.663569     20.36963      64.8654        14     1.330     1.185  54.08   0
       121    836.4805    684.1327 300.2232578 +22.8387930     662.6295     72.30962      1.785     4.29     5.364084     20.36963      57.9277        13     1.140     0.936  27.81   0
       122    872.4692    675.0889 300.2374211 +22.8469761     148730.8     72.36469      1.753     3.60     5.397375     20.36963     11239.69       149     1.589     1.530 -80.94   0
       123    634.8898    679.3173 300.1619788 +22.7770116     533.5172     72.30962      1.882     4.26     5.239264     20.36963     46.94913         7     0.822     0.629 -14.65   0
       124   1019.6042    676.9877 300.2827139 +22.8915852     1194.563     72.01523      1.917     4.61     5.462375     20.36963     83.52448        22     1.284     1.230 -57.75  16
       125    724.7995    675.6270 300.1911993 +22.8028932     715.9419     72.16257      1.635     3.89     5.264511     20.36963     73.53481        16     1.176     0.982 -36.31   0
       126    905.1566    668.2357 300.2498444 +22.8547983     334.3466     72.25452      1.548     4.45     5.436404     20.36963      33.6895         6     0.924     0.609 -64.22   0
       127    558.7861    663.7640 300.1433218 +22.7497405     1529.276     72.19936      1.524     3.27     5.448167     20.36963     174.6083        19     1.102     1.016  -0.31   0
       128    739.9434    661.1314 300.2006295 +22.8032692     9449.128     72.21775      1.613     3.28     5.301654     20.36963     785.9938        48     1.350     1.308 -82.38   0
       129    241.4155    655.9523 300.0470680 +22.6523513     4943.901     72.23614      1.745     3.38     5.658803     20.36963     475.3648        40     1.367     1.336  58.51   0
       130    323.4651    654.1923 300.0731671 +22.6764507     1142.914     72.18097      1.619     3.53     5.639362     20.36963     116.1648        20     1.160     1.106  83.30   0
       131    531.6711    649.8217 300.1394053 +22.7376129     786.6572     72.21775      1.606     3.32     5.523989     20.36963     66.41227        12     0.937     0.862  25.11   0
       132    523.3436    641.8642 300.1393966 +22.7328335     3357.647     72.25452      1.594     3.10     5.544774     20.36963     341.3126        32     1.284     1.181  32.92   0
       133    513.6382    635.5732 300.1384174 +22.7281194     1465.229     72.21775      1.618     3.59     5.560914     20.36963     135.1756        18     1.119     1.008  40.98   0
       134    907.2281    633.9913 300.2616156 +22.8455840     449.7599     72.19936      1.609     5.37     5.453208     20.36963     47.91491        11     1.190     0.769  35.39   0
       135    424.3963    632.6644 300.1115744 +22.7005350      284.177     72.19936      1.642     5.33     5.594943     20.36963      31.0442         5     0.981     0.817 -84.11   0
       136    176.8965    631.7111 300.0348753 +22.6260503     616.5415     72.38303      1.596     4.58     5.616046     20.36963     56.84752        11     1.145     0.820 -26.46   0
       137    191.7460    629.9368 300.0400695 +22.6299951     698.6212     72.23614      1.547     3.42     5.611302     20.36963     80.30013        10     1.043     0.737  77.69   0
       138    960.3820    627.3266 300.2803652 +22.8595871     574.7626     72.19936      1.780     6.33     5.379973     20.36963     44.76594        13     1.152     0.975  27.61   0
       139    216.6171    627.0891 300.0487298 +22.6366373     538.6554     72.12577      1.767     5.09     5.604508     20.36963     53.73048        13     1.424     0.962 -29.82   0
       140    248.0765    626.9290 300.0585673 +22.6460254     331.8036     72.30962      1.440     3.92     5.599534     20.36963     32.03796         5     1.261     0.348  25.72   0
       141    537.5372    626.0820 300.1489438 +22.7325585     429.0763     72.29126      1.542     4.33     5.559142     20.36963     56.30397         9     1.130     0.738 -12.48   0
       142    438.5105    625.2492 300.1183771 +22.7026385     1688.023     72.19936      1.636     3.57     5.593949     20.36963     159.6807        23     1.183     1.102 -23.03   0
       143   1014.2065    623.1132 300.2985316 +22.8744930     790.6249     72.12577      1.723     4.86     5.220477     20.36963     65.43307        16     1.157     0.986  20.19   0
       144     92.2703    620.0181 300.0123610 +22.5973151     19910.32     72.23614      1.898     3.76     5.540525     20.36963     1665.148        69     1.605     1.489  18.56   0
       145     13.2115    622.1100 299.9871094 +22.5741985      722.167     72.14417      2.155     5.44     5.475363     20.36963     60.99677        10     1.273     0.656 -15.35   0
       146    559.0714    619.6110 300.1577532 +22.7371550     458.6767     72.21775      1.921     5.65     5.537582     20.36963     38.29946         8     1.069     0.842   2.75   0
       147      7.9510    613.9322 299.9881307 +22.5702762     1628.273     72.19936      0.470     1.11     5.450861     20.36963     1014.579         5     0.558     0.211  84.73   0
       148    276.6476    611.9733 300.0723131 +22.6503033     353.3483     72.21775      1.614     4.26     5.543706     20.36963     29.60838         6     0.897     0.576  -1.14   0
       149    941.2934    607.0602 300.2809919 +22.8480499      1018.07     72.29126      1.589     4.10     5.413184     20.36963       97.906        18     1.286     0.973 -19.73   0
       150     38.2727    604.1038 300.0007456 +22.5765550     1669.804     72.32798      2.209     5.23     5.470011     20.36963     107.2915        29     1.507     1.383 -79.24   0
       151    808.0101    605.0593 300.2400666 +22.8075597     554.1443     72.16257      1.603     5.02     5.367129     20.36963     52.81017        10     1.131     0.687  49.10   0
       152    523.4992    620.7933 300.1462893 +22.7268336     987.7528     72.08894      1.634     3.41      5.57655     20.36963     101.9598        16     1.096     0.979 -33.02   0
       153    487.0059    601.2211 300.1412813 +22.7102797     564.7833     72.18097      1.767     4.92     5.645014     20.36963     45.40597         8     0.938     0.732  85.32   0
       154    881.4632    599.7491 300.2647007 +22.8280336     933.5474     72.25452      2.419     3.92     5.450642     20.36963     65.40892        15     1.192     0.872  20.83   2
       155    279.2693    600.0251 300.0770092 +22.6476623     327.3387     72.19936      1.537     4.46     5.525807     20.36963     32.37835         6     0.872     0.649 -51.63   0
       156    443.6878    593.7494 300.1302197 +22.6951522     795.3358     72.21775      1.583     3.94     5.625919     20.36963     85.95994        12     1.199     0.710 -24.69   0
       157    591.1526    592.3705 300.1765948 +22.7389501     303.3695     72.21775      1.309     4.33     5.561692     20.36963     47.37422         7     0.781     0.684   0.51   0
       158    638.9363    590.8629 300.1919728 +22.7528348     516.8823     72.23614      1.586     4.57     5.524014     20.36963     45.37466         9     1.067     0.695   3.13   0
       159    609.3530    590.4838 300.1828780 +22.7438621     624.2721     72.19936      1.608     3.02     5.549406     20.36963     62.36654         9     0.892     0.709 -26.66   0
       160    487.9542    589.5339 300.1453722 +22.7072100     1043.348     72.19936      1.782     4.12     5.691226     20.36963     107.7565        20     1.380     1.018  26.71   0
       161    453.2425    584.8398 300.1360880 +22.6954594     1610.692     72.29126      1.510     3.03     5.662752     20.36963     193.2487        21     1.126     1.049  37.19   0
       162   1019.2842    583.4066 300.3130136 +22.8646058      797.295     72.12577      1.941     4.60     5.160887     20.36963     62.37108        15     1.137     1.022 -42.75  16
       163    818.2928    582.6455 300.2505530 +22.8042029      423.305     72.21775      1.723     4.78     5.373509     20.36963     50.15641         8     1.059     0.706  34.65   0
       164     15.0011    578.1311 300.0019476 +22.5621282     4990.214     72.14417      1.984     3.90     5.448332     20.36963     416.1151        42     1.536     1.410  27.42   0
       165    961.0907    574.5210 300.2977379 +22.8446305     397.2958     72.34634      1.697     4.81     5.303491     20.36963     42.87469         8     1.064     0.903 -45.13   0
       166    921.4684    585.1935 300.2819086 +22.8358325     3255.136     72.16257      1.672     3.35      5.40531     20.36963      257.291        31     1.298     1.234 -20.96   0
       167    273.6879    575.3703 300.0832794 +22.6389169     267.3327     72.19936      1.093     4.83     5.512337     20.36963     31.83656         6     1.170     0.565  27.40   0
       168    316.5782    571.4647 300.0978927 +22.6506556     9281.786     72.18097      1.650     3.25     5.509933     20.36963     941.8134        41     1.351     1.237  51.30   0
       169     77.7873    570.8433 300.0238282 +22.5788719     276.5664     72.18097      1.656     4.67     5.500779     20.36963     39.78359         5     0.884     0.701 -13.95   0
       170    439.0134    568.5971 300.1369326 +22.6865338     9045.973     72.03366      1.537     2.94     5.657768     20.36963     922.2722        43     1.301     1.222  51.88   0
       171    204.3972    565.9943 300.0647699 +22.6154514     199.2298     72.01523      1.063     4.41     5.537089     20.36963     46.23737         5     1.179     0.471  60.31   0
       172    850.8207    562.7651 300.2671541 +22.8082348     1920.838     72.21775      1.632     3.39     5.380681     20.36963     166.2182        23     1.251     1.075  62.47   0
       173    684.7145    565.0067 300.2146362 +22.7591266     179.6952     72.12577      1.288     4.13     5.571424     20.36963     35.54303         7     1.145     0.425  31.70   0
       174    935.5139    560.2206 300.2944012 +22.8328644     12682.66     72.12577      1.729     3.42     5.329054     20.36963     1058.385        55     1.442     1.384  80.85   0
       175    499.6837    558.2162 300.1591951 +22.7017376     11776.51     72.16257      1.542     2.91     5.795362     20.36963     1214.224        47     1.288     1.246  58.16   0
       176    669.1785    553.9940 300.2133704 +22.7513106     613.1918     72.18097      1.504     4.08     5.659894     20.36963     64.61871        14     1.143     0.926  74.16   0
       177    227.0432    553.5820 300.0758440 +22.6186817     1312.913     72.21775      1.645     3.33     5.524326     20.36963      142.132        22     1.283     1.075  47.48   0
       178    474.0453    551.2412 300.1534761 +22.6920525     401.1826     72.27289      1.447     4.98      5.84694     20.36963     45.82264         8     1.036     0.676 -17.57   0
       179    431.2530    546.3102 300.1417534 +22.6778125     4310.088     72.23614      1.575     3.05     5.654409     20.36963     452.8275        37     1.343     1.192  31.80   0
       180    774.2731    546.5967 300.2485332 +22.7806664      758.058     72.12577      1.569     3.73     5.383134     20.36963     77.68742        16     1.104     0.930 -32.88   0
       181    409.6713    544.7664 300.1355360 +22.6709010     1171.817     72.19936      1.479     3.56     5.578309     20.36963     121.5894        21     1.319     0.945  59.83   0
       182    163.9012    543.8238 300.0593747 +22.5969496     693.9899     72.14417      1.622     4.19     5.516313     20.36963     74.05738        14     1.145     0.944 -76.84   0
       183    851.1833    542.0591 300.2739911 +22.8023962     1653.239     72.16257      1.637     3.67     5.357708     20.36963     135.2521        25     1.273     1.195 -46.87   0
       184     97.7179    542.3165 300.0392863 +22.5766698     296.0254     72.32798      1.507     3.89     5.504178     20.36963      48.0917         6     1.033     0.492 -30.73   0
       185    951.0847    541.2187 300.3054303 +22.8320675     290.5207     72.12577      1.462     4.34     5.288874     20.36963     26.84392         5     1.431     0.375  -7.21   0
       186    547.9894    533.9700 300.1821132 +22.7092535     206637.7     72.19936      1.505     3.01     5.750233     20.36963     20466.95       191     1.540     1.459  -9.81   0
       187    731.9088    538.9893 300.2377955 +22.7657931     742.9891     72.14417      1.451     3.06     5.436375     20.36963     88.94279        14     1.001     0.921 -69.01   0
       188    371.6183    540.5129 300.1250721 +22.6582748      345.757     72.14417      1.490     2.87     5.551987     20.36963     56.08695         5     0.976     0.325 -24.37   0
       189    935.9750    536.0568 300.3023918 +22.8260608     278.6206     72.19936      1.514     3.77     5.316673     20.36963     27.70264         5     0.650     0.628   2.94   0
       190    233.9579    533.8450 300.0844031 +22.6150936     3435.107     72.27289      1.589     3.16     5.503533     20.36963     365.2916        32     1.283     1.231  28.05   0
       191    799.9771    530.2851 300.2618447 +22.7836800     504.6489     72.14417      1.552     4.46     5.349484     20.36963     46.99615         8     0.848     0.668  35.72   0
       192    579.3253    520.9197 300.1961119 +22.7148962     125.4929     72.30962      1.556     6.97     5.825198     20.36963     27.47708         7     1.411     0.965  -2.17   0
       193    438.5677    514.5963 300.1543276 +22.6709036     2870.512     72.19936      1.657     3.13     5.738351     20.36963        275.1        35     1.648     1.115  89.78   0
       194    283.0608    516.9734 300.1051565 +22.6249749     401.2386     72.19936      1.243     3.99     5.425914     20.36963     52.52076         7     1.202     0.437  25.31   0
       195    850.3762    510.8362 300.2838774 +22.7931860     406.5627     72.21775      1.598     5.34     5.382029     20.36963     53.55633         8     1.018     0.790 -86.64   0
       196    668.9811    510.2027 300.2275277 +22.7386781     335.6187     72.12577      1.494     5.18     5.707247     20.36963     29.62932         6     1.161     0.654  -7.72   0
       197    756.0437    503.3395 300.2568947 +22.7627839      545.692     72.19936      2.286     3.81     5.353261     20.36963     41.91256         6     0.817     0.648  33.95   0
       198    835.6797    500.6326 300.2826064 +22.7858544     1676.889     72.18097      1.575     2.99     5.374471     20.36963     174.3696        22     1.161     1.075 -87.75   0
       199    706.8389    498.2379 300.2432118 +22.7465819     2660.852     72.27289      1.513     2.93     5.513386     20.36963     259.8535        27     1.192     1.149 -79.88   0
       200    951.5995    495.9862 300.3202776 +22.8192260     515.2995     72.03366      1.543     5.28     5.401639     20.36963     46.07912        11     1.074     0.732  17.33   0
       201    611.6573    495.1484 300.2145520 +22.7171838     546.8169     72.25452      1.344     2.79     5.934277     20.36963     59.14576         6     0.733     0.601  28.16   0
       202    493.9068    494.0412 300.1782323 +22.6815872     691.4682     72.21775      1.440     3.56     5.888256     20.36963     68.42613        12     1.037     0.777  52.17   0
       203    964.2124    492.3197 300.3254038 +22.8219483     1333.297     72.18097      1.654     3.52     5.409323     20.36963     119.7392        23     1.290     1.145  61.04   0
       204    950.0496    491.3561 300.3212971 +22.8174317     851.5342     72.23614      2.150     5.10     5.414661     20.36963     67.27823        15     1.272     1.150 -70.97   1
       205    835.9954    490.8690 300.2858747 +22.7831444     2135.266     72.16257      1.686     3.94     5.378835     20.36963     181.9246        26     1.398     1.037  76.69   0
       206    589.1724    487.7299 300.2099549 +22.7083180     830.3027     72.18097      2.234     7.37     5.973845     20.36963     51.96154        15     1.693     0.899  81.34   0
       207    374.8852    488.1868 300.1430768 +22.6442391     325.2941     72.14417      1.433     3.86     5.692443     20.36963     40.76853         8     0.804     0.712  37.91   0
       208    874.1328    485.8239 300.2994080 +22.7931141     4473.689     72.18097      1.609     3.03     5.424599     20.36963     433.1471        36     1.293     1.264 -59.64   0
       209    427.6862    487.3509 300.1597848 +22.6598234     278.2439     72.18097      1.338     3.89     5.754157     20.36963     53.78767         7     0.906     0.643  27.30   0
       210    514.4429    485.4262 300.1874246 +22.6852676      181.703     72.21775      1.282     3.95     5.928904     20.36963      28.6787         5     1.006     0.444  13.94   0
       211    612.0782    482.2381 300.2188743 +22.7136032     343.4151     72.18097      1.503     4.29     5.986047     20.36963     38.13715         7     0.871     0.602 -26.36   0
       212    534.6701    481.2167 300.1950911 +22.6901196     334.3907     72.21775      1.572     5.14     5.982944     20.36963     32.45972         9     0.924     0.807   1.75   0
       213    965.8663    476.4744 300.3310640 +22.8178904     675.9691     72.25452      1.588     3.99     5.448627     20.36963     76.96223        17     1.221     1.020  34.03   0
       214    106.1663    475.8322 300.0634955 +22.5601370     1024.017     72.23614      1.772     3.85     5.487734     20.36963     104.2667        17     1.209     0.970  -1.85   0
       215    766.7162    469.0614 300.2713502 +22.7561351     368.3104     72.30962      1.923     4.88     5.344717     20.36963      33.7885         5     0.908     0.742 -84.20   0
       216     98.5746    466.0638 300.0643060 +22.5550589     307.1075     72.18097      1.441     4.96      5.48452     20.36963     45.17212         7     1.314     0.539 -14.74   0
       217    962.3530    465.4165 300.3335573 +22.8136613     412.6544     72.23614      1.650     4.61     5.465368     20.36963     45.98341         6     1.126     0.538 -40.30   0
       218    706.3712    460.3013 300.2553812 +22.7355472     561.1562     72.12577      1.600     3.82      5.47826     20.36963     59.78207         7     0.948     0.690 -25.47   0
       219    595.4106    458.2267 300.2214755 +22.7017161     203.6402     72.19936      1.316     3.45     5.985556     20.36963     30.91443         5     0.775     0.444  70.52   0
       220    647.3561    455.9736 300.2383927 +22.7166289     796.0427     72.21775      1.581     3.84     5.757696     20.36963     85.56339        14     1.095     0.903  36.05   0
       221    962.0012    448.9825 300.3387822 +22.8088336     606.2123     72.10735      1.473     4.65     5.491138     20.36963     67.34212        12     1.148     0.947   9.00   0
       222    708.2733    448.4129 300.2598330 +22.7327026     856.3863     72.21775      1.391     2.92     5.457091     20.36963     115.0831        17     1.066     0.963 -41.67   0
       223    865.5035    444.8558 300.3100151 +22.7787608     981.3735     72.29126      1.624     3.14     5.424234     20.36963      107.548        17     1.104     0.974   2.11   0
       224    849.9368    441.2369 300.3063342 +22.7730606     543.4186     72.19936      1.329     2.83     5.414342     20.36963      64.3841         8     0.810     0.704 -14.62   0
       225    594.0513    438.9173 300.2273194 +22.6957646     3222.502     72.21775      1.442     2.84     5.967422     20.36963      354.893        27     1.143     1.088 -68.48   0
       226    954.5315    438.1134 300.3399792 +22.8034744     519.8477     72.29126      1.562     3.64     5.494164     20.36963      51.1241         8     0.952     0.717  57.38   0
       227     70.7498    429.4998 300.0675230 +22.5362287     375.4877     72.29126      1.746     3.40     5.658154     20.36963     36.27832         5     0.760     0.440 -22.51   0
       228    434.0448    425.6623 300.1817872 +22.6440228     372.0086     72.21775      1.522     4.25       5.7496     20.36963      47.2617         9     0.958     0.831 -23.29   0
       229   1005.4806    418.3147 300.3623056 +22.8130338     1326.833     72.36469      1.593     3.88      5.67329     20.36963     109.9474        22     1.321     1.046  26.15   0
       230    963.6943    417.0614 300.3496713 +22.8001672     958.6089     72.29126      1.613     4.38     5.548927     20.36963     77.13128        16     1.183     0.919  55.59   0
       231    877.6699    418.0541 300.3225092 +22.7747026      613.027     72.23614      1.760     3.01      5.42376     20.36963     56.35353        10     0.982     0.719   1.25   0
       232    614.2708    415.0592 300.2413623 +22.6949701     340.8073     72.23614      1.506     4.10     5.959397     20.36963     36.95147         5     1.035     0.464 -24.56   0
       233    500.7746    413.4909 300.2065161 +22.6605217     474.9504     72.14417      1.450     5.31     5.750782     20.36963     49.17316        11     1.070     0.894 -22.43   0
       234    704.8099    412.8629 300.2702915 +22.7214550     966.8854     72.14417      1.346     2.30     5.439748     20.36963     142.6895        15     0.968     0.872  -7.80   0
       235    208.8524    410.8731 300.1165093 +22.5722892     739.3806     72.19936      1.596     3.11     5.531606     20.36963     78.92079        12     0.948     0.832  50.13   0
       236    270.9634    406.6895 300.1371883 +22.5897059     3762.908     72.18097      1.547     2.89     5.689083     20.36963     383.2281        32     1.260     1.178  36.36   0
       237   1004.2130    405.5044 300.3660675 +22.8089726     4318.226     72.12577      1.655     3.08     5.674492     20.36963     440.5197        36     1.317     1.273 -19.54   0
       238    218.1422    401.2912 300.1225082 +22.5723247     7736.709     72.25452      1.631     3.12     5.581419     20.36963      836.199        46     1.371     1.279  56.12   0
       239    722.7772    402.5515 300.2792386 +22.7238736     304.7636     72.19936      1.202     3.39     5.449868     20.36963     29.16758         5     0.742     0.448  21.42   0
       240    596.6495    401.3399 300.2403242 +22.6857526     248.8681     72.25452      1.093     2.98      5.95241     20.36963     44.39015         5     0.738     0.449 -15.00   0
       241    984.2327    396.5574 300.3627352 +22.8004215     1749.073     72.25452      1.682     3.41     5.610485     20.36963     174.8748        25     1.266     1.151 -48.18   0
       242    359.0252    395.5888 300.1681936 +22.6129114      4808.08     72.19936      1.487     2.85     5.728577     20.36963     538.0947        31     1.219     1.126  64.85   0
       243    603.2646    392.4417 300.2452728 +22.6851786     18815.56     72.18097      1.482     2.64     5.969903     20.36963     2107.521        59     1.336     1.232  76.84   0
       244   1002.6583    392.5730 300.3697789 +22.8047906     278.5424     72.19936      1.522     4.06     5.671974     20.36963     36.16202         5     0.999     0.473  87.43   0
       245    620.8524    392.6256 300.2506932 +22.6904991     866.6431     72.21775      1.992     6.20     5.923581     20.36963     58.02443        14     1.489     0.725 -32.61   0
       246    450.7774    394.3725 300.1971511 +22.6400542     181.3578     72.19936      1.645     3.43     5.746717     20.36963      36.5331         5     1.117     0.304  53.93   0
       247    800.1151    383.0792 300.3096706 +22.7414360     404.4853     72.34634      1.328     3.16     5.419669     20.36963     53.01995         7     0.880     0.515  41.69   0
       248    223.0259    379.3388 300.1311503 +22.5674897     361.1947     72.19936      1.347     3.67     5.679083     20.36963     42.20638         6     0.807     0.663  20.61   0
       249    936.8394    375.1710 300.3548858 +22.7800908     698.3513     72.21775      1.653     4.26      5.45261     20.36963     88.61211        15     1.250     1.061 -61.57   0
       250    157.8032    372.4071 300.1131142 +22.5459505     2025.401     72.01523      1.710     3.27     5.696633     20.36963     183.3963        24     1.207     1.149 -14.61   0
       251    543.9482    361.8329 300.2367256 +22.6586225     6746.802     72.21775      1.488     2.93     5.763074     20.36963     765.9093        39     1.291     1.179 -85.00   0
       252    957.5833    362.5021 300.3654696 +22.7826581     1169.999     72.12577      1.600     2.95      5.52056     20.36963      138.558        20     1.215     1.021  75.11   0
       253    258.5102    361.4898 300.1479799 +22.5730029     621.3423     72.36469      1.578     3.13      5.86305     20.36963     81.72635         8     1.031     0.498   2.96   0
       254    116.7868    354.4712 300.1061796 +22.5285092     444.7335     72.19936      1.436     4.96     5.810074     20.36963     57.41266         9     1.280     0.693 -20.61   0
       255    803.8515    353.8769 300.3203113 +22.7341644     399.9913     72.18097      1.411     2.96     5.419527     20.36963     46.84294         6     0.764     0.545  45.25   0
       256    748.0966    350.9237 300.3038846 +22.7166240     1161.317     72.34634      1.566     3.40     5.427749     20.36963     114.1316        17     1.224     0.886 -88.44   0
       257    657.7585    352.3644 300.2752578 +22.6899884     335.5393     72.25452      1.193     3.01     5.961607     20.36963     63.25731         8     0.896     0.618   9.88   0
       258    450.5477    347.9982 300.2121264 +22.6266718     6272.217     72.16257      1.499     2.83      5.74546     20.36963     653.2759        40     1.257     1.216  60.68   0
       259    939.9503    342.9892 300.3662986 +22.7717727     639.0788     72.21775      1.489     4.04     5.446949     20.36963     61.39392        12     1.121     0.721 -74.48   0
       260    842.4988    342.8750 300.3359341 +22.7425722     1442.606     72.32798      1.585     3.01     5.412896     20.36963     142.6961        17     1.086     0.927  66.23   0
       261    435.0468    336.8481 300.2109174 +22.6188269     401.7787     72.21775      1.266     3.27     5.751213     20.36963     53.35014         7     0.902     0.571 -14.92   0
       262    518.1060    334.8759 300.2374222 +22.6431412     477.9362     72.34634      1.553     2.71     5.673124     20.36963     63.16196         9     0.910     0.661  -7.87   0
       263    498.0030    332.5791 300.2319063 +22.6364602      303.318     72.14417      1.376     3.71      5.68281     20.36963     32.90405         6     0.802     0.493   1.89   0
       264    814.9197    330.4875 300.3313516 +22.7307572     585.6577     72.32798      1.368     4.49     5.414367     20.36963     70.43594        10     1.263     0.631 -24.14   0
       265     95.9460    330.5143 300.1074719 +22.5153886     865.5809     72.25452      0.708     0.14      5.91367     20.36963     285.9486         5     0.507     0.407 -73.66   0
       266    338.0977    327.1353 300.1838898 +22.5869923     2574.753     72.30962      1.512     3.05     5.833585     20.36963     255.3702        27     1.306     1.066  72.52   0
       267     56.3648    324.6486 300.0970704 +22.5018401     987.8249     72.23614      1.617     3.88     6.059845     20.36963     105.8943        19     1.271     1.035  40.06   0
       268    686.3841    322.0879 300.2940021 +22.6898629     386.5403     72.14417      1.491     4.37     5.648409     20.36963     43.69004         5     1.019     0.532 -44.46   0
       269    307.4168    316.6277 300.1777506 +22.5747831     30192.59     72.21775      1.599     2.90     5.939846     20.36963     3521.268        72     1.426     1.318  60.97   0
       270    842.2631    314.5202 300.3450595 +22.7343536     1509.583     72.30962      1.506     2.62     5.395705     20.36963     194.4378        19     1.062     1.001  71.39   0
       271    797.9445    312.3037 300.3319569 +22.7204508     332.2299     72.29126      1.520     4.67     5.419316     20.36963     39.52158         5     0.887     0.697  11.63   0
       272      3.6465    304.2997 300.0872861 +22.4801977     4840.167     67.50436      1.818     3.81     6.286054     20.36963     424.2351        38     1.450     1.352  44.94  24
       273    757.5099    303.4396 300.3222243 +22.7057996     592.3642     72.19936      1.743     3.06     5.422322     20.36963     58.14787         7     0.797     0.727  36.36   0
       274    881.8983    302.6572 300.3612713 +22.7428071     331.6104     72.29126      1.861     5.30     5.378757     20.36963     33.50826         7     1.440     0.551 -24.42   0
       275    181.7786    303.0464 300.1430711 +22.5332348     532.7087     72.23614      1.575     3.44     5.983385     20.36963     59.45019        10     0.989     0.759   4.05   0
       276    405.9149    302.2172 300.2130818 +22.6001571      485.426     72.16257      1.337     2.89     5.801287     20.36963     51.84693         8     0.781     0.678  26.12   0
       277    717.9119    296.5173 300.3121246 +22.6919562     1924.937     72.30962      1.502     3.03     5.443373     20.36963     208.4345        22     1.161     1.043  80.17   0
       278    846.9868    292.1366 300.3537939 +22.7293348     216.8176     72.16257      1.375     5.16     5.377047     20.36963     31.32246         6     0.937     0.802  63.95   0
       279    525.6093    291.3187 300.2538887 +22.6328802     250.7067     72.14417      1.303     4.75     5.443231     20.36963     40.65138         9     1.050     0.699  18.16   0
       280    933.1700    289.2937 300.3816025 +22.7543099     586.6335     72.10735      1.687     4.22     5.394377     20.36963     52.87703        11     1.071     0.950 -39.40   0
       281    379.6320    280.9630 300.2117940 +22.5861812     2324.708     72.21775      1.742     3.63     5.835555     20.36963     217.9552        29     1.435     1.107  59.26   0
       282    591.7747    279.9933 300.2781739 +22.6494420     375.8358     72.19936      1.352     3.80      5.39263     20.36963     40.35323         5     0.825     0.503  26.43   0
       283    810.9438    275.1089 300.3480759 +22.7136535     293.9167     72.25452      1.268     3.70     5.465364     20.36963     41.94925         7     0.940     0.570  13.75   0
       284    818.9316    274.2281 300.3508527 +22.7157911     642.2529     72.18097      1.390     4.23     5.457987     20.36963     70.00394        10     1.165     0.770 -23.50   0
       285    718.1028    271.7808 300.3202077 +22.6849062     233.3093     72.12577      1.202     3.98     5.554756     20.36963     43.13306         6     0.892     0.512 -30.69   0
       286    701.2735    272.0403 300.3148774 +22.6799426     331.3392     72.18097      1.295     2.78     5.559762     20.36963     50.64811         6     0.846     0.486  53.88   0
       287    455.4876    260.4516 300.2420623 +22.6030140     1189.493     72.23614      1.454     3.63     5.733596     20.36963     136.1587        19     1.253     0.967  72.93   0
       288    170.0568    262.2549 300.1526554 +22.5180158     346.3938     72.25452      1.455     4.45     6.051456     20.36963     40.57839         6     0.872     0.647  17.20   0
       289    967.7313    256.1281 300.4031447 +22.7551175     344.8381     72.27289      1.902     5.64     5.394377     20.36963      38.9065         9     1.397     0.640 -82.49   0
       290    838.9859    254.1800 300.3636097 +22.7160315     264.6709     72.16257      1.322     3.54     5.492088     20.36963     34.74388         5     0.894     0.650 -24.98   0
       291    700.5128    252.5148 300.3209729 +22.6741049       2259.6     72.32798      1.449     2.57     5.713299     20.36963     268.7296        20     1.081     0.988  75.86   0
       292    961.7298    246.9675 300.4042428 +22.7506883     3236.307     72.19936      1.667     3.21     5.394377     20.36963      304.632        29     1.242     1.187  89.43   0
       293   1022.8352    242.2934 300.4248302 +22.7676259     312.5539     60.73294      1.214     4.77     5.394377     20.36963     35.46048         8     1.007     0.642  -7.86  24
       294    333.2015    237.9987 300.2112763 +22.5599366     183.2548     71.97835      1.179     3.93      6.06492     20.36963     26.53719         5     0.848     0.521  36.49   0
       295    409.0609    236.1109 300.2355010 +22.5821185      596.464     72.29126      1.396     3.54     5.823822     20.36963     78.87908        12     1.001     0.871  83.92   0
       296     83.7481    230.2621 300.1361936 +22.4829680     1496.756     72.25452      1.824     3.72     6.259629     20.36963     133.7246        28     1.554     1.130 -31.77   0
       297    114.4521    230.5758 300.1456377 +22.4922603     715.8222     72.21775      1.670     3.69     6.151582     20.36963     73.41936        12     1.119     0.758 -13.76   0
       298    977.5862    227.8667 300.4153858 +22.7499408     590.5886     72.18097      1.736     3.37     5.394377     20.36963     64.03074        11     1.000     0.788  29.30   0
       299    821.2537    224.2025 300.3678010 +22.7021088     375.5192     72.16257      1.354     4.47     5.636939     20.36963     48.04591         7     0.861     0.660  15.66   0
       300    167.4500    222.5663 300.1647147 +22.5058442       532.27     72.23614      1.510     4.57     6.067682     20.36963     50.41334         9     1.256     0.533 -18.19   0
       301    962.2002    220.0310 300.4131252 +22.7430847     329.9574     72.16257      1.477     4.60     5.406392     20.36963     34.17203         7     1.086     0.552  31.86   0
       302     23.3478    219.3708 300.1209505 +22.4617390     339.9645     72.21775      1.684     3.43     6.642473     20.36963     44.33837         5     0.741     0.461  14.41   0
       303    772.2015    214.1416 300.3557669 +22.6845366     638.2834     72.14417      1.311     2.41      5.77468     20.36963     81.35137        10     0.829     0.725   3.01   0
       304    362.6170    213.4294 300.2283983 +22.5616940     428.1595     72.19936      1.532     3.87     5.943751     20.36963     38.24821         7     0.845     0.685 -67.93   0
       305    863.4496    206.7716 300.3866145 +22.7097258     367.7987     72.21775      1.842     5.41     5.553096     20.36963     31.26104         7     1.195     0.691 -53.70   0
       306    870.3121    202.9369 300.3899986 +22.7106770     2155.132     72.30962      1.644     3.08     5.550964     20.36963     192.0026        27     1.271     1.210  54.20   0
       307    288.7299    199.9787 300.2097654 +22.5356984     2152.478     72.19936      1.586     3.28     6.447402     20.36963     205.3004        24     1.202     1.087  76.97   0
       308    366.5442    195.1259 300.2355553 +22.5576146     1071.185     72.23614      1.692     3.65     5.953878     20.36963     112.0149        19     1.259     1.031 -81.70   0
       309    768.6539    194.8861 300.3609043 +22.6779409      579.884     72.25452      1.391     2.63     5.757462     20.36963     75.42767         9     0.913     0.571 -10.93   0
       310    183.6576    187.4075 300.1811546 +22.5006094     790.1536     72.18097      1.621     3.78     6.037173     20.36963     72.92123        11     1.022     0.817 -42.97   0
       311    786.2919    184.2067 300.3698668 +22.6801501     488.6568     72.10735      1.294     3.21     5.717656     20.36963     63.29638        11     0.929     0.810  25.89   0
       312    721.4440    184.2819 300.3496236 +22.6607635     1726.058     72.16257      1.439     2.74     5.796369     20.36963     192.0456        20     1.149     0.987 -87.14   0
       313    205.2608    180.3685 300.1901559 +22.5050617     690.8078     72.23614      1.936     3.64     6.016323     20.36963      59.6376         6     0.864     0.505 -44.27   0
       314    992.8757    177.1240 300.4366115 +22.7399245     877.1109     72.29126      1.530     3.22     5.467622     20.36963     79.29883        15     1.087     0.891  87.31   0
       315    494.8751    176.8088 300.2814497 +22.5907873      239.389     72.18097      1.460     2.54     5.795654     20.36963     39.74175         6     0.724     0.563  49.59   0
       316    725.4982    175.7761 300.3536453 +22.6595325       791.69     72.12577      1.519     4.05     5.771716     20.36963     75.32478        14     1.097     0.971 -32.47   0
       317    645.9622    175.0118 300.3291020 +22.6355058     1333.342     72.19936      1.492     2.77     5.783394     20.36963     151.0712        21     1.130     1.067  62.04   0
       318    467.1972    171.6570 300.2745005 +22.5810194     332.2437     72.16257      1.416     2.37     5.824922     20.36963     46.14933         5     0.694     0.461 -12.69   0
       319    841.3928    166.6858 300.3927316 +22.6916026      1511.77     72.12577      1.609     3.45     5.663076     20.36963     165.4485        21     1.242     1.002 -78.45   0
       320    853.4683    166.0583 300.3967016 +22.6950355     856.8956     72.21775      1.471     3.09     5.655278     20.36963     91.23679        15     1.004     0.947 -43.00   0
       321    572.1802    166.8192 300.3087681 +22.6110639     851.2584     72.19936      1.425     2.78      5.78881     20.36963     111.7639        17     1.058     0.942  -4.02   0
       322    899.9656    164.9601 300.4115627 +22.7086319     362.3895     72.23614      1.703     4.44     5.618958     20.36963     40.98231         5     1.170     0.479  18.85   0
       323   1014.2677    156.7924 300.4498802 +22.7404767     1778.546     72.18097      1.775     3.23     5.474272     20.36963      159.219        25     1.337     1.149  44.88   0
       324    970.1384    156.2235 300.4362913 +22.7271129     1147.175     72.18097      1.612     2.94     5.552793     20.36963      120.657        17     1.102     0.974  -8.96   0
       325    204.2103    148.6155 300.2001225 +22.4956318     931.5441     72.12577      1.819     4.48     6.060717     20.36963     79.12045        18     1.222     1.171 -72.64   0
       326     65.8805    143.3297 300.1588220 +22.4526661     2463.379     72.30962      1.821     3.49     6.423829     20.36963      231.389        34     1.469     1.327  61.05   0
       327    889.2148    140.9263 300.4160001 +22.6985055     872.2408     72.19936      1.753     4.38     5.709839     20.36963     75.27169        14     1.173     0.909 -29.50   0
       328     16.0010    140.5426 300.1442216 +22.4369181     408.8513     72.14417      1.173     3.16     6.552791     20.36963     60.58267         5     0.763     0.425 -24.18   0
       329    223.3790    136.8490 300.2098990 +22.4979964     5691.952     72.19936      1.647     2.96     6.088001     20.36963     605.7322        40     1.338     1.309  38.42   0
       330      7.7441    131.3462 300.1446363 +22.4318045     1218.581     72.23614      1.634     3.55     6.521004     20.36963     129.7505        18     1.302     0.915 -22.65  16
       331   1022.2195    124.8042 300.4627321 +22.7336554     17161.12     63.61591      1.632     3.38      5.63005     20.36963     1574.225        50     1.537     1.184  83.48  24
       332    206.7529    127.5985 300.2077256 +22.4903598     762.3471     72.19936      1.827     5.33     6.159188     20.36963     63.15281        11     1.226     0.754 -57.83   0
       333    867.6068    118.7560 300.4164459 +22.6856665     3592.522     72.21775      1.612     2.88     5.823243     20.36963     371.3096        32     1.332     1.156 -81.63   0
       334    971.2278    117.5249 300.4491762 +22.7163103     2846.708     72.21775      1.755     3.28     5.697401     20.36963     286.3753        33     1.444     1.209  84.08   0
       335    416.7523    113.9181 300.2775098 +22.5493292     645.0923     72.21775      1.402     3.22      6.30674     20.36963     79.27624        11     0.963     0.793 -82.03   0
       336    170.4274    114.7038 300.2006068 +22.4757753     326.9523     72.12577      1.411     3.44       6.3116     20.36963     36.12987         5     0.783     0.437 -69.11   0
       337    531.1409    111.8784 300.3137930 +22.5829928     313.2865     72.23614      1.202     4.55     5.919285     20.36963     45.69822         7     1.082     0.551 -49.64   0
       338    341.3946    105.5555 300.2567625 +22.5243602     862.9651     72.19936      2.238     3.58     6.505396     20.36963      84.3465        15     1.375     0.761 -13.39   2
       339    107.8636    102.7562 300.1850242 +22.4536010      683.199     72.19936      1.818     5.39     6.352276     20.36963      63.0253        11     1.334     0.815  24.18   0
       340    468.4358    100.9810 300.2977955 +22.5610886     1721.859     72.19936      1.526     3.11     5.959275     20.36963     171.5121        22     1.164     1.042  68.17   0
       341    396.2506    101.5089 300.2751491 +22.5396257     462.4276     72.23614      1.360     3.58      6.43713     20.36963      58.9543        10     0.954     0.821  28.19   0
       342    529.8298    100.1504 300.3171857 +22.5792307     416.4106     72.21775      1.795     5.27     5.947135     20.36963     40.33247         7     1.202     0.653  54.13   0
       343    212.1474     96.3971 300.2195160 +22.4830178     485.0128     72.19936      1.364     3.55     6.300211     20.36963     48.36459         7     0.849     0.574 -28.05   0
       344    341.8029     85.7788 300.2632990 +22.5188027     274.8735     72.14417      1.575     4.45     6.583137     20.36963     26.29689         5     0.793     0.710 -36.87   0
       345    902.0413     85.5641 300.4379465 +22.6864240     539.2123     72.27289      2.337     3.54     5.933942     20.36963     31.65832         5     0.785     0.462  19.36   2
       346    242.4360     80.7523 300.2340081 +22.4875986      5975.16     72.21775      1.654     2.98     6.419004     20.36963     673.4198        36     1.312     1.249  84.34   0
       347     93.5374     80.3755 300.1878228 +22.4428842     914.6652     72.18097      2.438     3.83     6.340811     20.36963     83.59701        15     1.172     1.051 -53.59   0
       348    871.7358     78.5837 300.4307543 +22.6753511     191.3695     72.18097      1.233     3.23     6.042566     20.36963     34.86409         5     0.718     0.468  16.50   0
       349    257.9467     72.3694 300.2415501 +22.4898372     412.6248     72.21775      1.538     3.43     6.512382     20.36963     43.78701         5     0.769     0.444 -17.62   0
       350      4.4980     71.3856 300.1630591 +22.4136241     454.7103     70.18514      2.054     3.67     6.340811     20.36963     42.44766         7     0.941     0.546 -31.22  16
       351     67.0141     70.1171 300.1829014 +22.4319926     1465.029     72.18097      0.488    -2.11     6.340811     20.36963     1006.203         7     0.433     0.347  86.15   0
       352    488.5229     66.1349 300.3153438 +22.5570915     6278.906     72.29126      1.524     2.82     6.136548     20.36963     696.5566        37     1.293     1.182  61.64   0
       353    373.9833     66.0029 300.2797239 +22.5227594     585.2131     72.10735      1.378     3.40     6.552718     20.36963     78.31122        10     0.911     0.844 -19.32   0
       354    545.8045     61.4318 300.3347095 +22.5728878     205.6146     72.18097      1.037     2.73     6.195466     20.36963     35.25226         5     0.711     0.469 -17.51   0
       355    741.1393     56.0845 300.3973172 +22.6298101     819.6548     72.30962      1.543     3.24     6.489766     20.36963     71.78519        11     0.896     0.823 -32.82   0
       356    833.3625     54.9092 300.4264568 +22.6570643     423.4342     72.18097      1.237     3.95     6.273536     20.36963     56.01021         9     0.973     0.711  46.27   0
       357    301.0422     53.9090 300.2609412 +22.4974428     1429.743     72.19936      0.502     1.08     6.620574     20.36963     989.3583         6     0.495     0.324  13.82   0
       358    181.8256     50.0603 300.2250999 +22.4606307     550.1918     72.18097      1.750     3.89      6.50475     20.36963     60.30325         8     1.128     0.518 -30.78   0
       359    539.6777     49.0399 300.3368164 +22.5674930     404.8677     72.18097      1.255     3.42     6.266796     20.36963     55.35471         9     0.971     0.633  35.28   0
       360    616.9257     46.2854 300.3617760 +22.5898225     6375.935     72.30962      1.571     2.89     6.335691     20.36963      772.795        40     1.358     1.231 -79.21   0
       361    391.6576     45.2790 300.2919409 +22.5220987     1491.858     72.23614      1.582     3.02     6.537373     20.36963      151.512        23     1.307     1.074  62.61   0
       362    658.2502     43.8903 300.3754304 +22.6015014     847.6242     72.19936      1.579     3.27     6.621868     20.36963     80.72957        13     0.968     0.891  58.64   0
       363    727.7657     41.9577 300.3977253 +22.6217474     507.4496     72.25452      1.631     3.23     6.689713     20.36963     42.18622         6     0.873     0.486  52.63   0
       364    673.9580     39.9287 300.3816098 +22.6050633     599.0714     72.16257      1.677     2.73     6.749074     20.36963      67.1234        10     0.886     0.727 -79.28   0
       365    944.0543     37.7376 300.4665542 +22.6852363     393.7667     72.25452      1.404     3.78      6.21767     20.36963     56.20261         9     0.863     0.805 -83.01   0
       366    140.6213     37.7700 300.2162678 +22.4447590     700.0405     72.19936      1.581     3.37     6.456841     20.36963     78.87231        13     1.073     0.823 -14.25   0
       367    983.1118     37.1427 300.4789359 +22.6967460     353.0905     72.27289      1.565     4.41     5.869439     20.36963     28.74008         6     1.161     0.477  26.33   0
       368    712.4714     35.1469 300.3951642 +22.6152132       444.85     72.18097      1.526     4.94     6.776817     20.36963     54.11687        12     1.289     0.735  83.15   0
       369    676.3145     30.2152 300.3854916 +22.6029763     843.9505     72.14417      1.830     5.84     6.819327     20.36963      78.3223        17     1.631     0.902  48.60   0
       370    661.1721     31.2530 300.3804357 +22.5987434     2838.121     72.21775      1.575     2.86     6.728697     20.36963      329.026        31     1.252     1.229 -69.98   0
       371    747.6248     22.9917 300.4100621 +22.6222369     1460.306     72.19936      1.501     3.19     6.865879     20.36963     149.9071        20     1.238     0.996  46.68   0
       372    148.9754   1018.8272 299.9003570 +22.7286239     336.8289     72.16257      2.095     4.65     101.8279     20.36963     34.86896         5     1.109     0.604 -88.09  16
       373      3.3710   1015.6755 299.8561268 +22.6840081     2567.135     66.35375     33.100    57.17    -23.79501     20.36963     63.97052       475    15.481     5.858 -82.37  27
       374     63.9729     15.3096 300.1997134 +22.4153486     531.3245     72.16257      1.395     4.46     6.340811     20.36963     60.53391         9     1.231     0.550 -17.65   0
       375    290.1225   1011.9261 299.9465001 +22.7690094     1207.382     72.30962      2.420     5.72     6.735607     20.36963     69.61755        27     1.617     1.367  -4.23   0
       376    777.1332     12.4820 300.4226682 +22.6280435      555.491     72.30962      1.599     2.98     6.815516     20.36963     53.59679         6     0.767     0.491   9.14   0
       377    727.4886   1012.9772 300.0823568 +22.9005017     408.3659     72.12577      1.994     6.12     4.124658     20.36963     41.61549         7     1.477     0.713 -30.77   0
       378    920.9199    970.4141 300.1565236 +22.9462711     681.7697     72.18097      1.974     8.01     4.691178     20.36963     45.44556        18     1.369     1.309  71.54   0
