#   1 NUMBER                 Running object number                                     
#   2 X_IMAGE                Object position along x                                    [pixel]
#   3 Y_IMAGE                Object position along y                                    [pixel]
#   4 ALPHA_J2000            Right ascension of barycenter (J2000)                      [deg]
#   5 DELTA_J2000            Declination of barycenter (J2000)                          [deg]
#   6 FLUX_APER              Flux vector within fixed circular aperture(s)              [count]
#   7 FLUXERR_APER           RMS error vector for aperture flux(es)                     [count]
#   8 FLUX_RADIUS            Fraction-of-light radii                                    [pixel]
#   9 FWHM_IMAGE             FWHM assuming a gaussian core                              [pixel]
#  10 BACKGROUND             Background at centroid position                            [count]
#  11 THRESHOLD              Detection threshold above background                       [count]
#  12 FLUX_MAX               Peak flux above background                                 [count]
#  13 ISOAREA_IMAGE          Isophotal area above Analysis threshold                    [pixel**2]
#  14 A_IMAGE                Profile RMS along major axis                               [pixel]
#  15 B_IMAGE                Profile RMS along minor axis                               [pixel]
#  16 THETA_IMAGE            Position angle (CCW/x)                                     [deg]
#  17 FLAGS                  Extraction flags                                          
         1    425.9958     17.2953 300.3033116 +22.5138165      879.048     72.51224      1.519     2.65     4.895218     20.48401     112.2068        16     1.140     0.883  80.79   0
         2    197.2708      7.1432 300.2354271 +22.4424081     3890.543     72.62325      1.617     3.02     4.859087     20.48401     439.1906        32     1.367     1.152  60.44  16
         3    765.5428      7.9262 300.4121382 +22.6127395     603.5445     72.64174      1.304     2.72     5.769298     20.48401     108.5952        10     0.892     0.749 -41.90   0
         4    620.2319      4.3783 300.3679954 +22.5682401     294.2525     70.33148      1.191     4.42     5.533915     20.48401      44.3516         7     1.028     0.540 -27.73  16
         5    522.9754      4.5891 300.3376287 +22.5391934     378.6709     70.93977      1.192     3.33     5.260259     20.48401     51.82964         6     0.798     0.488   5.91  16
         6    155.6130   1011.8399 299.8962156 +22.7183047     1200.611     72.60476      2.185     7.39     95.56433     20.48401      40.1464        14     1.928     0.793  44.87  18
         7    274.2824   1018.4581 299.9309663 +22.7558188     2778.638      72.6787      6.963    36.95      33.9913     20.48401     73.11494       220     7.738     4.897  57.78  27
         8    226.4732    989.7952 299.9254231 +22.7332517     4504.555     72.54926      9.147    32.42     65.07313     20.48401     105.5044       380     7.365     4.767 -73.17  19
         9    245.6229    989.0738 299.9316136 +22.7387917     6215.487     72.64174     12.680    52.79     48.13242     20.48401     110.5994       799    11.456     7.055 -63.68  19
        10    103.7621    953.8258 299.8989727 +22.6861085     5417.466     72.62325     22.355    82.17     34.60637     20.48401     1236.136      2820    16.148    14.532 -19.86  19
        11    192.7179    983.3214 299.9170323 +22.7212649     1053.532      72.7341      2.989     7.48     66.11165     20.48401     45.42406        12     1.333     1.175 -87.39   3
        12    193.3322    979.0831 299.9186023 +22.7202339     1434.183     72.71564      3.990    12.15     62.74733     20.48401      53.0685        32     2.777     1.479  27.92   2
        13    264.6363    978.0345 299.9411195 +22.7413317     9093.315      72.6787     12.684    41.65     28.51589     20.48401     186.3751      1075    13.463     5.960  70.65  19
        14    202.7153   1003.2742 299.9136487 +22.7299865     1509.573     72.69717      4.184    11.53      81.0638     20.48401     54.18707        36     3.488     1.061  75.51  19
        15    206.8230   1004.2654 299.9146036 +22.7315035     1045.477     72.58627      2.590     8.43      81.1614     20.48401     43.48719        13     3.086     0.644  80.03   3
        16    952.4065    974.2985 300.1565944 +22.9465016     696.2297     72.49371      1.914     7.33     3.940015     20.48401     38.91148        19     1.349     1.115  19.78   0
        17    523.8511    979.2030 300.0214156 +22.8194320     343.8955     72.60476      1.936     4.31     3.468975     20.48401     31.65945         5     1.570     0.338  45.27   0
        18    199.5565    995.6476 299.9151481 +22.7268516     1980.366     72.64174      6.419    13.41     75.72208     20.48401     58.36343        32     2.871     1.742 -89.99   3
        19    153.2912    956.6626 299.9134469 +22.7017878     1637.208     72.69717      7.089    16.93     48.80063     20.48401     48.12729        55     3.679     2.166  42.20   3
        20    168.5306    957.7880 299.9178189 +22.7066842     849.8633     72.62325      3.171     7.52     49.90194     20.48401     37.41394        14     1.742     0.908 -67.17   3
        21    677.6779    957.3486 300.0764464 +22.8592880     6750.253     72.60476      1.864     4.23     3.504521     20.48401     414.6809        46     1.471     1.422  34.64   0
        22    572.9352    995.0998 300.0315297 +22.8387147     2343.037     72.69717      1.926     4.45     3.401858     20.48401     155.1801        27     1.427     1.199  29.49   0
        23    172.0715    959.6931 299.9183001 +22.7082932      967.793      72.7341      3.114     8.82     50.96908     20.48401     46.91734        20     1.795     1.210 -55.79   3
        24    759.7830    991.2199 300.0910151 +22.8936268     708.4956     72.58627      2.014     8.05     3.541306     20.48401     49.27312        17     1.483     1.290  57.84   0
        25    114.7090   1012.6527 299.8832351 +22.7062592     3260.238     72.66022     13.763    76.43     89.62444     20.48401     137.8334      1389    18.368     8.824  43.67  27
        26    556.9613    951.3979 300.0407744 +22.8213828     388.4763     72.62325      1.892     4.78     3.397198     20.48401      35.8204         7     0.955     0.678 -21.59   0
        27    586.2017    948.1376 300.0509429 +22.8292156      1497.81     72.58627      1.856     4.35     3.396881     20.48401     118.5486        27     1.425     1.208 -22.43   0
        28     19.0349    997.5321 299.8584215 +22.6732024     1440.453     72.60476      9.694    12.76    -7.406345     20.48401     52.10133        30     2.302     1.970  71.65   3
        29    480.0753    944.2296 300.0191638 +22.7962670     1008.479     72.62325      1.738     4.81     3.614199     20.48401     78.85233        21     1.380     1.081  48.28   0
        30    410.6519    942.4454 299.9981324 +22.7749315     6599.933     72.62325      1.847     4.32     3.897846     20.48401     474.4507        43     1.456     1.386  19.38   0
        31      7.2267   1008.7674 299.8510968 +22.6728772      2787.87     72.60476     13.997    47.41    -23.41119     20.48401      72.3708       588    11.986     5.205  86.71  26
        32    659.4165    990.3841 300.0600064 +22.8632951     8601.006     72.56776      1.925     4.58     3.423163     20.48401     516.9236        44     1.534     1.382  16.31   3
        33    664.9102    988.1285 300.0624522 +22.8642950     9530.051     72.77101      1.968     4.43     3.428777     20.48401     635.8792        50     1.567     1.470  30.88   3
        34    443.6875    929.9421 300.0124834 +22.7812533     457.3288      72.6787      1.756     4.62     3.780834     20.48401     39.22864         8     0.988     0.613  25.09   0
        35    139.2236    921.7772 299.9204220 +22.6875628     1309.918     72.56776      9.372    10.14     19.90065     20.48401     40.99013        18     1.920     1.492 -15.52   3
        36    607.0697    919.1110 300.0668869 +22.8271416     336.1162     72.77101      1.609     5.18     3.416549     20.48401     27.34697         8     0.991     0.765 -19.60   0
        37    455.9756    917.1962 300.0204552 +22.7812817     201.3252     72.56776      1.219     3.40     3.738182     20.48401     38.24295         5     0.805     0.481 -64.53   0
        38    746.1442    909.6830 300.1132930 +22.8661284     749.9263      72.6787      1.986     5.66     3.852935     20.48401     60.38255        13     1.529     0.677  69.51   2
        39    238.0983    904.8395 299.9566771 +22.7123761      825.154     72.60476      5.431     7.33     10.10958     20.48401     34.18163        10     2.234     0.673 -72.38   0
        40    780.6328    904.6230 300.1256907 +22.8750128     927.6021     72.60476      1.787     4.66     3.848633     20.48401     66.71153        17     1.216     0.987  14.83   0
        41    802.9022    898.1048 300.1347543 +22.8798154     11473.35     72.78946      1.803     4.03     3.926696     20.48401     776.5634        51     1.466     1.407 -21.89   0
        42    956.9386    921.3804 300.1752267 +22.9326596     2055.891     72.56776      1.964     4.86     4.321297     20.48401     104.9695        35     1.499     1.432  77.17   0
        43    848.3920    898.4254 300.1488350 +22.8935403     558.3367     72.60476      1.852     6.86      3.91732     20.48401     43.91786        10     1.335     0.990 -58.69   0
        44    196.0914   1000.2603 299.9125697 +22.7271343     2342.208      72.6787      4.158    16.23     79.84642     20.48401     63.85034        65     2.933     2.497  35.59   3
        45    114.0876    889.6887 299.9230451 +22.6708177     1025.941     72.77101      5.672     8.16     9.345839     20.48401     62.44359        18     1.465     1.269 -24.17   0
        46    508.0275    885.7656 300.0468859 +22.7878724     497.7141     72.62325      1.675     6.25     3.592051     20.48401     37.42665        11     1.285     0.855  81.87   0
        47    854.6935    885.7951 300.1549089 +22.8918011     491.6966     72.49371      2.049     5.88     4.058706     20.48401      34.8658         8     1.162     0.837 -70.89   0
        48    811.3264    880.2972 300.1431736 +22.8772261     1489.983      72.7341      1.842     4.72     4.144618     20.48401     101.4575        23     1.362     1.123  16.62   0
        49    993.9144    879.5608 300.2003689 +22.9317235     439.0331     72.58627      1.819     6.55     4.623825     20.48401      37.1643        11     1.262     0.953  15.67   0
        50    663.1165    877.7203 300.0978133 +22.8320628     568.6287     72.75256      1.954     5.15     3.752222     20.48401     41.32187        10     1.118     0.669  19.64   0
        51    849.4713    873.6918 300.1572171 +22.8867600     838.2162     72.75256      2.031     5.21     4.203768     20.48401      57.5969        15     1.225     1.002  67.92   0
        52    957.3257    870.6907 300.1918371 +22.9182138     310.2516     72.77101      1.763     3.84     4.690234     20.48401     35.41625         5     1.050     0.403 -75.75   0
        53    897.9625    864.9280 300.1751919 +22.8987726     477.5823     72.56776      1.813     7.79     4.526165     20.48401     45.10906        13     1.522     1.116  34.88   0
        54    749.3508    864.4545 300.1290046 +22.8541022     693.9677     72.64174      1.646     4.82     3.953261     20.48401     58.53354        13     1.185     0.803 -29.59   0
        55    760.7516    860.9373 300.1337026 +22.8565091     713.5764     72.64174      1.873     6.46       4.0465     20.48401     49.16943        13     1.332     0.879  47.96   0
        56    461.8000    860.1913 300.0408102 +22.7666699     4261.528     72.41959      1.698     3.61     3.803996     20.48401     349.2843        32     1.378     1.184  13.45   0
        57    102.2052    920.4234 299.9093547 +22.6760643     4287.268     72.58627     19.076    51.79     10.65406     20.48401     89.81687       952    11.664     6.806 -34.50   3
        58    504.5224    848.9286 300.0577753 +22.7762487     306.9374     72.71564      1.685     4.66     3.769009     20.48401     31.69086         5     1.058     0.583 -15.27   0
        59    240.3543    849.0154 299.9755347 +22.6970405     383.5002     72.62325      1.842     4.55     5.804654     20.48401     25.03597         6     0.880     0.668  56.45   0
        60    187.1101    845.8102 299.9600183 +22.6801464     979.2281     72.54926      1.993     4.38     6.599919     20.48401     75.03709        19     1.179     1.129 -24.41   0
        61    164.3114    842.7871 299.9539123 +22.6724386     1635.562     72.54926      1.857     3.53     6.852648     20.48401     163.3301        25     1.322     1.197  10.71   0
        62    199.3862   1004.2532 299.9122949 +22.7292680     1384.323     72.64174      4.590     8.34      82.6545     20.48401     57.12602        21     1.597     1.219  75.08   3
        63    990.1577    830.5701 300.2151308 +22.9165220     2062.171     72.64174      1.867     4.76     4.735751     20.48401     124.7566        30     1.424     1.274  66.02   0
        64    695.5206    830.6149 300.1232317 +22.8282507     360.5147     72.62325      1.965     5.12     3.864884     20.48401     31.29404         6     0.947     0.781  79.75   0
        65    774.0538    824.6322 300.1496568 +22.8500691     584.4725     72.62325      1.677     4.90     4.234803     20.48401     49.51809        12     1.117     0.920  40.97   0
        66    196.8274    824.0035 299.9701310 +22.6768069     355.8805     72.56776      1.829     5.88     5.591237     20.48401     31.40342         7     1.166     0.835  50.74   0
        67    641.8553    818.3422 300.1104995 +22.8086411     4853.345     72.66022      1.626     3.35     3.822383     20.48401     403.8391        34     1.263     1.231 -13.20   0
        68    131.5965    818.8237 299.9515330 +22.6557493     440.1086     72.56776      1.631     4.92      5.26892     20.48401     39.77743         9     1.061     0.690  41.48   0
        69    444.0778    815.2855 300.0498960 +22.7484675     568.3376     72.71564      1.566     3.92     4.089667     20.48401     71.85015        11     1.072     0.835   7.91   0
        70    380.3838    812.7361 300.0308990 +22.7286348     66.98152     72.58627      1.354     4.88     4.351256     20.48401     28.58684         6     1.212     0.556  62.48   0
        71    192.1212    812.0375 299.9725583 +22.6719625      1275.58     72.58627      1.761     3.50     5.158617     20.48401     139.6314        25     1.337     1.160 -16.14   0
        72    662.4541    811.0104 300.1193022 +22.8127102     591.8759     72.60476      1.376     3.37     3.856013     20.48401      76.4239        14     0.975     0.964   1.03   0
        73    211.4127    809.6387 299.9793375 +22.6770621     381.7733     72.60476      1.734     5.06       5.0121     20.48401     42.29023         6     0.990     0.732  -6.53   0
        74    818.0366    798.1548 300.1719803 +22.8556437     4204.208     72.64174      1.660     3.40     4.621229     20.48401      321.049        33     1.276     1.270 -28.42   0
        75    226.4521    792.1260 299.9897087 +22.6765499     544.5465     72.62325      1.471     4.85     4.690524     20.48401     59.24708         8     0.998     0.668  37.01   0
        76    535.1710    790.7476 300.0862388 +22.7687371     672.7061     72.62325      1.728     4.49     4.181465     20.48401     61.93285        12     1.219     0.867  21.30   0
        77    181.4149    788.4892 299.9768852 +22.6619955     1113.719     72.54926      1.809     3.20     4.702447     20.48401     128.5815        20     1.355     1.037 -84.94   0
        78    330.9701    780.5609 300.0259830 +22.7045819     53557.82     72.60476      1.643     3.30     4.563779     20.48401     5700.724        99     1.473     1.426  39.25   0
        79    596.8206    783.8570 300.1076818 +22.7852400      549.549     72.60476      1.564     5.28     4.030799     20.48401     43.94437        12     1.146     0.783   3.87   0
        80    588.9563    779.7749 300.1065592 +22.7817106     1655.898     72.62325      1.518     3.33     4.078958     20.48401     146.3586        22     1.158     1.072  20.41   0
        81   1002.0274    778.8928 300.2356396 +22.9052273     964.8582     72.54926      2.041     8.33     4.590217     20.48401     67.76173        21     1.612     1.204   3.67   0
        82    259.6866    778.6991 300.0044112 +22.6826671     552.3541     72.77101      1.593     3.73     4.656446     20.48401     58.35662        11     1.002     0.937 -68.37   0
        83    617.6641    775.6835 300.1168328 +22.7891410     982.6636     72.71564      1.640     3.60     4.058032     20.48401     94.03134        18     1.147     1.022  11.53   0
        84     16.9327    774.5528 299.9302878 +22.6086448      836.775     72.58627      2.389     5.87      4.36709     20.48401     77.81257        18     1.653     1.007  47.25   0
        85    629.1682    773.9381 300.1209845 +22.7920880     628.9919     72.62325      1.554     3.70     4.079574     20.48401     72.14534        13     1.071     0.841  44.70   0
        86    949.2250    771.2267 300.2216556 +22.8872090     343.2534     72.56776      1.431     4.24     4.717588     20.48401     39.16564         8     1.055     0.787  18.39   0
        87    734.2700    770.3986 300.1548892 +22.8225705     518.6617     72.53075      1.527     3.81     4.100572     20.48401     53.79564         9     0.891     0.751  82.76   0
        88    771.4238    760.6393 300.1696444 +22.8309005     642.2357     72.64174      1.538     3.84     4.339915     20.48401     67.09238        14     1.084     0.893  28.94   0
        89    380.7050    757.8219 300.0488527 +22.7129714     31230.94     72.51224      1.588     3.33     4.432826     20.48401     3200.664        70     1.371     1.326  61.55   0
        90    395.0159    758.3151 300.0531464 +22.7174044     2022.313     72.56776      1.504     3.10      4.39608     20.48401     199.2245        23     1.113     1.087  51.08   0
        91    903.9263    753.9827 300.2131299 +22.8686851     2786.579     72.60476      1.655     3.50     4.743882     20.48401       227.71        26     1.262     1.120  -2.43   0
        92    391.7675    752.4514 300.0540416 +22.7147473     652.7342     72.62325      1.726     3.50     4.418645     20.48401     61.31633        12     1.019     0.838  11.74   0
        93    933.8301    752.6758 300.2228838 +22.8772670     367.1213     72.60476      1.601     4.03     4.760072     20.48401     27.96457         6     1.120     0.415 -11.99   0
        94    661.5076    749.9715 300.1388528 +22.7948982     978.5302     72.54926      1.494     3.34     4.304924     20.48401     90.89336        16     1.038     0.951   1.65   0
        95    263.2649    749.6975 300.0149522 +22.6754191     768.0609     72.71564      1.608     3.51     4.573592     20.48401     93.25308        19     1.188     1.077 -30.48   0
        96    498.0789    749.7060 300.0880307 +22.7458346     462.7464      72.7341      1.466     3.80     4.256188     20.48401     56.29036         9     0.967     0.658  47.89   0
        97    508.9771    744.7939 300.0930212 +22.7476916     718.1403     72.58627      1.331     2.77       4.2653     20.48401     105.2234        15     1.027     0.864 -12.12   0
        98     68.6148    745.1644 299.9559019 +22.6157249      444.484     72.60476      1.440     2.30     4.440744     20.48401     62.92727         6     0.744     0.479  81.60   0
        99    909.7969    741.7672 300.2189326 +22.8669336     505.8659     72.58627      1.575     4.54     4.753627     20.48401      51.4915        12     1.049     0.952  23.82   0
       100    410.8214    741.0449 300.0636802 +22.7171868     259.4823     72.66022      1.380     4.30     4.416687     20.48401     40.14562         5     0.805     0.654  41.61   0
       101    454.6004    739.0948 300.0779426 +22.7297532     456.4055     72.47519      1.456     5.51     4.332896     20.48401     45.62393        10     1.262     0.699 -75.12   0
       102    366.9466    740.0721 300.0503407 +22.7037514      282.751     72.60476      1.493     4.90     4.484419     20.48401     31.65408         8     0.876     0.776  -6.56   0
       103    662.9402    739.1479 300.1428178 +22.7922191     408.9846     72.66022      1.600     3.57     4.401106     20.48401      39.6821         5     1.133     0.324   7.71   0
       104     96.7549    738.6709 299.9667591 +22.6223055     546.6475     72.56776      1.712     3.71     4.440372     20.48401     76.38202        13     1.173     1.054 -10.38   0
       105    887.8704    736.4650 300.2138165 +22.8588421     420.7384     72.64174      1.594     5.09     4.718026     20.48401     38.17317         7     0.996     0.734  46.41   0
       106    260.9852    733.8325 300.0194001 +22.6701830     551.0024     72.58627      1.577     5.47     4.528805     20.48401      50.1405        13     1.074     0.918  44.71   0
       107    584.1735    724.7426 300.1229596 +22.7644751     362.4259     72.60476      1.417     3.97     4.343528     20.48401      43.4044        10     1.022     0.766  32.72   0
       108    553.9693    722.5110 300.1142767 +22.7547810     733.4785     72.58627      1.701     3.71     4.312607     20.48401     72.20723        14     1.130     0.869  60.12   0
       109    463.1764    721.9205 300.0861951 +22.7273941     352.5246     72.56776      1.422     4.60     4.345022     20.48401     33.90708         8     0.855     0.704  44.31   0
       110    970.3378    719.1559 300.2451714 +22.8785686     4536.069     72.62325      1.737     3.68     4.530589     20.48401     345.6186        37     1.348     1.341  71.09   0
       111    575.6450    720.1671 300.1217902 +22.7606050     1340.625     72.66022      1.428     3.07     4.343461     20.48401     139.3801        20     1.160     1.008  50.54   0
       112    495.6911    719.5295 300.0970963 +22.7364553     264.8934     72.77101      1.091     2.71     4.315515     20.48401     56.08735         6     0.956     0.521 -33.27   0
       113    958.7472    710.5718 300.2443451 +22.8726303     1828.113     72.62325      1.700     3.71     4.602058     20.48401      157.622        26     1.281     1.214 -13.46   0
       114    338.1707    705.1740 300.0527288 +22.6851063     236.1524     72.60476      1.241     4.37     4.500687     20.48401      26.9594         5     0.780     0.698 -44.65   0
       115    321.8671    704.4193 300.0479011 +22.6800007     865.1787     72.56776      1.517     3.64     4.497412     20.48401     98.06086        16     1.187     0.901  17.28   0
       116    989.9971    700.7931 300.2572750 +22.8791784     1751.902     72.41959      1.748     3.95     4.403807     20.48401     135.8223        29     1.400     1.193  64.93   0
       117    785.1041    701.9708 300.1929810 +22.8181455      2591.42     72.54926      1.618     3.21     4.409519     20.48401     237.4752        28     1.438     1.056  -1.36   0
       118      7.5692    691.9979 299.9542106 +22.5821591      873.863     72.56776      1.857     4.43      4.40189     20.48401     70.34018        16     1.373     0.877 -26.15  16
       119    867.6295    687.8564 300.2233034 +22.8388115     554.7141     72.60476      1.884     5.01     4.686255     20.48401     48.12062         9     1.278     0.750  38.40   0
       120    170.9846    687.8676 300.0063481 +22.6299993     664.1125     72.58627      1.663     3.87     4.658387     20.48401     82.33759        12     1.149     0.971  83.49   0
       121    903.5284    678.8028 300.2374436 +22.8469622     148684.8     72.54926      1.617     3.43     4.756921     20.48401     13088.32       155     1.486     1.466  60.56   0
       122    666.0739    682.7758 300.1621173 +22.7769672     427.5402     72.64174      1.334     3.91     4.434415     20.48401     49.87112         6     0.779     0.609  67.29   0
       123    755.8671    679.2312 300.1912565 +22.8028533     739.9774     72.60476      1.353     3.22      4.40955     20.48401     72.95385        12     1.018     0.760   2.18   0
       124    509.2015    679.2112 300.1144073 +22.7289290     162.5313     72.41959      1.209     4.40     4.393742     20.48401     23.24758         5     0.772     0.714 -49.79   0
       125    936.6598    672.1065 300.2499559 +22.8549603     382.0114     72.69717      1.568     4.36     4.757591     20.48401     44.56094         7     0.969     0.558  -7.80   0
       126    523.5105    669.4751 300.1220274 +22.7304222     307.5064     72.77101      1.580     5.66     4.452207     20.48401     36.29313         6     1.237     0.730  36.16   0
       127    513.0918    670.1410 300.1185664 +22.7274906     509.9052      72.6787      0.525     2.38     4.443235     20.48401     326.7353         5     0.519     0.328  51.73   0
       128    589.8229    667.5748 300.1432997 +22.7497511     1588.164     72.56776      1.385     2.58     4.522726     20.48401     226.2679        17     0.973     0.960  36.01   0
       129    771.0056    664.9019 300.2006330 +22.8032718     9459.714     72.49371      1.458     2.99     4.415868     20.48401     1010.403        42     1.226     1.194  28.75   0
       130    272.5090    659.8335 300.0470339 +22.6524032       5108.2     72.58627      1.568     2.90     4.421199     20.48401      619.223        34     1.247     1.174  39.87   0
       131    354.4176    658.0735 300.0730913 +22.6764584     1177.489     72.60476      1.580     3.14     4.500252     20.48401     140.1777        17     1.119     0.999 -77.87   0
       132    230.0750    655.6781 300.0351847 +22.6384852     599.1785     72.71564      1.977     3.90     4.397914     20.48401     51.85252        11     1.206     0.724 -22.64   0
       133    562.6955    653.5615 300.1394032 +22.7375966     715.9459     72.58627      1.388     2.64     4.695895     20.48401      114.452        14     1.014     0.835 -46.31   0
       134    554.4786    645.6954 300.1393999 +22.7328750      3384.82     72.71564      1.430     2.49     4.807597     20.48401     443.4958        25     1.109     1.075  36.65   0
       135    544.6264    639.3383 300.1383969 +22.7280966     1362.006     72.60476      1.359     2.56     4.906529     20.48401     173.8763        21     1.078     1.030 -73.53   0
       136    473.2692    638.6321 300.1164048 +22.7065066     345.2844     72.58627      1.368     4.47     4.770261     20.48401     43.42253         5     1.056     0.537 -57.30   0
       137    938.0173    636.9909 300.2617911 +22.8452738     510.3677     72.54926      1.451     4.17     4.841982     20.48401     58.35076        10     1.004     0.713  65.44   0
       138    208.0476    635.4323 300.0349121 +22.6260691     648.6719     72.64174      1.453     3.89     4.497681     20.48401     78.41084        14     1.185     0.853 -46.53   0
       139    222.4325    634.1599 300.0397994 +22.6300179     660.3713     72.64174      1.423     3.36     4.413382     20.48401     84.27193        12     0.997     0.823 -56.59   0
       140    854.2988    631.6524 300.2374107 +22.8186673      1700.87     72.69717      1.093     2.51     4.704307     20.48401     758.2676         8     1.146     0.447  48.29   0
       141    991.6262    630.3677 300.2806711 +22.8594225     541.4121     72.60476      1.770     5.23     4.843249     20.48401     56.19171        11     1.162     0.881  36.04   0
       142    279.2618    630.9722 300.0585124 +22.6461445     298.6615     72.60476      1.399     2.59     4.424448     20.48401     47.88272         6     0.851     0.456 -49.10   0
       143    248.0954    630.8766 300.0488483 +22.6367714     505.9256     72.71564      1.303     2.61     4.407661     20.48401     70.11433         9     0.791     0.713   0.45   0
       144    568.7527    629.5540 300.1490909 +22.7325169     435.5844     72.62325      1.154     2.85     5.062476     20.48401     83.96847         8     0.817     0.751  59.00   0
       145    469.4331    629.1470 300.1182923 +22.7026331     1746.736     72.62325      1.419     2.71     4.843848     20.48401      211.309        20     1.058     1.007  26.71   0
       146    503.8112    628.4913 300.1292101 +22.7127489     199.7088     72.54926      0.930     2.24     4.988668     20.48401      42.7594         5     0.701     0.474 -17.93   0
       147    123.3820    623.9164 300.0123272 +22.5973717     20052.66     72.56776      1.679     3.22     4.582726     20.48401     2300.647        68     1.469     1.386  33.30   0
       148     44.5775    625.9127 299.9871837 +22.5743059     790.0323     72.53075      2.110     4.20     4.227211     20.48401     78.70319        15     1.339     0.894 -31.65   0
       149    554.4183    624.5391 300.1462554 +22.7267809     1027.644     72.56776      1.315     2.38     5.128108     20.48401      153.044        15     0.987     0.869 -74.37   0
       150    589.6821    623.4510 300.1575935 +22.7370360     274.2581     72.62325      1.350     3.41     5.179611     20.48401     46.04276         6     0.845     0.530  45.33   0
       151    471.7747    621.5334 300.1214951 +22.7011488     283.8234     72.58627      1.222     3.06     4.934939     20.48401     40.96378         5     0.731     0.479  14.61   0
       152    609.4423    616.3204 300.1660664 +22.7409091      211.991     72.58627      1.025     3.47     5.290409     20.48401     38.60506         5     0.745     0.467  73.12   0
       153    972.4880    611.0177 300.2809863 +22.8481295     898.3959     72.54926      1.469     3.50     4.993585     20.48401     97.56424        14     1.092     0.878 -30.81   0
       154     69.5381    607.9391 300.0007804 +22.5766369      1608.55     72.64174      1.931     4.43     4.291112     20.48401     125.3584        32     1.648     1.203  87.80   0
       155    839.1785    608.7599 300.2401333 +22.8075597     500.7599     72.64174      1.654     5.02     4.655118     20.48401     44.01513         9     0.877     0.813  81.45   0
       156    135.6616    608.2638 300.0212300 +22.5965634     454.8339     72.64174      1.661     6.25     4.672681     20.48401     43.42586        11     1.332     0.825  26.47   0
       157    517.6960    605.1729 300.1411102 +22.7102137     527.9886     72.53075      1.363     2.52     5.279904     20.48401     70.32419         9     0.847     0.682  21.68   0
       158    912.0827    603.5364 300.2645703 +22.8278915      1020.18     72.71564      2.086     5.25     4.864762     20.48401     92.81921        20     1.646     0.926   7.47   0
       159    474.5128    597.2791 300.1302276 +22.6950045       543.67     72.75256      1.427     3.53     5.104786     20.48401      72.3125        11     1.068     0.743   5.52   0
       160    622.6707    596.0598 300.1767703 +22.7390528       463.89     72.64174      1.213     2.66     5.275831     20.48401     77.98206         8     0.835     0.691  -2.37   0
       161    669.5916    594.4835 300.1919031 +22.7526580     430.7712     72.54926      1.434     3.39     4.901536     20.48401     53.82058        12     0.977     0.864  19.36   0
       162    640.0149    594.0715 300.1828204 +22.7436783     661.3726     72.60476      1.484     3.64      5.14183     20.48401     69.89942        11     1.143     0.763 -82.72   0
       163    519.0019    593.3705 300.1453512 +22.7072154     888.5538     72.56776      1.456     3.05     5.283218     20.48401     116.7874        12     1.167     0.621  36.10   0
       164    952.5637    588.8725 300.2819643 +22.8357977     3265.604     72.54926      1.538     3.09     4.943654     20.48401     322.1727        30     1.215     1.142 -11.29   0
       165    484.2450    588.6431 300.1360635 +22.6954413     1722.153     72.66022      1.387     2.85     5.167218     20.48401     221.1284        19     1.068     0.960   3.83   0
       166    849.5688    586.3309 300.2506608 +22.8042253     209.6227     72.58627      1.030     3.08     4.742056     20.48401     45.50967         5     0.963     0.325  22.03   0
       167    834.3438    584.5898 300.2464782 +22.7991653     241.1432     72.60476      1.391     5.35     4.666587     20.48401     27.79749         6     1.115     0.724 -81.52   0
       168     46.2327    582.1465 300.0019156 +22.5622461     5176.522     72.62325      1.741     3.15      4.16889     20.48401     526.3882        39     1.368     1.336 -21.90   0
       169    513.6545    579.5777 300.1481666 +22.7016515     290.7119     72.62325      1.283     2.99     5.266647     20.48401     51.20227         7     0.827     0.658  64.77   0
       170    347.7400    575.3417 300.0978919 +22.6507057     9216.663      72.6787      1.443     2.68     4.747044     20.48401      1081.89        39     1.191     1.153  60.21   0
       171    470.1389    572.3416 300.1369667 +22.6865321     9098.514     72.66022      1.405     2.62     5.095524     20.48401     1014.986        42     1.194     1.167  55.18   0
       172    874.3788    569.9822 300.2637101 +22.8069561     206.0782     72.58627      1.095     4.34     4.823278     20.48401     37.17107         6     1.089     0.491  38.32   0
       173    235.2107    569.7463 300.0646993 +22.6153621     499.4295     72.60476      2.549     4.95     4.322694     20.48401     35.42006         8     1.035     0.671 -53.92   0
       174    716.0975    568.5190 300.2148323 +22.7591299     317.3019      72.7341      1.470     5.62     4.866717     20.48401     29.02191         9     1.057     0.841 -67.57   0
       175    881.7377    566.4625 300.2671488 +22.8081480     1854.379     72.64174      1.480     2.81     4.827007     20.48401     225.8646        20     1.096     0.982 -81.83   0
       176    966.5092    563.8962 300.2944296 +22.8327927     12477.65     72.78946      1.546     3.21     4.976599     20.48401     1158.347        47     1.314     1.247 -69.81   0
       177    530.7474    562.0016 300.1591993 +22.7017256     11589.31     72.56776      1.368     2.59      5.32299     20.48401     1572.754        41     1.177     1.103  69.00   0
       178    700.2872    557.7285 300.2134096 +22.7512933     561.1158     72.75256      1.407     3.68     4.991139     20.48401     73.65707        12     1.139     0.789 -69.01   0
       179    258.1748    557.3735 300.0758613 +22.6186958      1429.22     72.56776      1.509     3.02     4.353428     20.48401     163.7004        18     1.071     0.988  25.38   0
       180    416.0910    556.7475 300.1252055 +22.6658550     234.7961     72.66022      1.335     3.84     4.918357     20.48401     34.05343         6     0.950     0.444 -37.84   0
       181    504.9489    555.3055 300.1533399 +22.6920714     406.2297      72.6787      1.385     3.29     5.236818     20.48401     55.18367         5     0.788     0.398 -19.94   0
       182    805.1858    550.5097 300.2484565 +22.7806380     855.1021     72.54926      1.483     2.80     4.631444     20.48401     112.1106        14     0.986     0.874  60.93   0
       183    462.3884    550.1636 300.1417574 +22.6778400     4377.075     72.58627      1.344     2.52     5.103021     20.48401     535.2397        29     1.118     1.044  44.38   0
       184    440.7242    548.5437 300.1355386 +22.6708821     1287.356     72.64174      1.386     2.86     5.048071     20.48401      165.941        15     1.015     0.892  52.67   0
       185    194.9674    548.2018 300.0591806 +22.5971113      677.048     72.56776      1.493     3.47     4.366557     20.48401     64.69925        13     1.034     0.841   5.86   0
       186    882.2147    545.9820 300.2739504 +22.8024037     1583.894     72.58627      1.582     3.39      4.82571     20.48401     131.4944        21     1.202     1.000 -37.54   0
       187    579.0516    537.7455 300.1821237 +22.7092317     203898.1     72.64174      1.381     2.54     5.373178     20.48401     27944.95       190     1.413     1.383 -13.87   0
       188    403.1007    543.8350 300.1253559 +22.6582535     256.6779     72.58627      0.957     1.79     5.014646     20.48401      64.6007         6     0.692     0.525 -50.14   0
       189    762.6067    542.8831 300.2376579 +22.7656939     896.2316     72.53075      1.375     3.17     4.862314     20.48401     118.3955        14     1.052     0.935 -30.53   0
       190    265.0693    537.5818 300.0844342 +22.6150813     3568.799     72.62325      1.442     2.69     4.408418     20.48401      448.316        29     1.163     1.108  21.84   0
       191    831.0369    533.9128 300.2619087 +22.7836094     577.4579     72.58627      1.498     3.70     4.710816     20.48401     59.29847        12     1.034     0.832  27.40   0
       192    610.9178    524.6608 300.1963010 +22.7150198     229.5747     72.69717      1.185     4.12     5.358735     20.48401     41.87441         6     1.174     0.414  12.10   0
       193    469.6166    518.3045 300.1543553 +22.6708560     2745.212     72.53075      1.442     2.32     5.054498     20.48401       387.35        27     1.495     0.964 -85.62   0
       194    314.0500    520.4069 300.1052509 +22.6248339     366.7263     72.60476      1.318     3.11     4.797494     20.48401     43.99125         7     0.727     0.667  18.43   0
       195    920.2238    518.2615 300.2948112 +22.8058150     196.6931     72.60476      1.084     3.42     4.746465     20.48401     38.68105         5     1.172     0.288 -34.63   0
       196    880.9190    514.5869 300.2837434 +22.7929906      407.581     72.58627      1.623     3.81     4.737668     20.48401     44.92631         8     0.849     0.770  27.21   0
       197    787.0399    506.9000 300.2569626 +22.7626695     437.7556     72.58627      1.313     3.66     4.693615     20.48401     46.40458         8     0.864     0.634 -39.79   0
       198    866.8370    504.4228 300.2826521 +22.7858522     1639.148     72.62325      1.339     2.57     4.705409     20.48401     215.9382        20     1.094     0.955  -4.67   0
       199    737.9025    502.0085 300.2432318 +22.7465479      2590.65     72.47519      1.337     2.46     4.871535     20.48401     348.7453        21     1.005     0.980  45.16   0
       200    982.2229    499.3548 300.3202967 +22.8189394     593.2836     72.64174      1.754     4.63     4.759606     20.48401     51.59701         8     0.907     0.671 -45.99   2
       201    980.8517    494.9386 300.3213030 +22.8172591     768.1829     72.66022      1.673     4.98     4.735409     20.48401       65.199        13     1.138     0.936  55.79   2
       202    947.2255    499.1596 300.3094395 +22.8084067     386.2849     72.66022      1.690     3.93     4.714132     20.48401     37.35022         6     0.767     0.576  41.72   0
       203    642.7660    499.0955 300.2145269 +22.7172151     252.0942     72.60476      1.019     2.16     5.221133     20.48401     72.70385         6     0.721     0.535 -42.68   0
       204    525.2219    497.8540 300.1783124 +22.6816437     743.6931     72.62325      1.250     2.74     5.223876     20.48401     111.6471        11     0.984     0.743  89.76   0
       205    995.0642    496.0814 300.3253672 +22.8218420      1335.81     72.71564      1.435     3.33     4.757068     20.48401     130.1467        20     1.218     0.963  38.81   0
       206    866.9519    494.3281 300.2859663 +22.7829846     2282.176     72.58627      1.742     3.67     4.676083     20.48401     272.6133        27     1.520     1.037  74.01   0
       207    620.2657    492.6612 300.2096056 +22.7086262     789.2916     72.64174      1.887     2.92     5.292692     20.48401     81.43383         9     0.929     0.673  38.08   0
       208    905.0496    489.5520 300.2994012 +22.7930179     4359.666     72.64174      1.427     2.64     4.664352     20.48401     531.1742        29     1.175     1.093  68.72   0
       209    458.8887    491.1087 300.1598468 +22.6598300     412.6138     72.77101      1.361     3.33     4.984208     20.48401     65.31151        10     1.066     0.710   1.31   0
       210    546.1296    489.1129 300.1876628 +22.6853968     389.5504      72.7341      1.294     2.97     5.321217     20.48401     46.78372         5     0.760     0.514 -31.43   0
       211    405.7630    492.2183 300.1429475 +22.6442282     314.5721     72.60476      1.416     3.76     5.014646     20.48401     34.69062         5     0.852     0.477 -44.42   0
       212    466.3860    488.6268 300.1629870 +22.6613637     205.0991     72.62325      1.201     3.41     4.973775     20.48401     28.38666         5     1.059     0.318  21.17   0
       213    565.8742    485.3441 300.1950367 +22.6902295     367.2526     72.64174      1.244     2.37     5.318158     20.48401     57.92254         7     0.801     0.560  39.71   0
       214    996.9734    480.1997 300.3311206 +22.8178464     682.3873     72.56776      1.377     3.97     4.660776     20.48401     78.55993        12     1.110     0.803 -35.79   0
       215    137.1367    479.5098 300.0635050 +22.5600542     1209.772     72.69717      1.735     3.56      4.48415     20.48401     119.8705        19     1.232     1.022  22.47   0
       216    798.1876    473.7552 300.2712021 +22.7564806      270.658     72.60476      1.184     2.85     4.627007     20.48401     55.67107         6     0.966     0.389  12.02   0
       217    993.3602    469.1810 300.3335711 +22.8135962     284.4199     72.62325      1.165     2.90     4.659262     20.48401     47.01785         5     0.738     0.441  71.33   0
       218    737.6445    464.1181 300.2554555 +22.7355805     307.0944     72.56776      1.038     2.61     4.759188     20.48401     67.73259         6     0.722     0.609  25.72   0
       219    626.1379    461.8006 300.2214561 +22.7015176     338.6927     72.56776      1.303     2.72     5.189798     20.48401     48.53297         6     0.782     0.634  -9.76   0
       220    678.6266    459.9344 300.2384185 +22.7167028     772.3756     72.58627      1.298     2.68     4.970301     20.48401     110.6876        12     0.937     0.842 -18.17   0
       221    656.5990    458.4496 300.2320359 +22.7096786      219.942     72.58627      1.250     3.94     5.046694     20.48401      31.1689         5     1.010     0.440 -14.84   0
       222    993.3823    452.3282 300.3390503 +22.8087562     528.3065     72.60476      1.424     3.70     4.659262     20.48401     76.77177        12     1.047     0.853   2.90   0
       223    739.3532    452.1520 300.2598736 +22.7326528     884.5823     72.62325      1.267     2.72     4.727221     20.48401     110.7984        12     1.008     0.702  11.49   0
       224    896.6606    448.3927 300.3101494 +22.7786722     987.8442     72.58627      1.478     3.05     4.545442     20.48401     138.0246        16     1.161     0.923  78.29   0
       225    854.8605    446.1967 300.2978241 +22.7655268     243.0362     72.58627      1.335     3.65     4.544055     20.48401     38.05215         5     0.735     0.698  11.77   0
       226    880.9395    444.8482 300.3063962 +22.7729466     537.1222     72.66022      1.340     3.01     4.539201     20.48401     74.25612         9     0.902     0.675 -28.32   0
       227    861.3865    445.0218 300.3002410 +22.7671428     281.7324     72.58627      1.317     3.82     4.541372     20.48401     41.52277         7     0.887     0.657 -23.64   0
       228    625.1342    442.7245 300.2273370 +22.6957352     3226.082     72.69717      1.311     2.23     5.121716     20.48401     493.7515        23     1.034     0.984  85.24   0
       229    985.5774    441.5293 300.3401208 +22.8033145     457.9148     72.64174      1.314     3.54     4.644458     20.48401     77.11232        11     1.042     0.805 -82.31   0
       230    101.1798    433.9931 300.0671036 +22.5362080     379.9639     72.56776      1.395     3.21     4.806127     20.48401     51.98385         7     0.897     0.528 -40.93   0
       231    396.6888    430.6759 300.1601046 +22.6238331     301.5258      72.7341      1.233     3.49     4.918336     20.48401     45.72832         6     0.716     0.652  -2.72   0
       232    465.0009    429.3107 300.1818146 +22.6439098     389.5747     72.53075      1.277     3.20      4.91797     20.48401     64.95993         7     0.872     0.614  56.81   0
       233    994.8110    420.7645 300.3497442 +22.8001060     1036.922     72.60476      1.483     2.95      4.66541     20.48401     130.3461        17     1.238     0.967  41.64   0
       234    908.2323    421.7142 300.3224211 +22.7744649     576.8835     72.56776      1.474     3.32     4.470103     20.48401     64.64125        11     1.012     0.757  13.86   0
       235    644.8167    418.6078 300.2412995 +22.6946998     295.6598     72.53075      1.287     2.16     4.911459     20.48401      47.8875         5     0.698     0.448  21.15   0
       236    735.7072    416.5833 300.2702848 +22.7213370     986.9981     72.53075      1.167     2.06     4.648695     20.48401     192.0394        15     0.997     0.833  68.71   0
       237    531.4664    417.3672 300.2063900 +22.6603909     466.5935     72.60476      1.179     2.98     5.072381     20.48401     62.18283         7     0.829     0.592  15.02   0
       238    239.6463    414.4795 300.1164962 +22.5721162     627.3002     72.60476      1.481     3.59     4.461605     20.48401     88.86272        12     1.074     0.798  47.47   0
       239    812.1415    412.0721 300.2955804 +22.7429260     215.9278     72.64174      1.182     3.94     4.466249     20.48401      34.7216         5     0.832     0.535 -37.81   0
       240    302.0216    410.4820 300.1371988 +22.5896635     3819.098     72.56776      1.388     2.49     4.579376     20.48401     483.1749        27     1.172     1.018  45.97   0
       241    249.2413    405.2215 300.1224860 +22.5723338     7664.685     72.64174      1.438     2.68     4.490837     20.48401     877.0386        38     1.261     1.128  67.20   0
       242   1015.1006    400.3322 300.3627098 +22.8003013     1882.384     72.69717      1.476     2.80     4.649527     20.48401     202.8384        26     1.229     1.072  37.79   0
       243    390.0422    399.4425 300.1681747 +22.6128700     5015.761     72.71564      1.387     2.57     4.882998     20.48401     656.6656        33     1.222     1.102  42.89   0
       244    634.2953    396.2437 300.2452809 +22.6851212     18743.34     72.62325      1.300     2.36     4.862329     20.48401     2438.515        50     1.232     1.094  73.11   0
       245    481.9579    398.2006 300.1971936 +22.6400524      292.157     72.62325      1.262     3.64     4.913341     20.48401     40.29589         5     1.083     0.352 -10.73   0
       246    651.6879    396.5952 300.2505865 +22.6904311     745.1489     72.51224      1.755     6.52     4.744164     20.48401      74.6483        16     1.697     0.826 -44.49   0
       247    627.8429    404.9026 300.2404596 +22.6856773     286.8669     72.60476      1.238     3.26     4.947077     20.48401     50.19276         8     0.855     0.733 -10.40   0
       248    877.7908    392.6188 300.3223703 +22.7569859     284.0393     72.56776      1.236     4.49      4.46111     20.48401     44.32234         7     0.974     0.634 -44.97   0
       249    831.3798    386.8481 300.3097681 +22.7414333      338.278     72.64174      1.408     2.34     4.466249     20.48401     51.90088         6     0.698     0.607  26.90   0
       250    254.3793    383.3703 300.1311768 +22.5675989     485.8017     72.60476      1.467     3.12     4.562235     20.48401     54.54855         8     0.951     0.733 -58.09   0
       251    967.7325    378.9074 300.3548818 +22.7799631     795.5873     72.75256      1.369     3.01       4.4868     20.48401     89.39346        13     0.999     0.820  64.14   0
       252    504.9392    378.0900 300.2108778 +22.6411589     285.9011     72.69717      1.287     3.75     4.939591     20.48401     46.05144         7     0.894     0.626  69.08   0
       253    678.0235    377.0790 300.2651285 +22.6927083     445.7326     72.56776      1.893     5.05     4.473595     20.48401     34.61023         7     1.066     0.678 -71.86   0
       254    188.9461    376.2639 300.1131311 +22.5459460       2144.9     72.64174      1.487     2.87     4.634606     20.48401     218.4058        25     1.180     1.049  32.17   0
       255    845.1624    368.2068 300.3201173 +22.7401990     298.8338     72.62325      1.450     4.27     4.466249     20.48401     40.23467         6     0.791     0.656 -58.49   0
       256    574.9867    365.6730 300.2367256 +22.6585724     6741.562     72.62325      1.324     2.30     4.918706     20.48401     1046.104        34     1.143     1.055  58.76   0
       257    988.5572    366.1908 300.3655081 +22.7825375      1251.47     72.62325      1.527     3.16     4.469548     20.48401     132.6766        16     1.070     0.914  45.18   0
       258    289.8307    364.8326 300.1482224 +22.5728997     538.8038     72.62325      1.378     3.23     4.783602     20.48401      81.1264        13     1.043     0.837  54.53   0
       259    147.5331    358.4447 300.1060362 +22.5284160      624.759     72.60476      1.508     2.96     4.900074     20.48401     74.97767        10     1.008     0.678  17.86   0
       260    834.9934    357.6161 300.3203832 +22.7341096     348.6129     72.53075      1.379     2.55     4.466249     20.48401     64.15986         5     0.685     0.637 -87.73   0
       261    779.0941    354.6629 300.3039105 +22.7165263     1191.357     72.69717      1.414     2.69     4.468194     20.48401     149.8843        21     1.294     0.944  68.16   0
       262    688.6745    356.0300 300.2752799 +22.6898471     543.5969     72.62325      1.299     2.47     4.366131     20.48401     74.89351        10     0.838     0.760  48.09   0
       263    481.5316    351.9175 300.2120829 +22.6266267     6185.983     72.71564      1.324     2.34     4.931446     20.48401     915.3874        36     1.169     1.052  58.91   0
       264    970.6415    346.7401 300.3662303 +22.7715812     621.4392     72.58627      1.382     2.69     4.455153     20.48401     93.37053        12     1.049     0.706  43.16   0
       265    873.5427    346.3312 300.3360692 +22.7424033     1413.395     72.62325      1.413     2.54     4.467586     20.48401     192.1897        18     1.051     1.002  -5.28   0
       266    466.1281    340.5474 300.2109765 +22.6187454     388.5125     72.60476      1.299     4.03     4.922278     20.48401     69.38388         9     1.029     0.643  86.54   0
       267    548.9488    338.5307 300.2374236 +22.6429735     518.2704     72.58627      1.473     1.96     4.874242     20.48401     73.71756         6     0.729     0.488  11.17   0
       268    826.6646    337.1937 300.3244138 +22.7257438     386.9959     72.56776      1.682     4.73     4.481254     20.48401     35.03517         7     1.049     0.604  40.17   0
       269    846.4569    334.2605 300.3315384 +22.7308247     550.9445      72.6787      1.475     2.15     4.484067     20.48401     68.13634         7     0.765     0.562  16.50   0
       270    369.0871    331.0508 300.1838488 +22.5869449      2684.74     72.60476      1.377     2.87     4.867445     20.48401     303.7762        26     1.182     0.976  47.28   0
       271     87.5373    328.6720 300.0970450 +22.5018831     1060.218     72.64174      1.518     3.07     4.976655     20.48401     117.7028        13     1.027     0.778  25.24   0
       272    716.6505    325.6203 300.2938688 +22.6894813     339.3639     72.58627      1.604     3.79      4.58706     20.48401     34.64054         5     0.964     0.427  15.46   0
       273    338.4788    320.4917 300.1777493 +22.5747408     30104.15     72.75256      1.397     2.38     4.860519     20.48401     4369.105        69     1.328     1.174  64.34   0
       274    873.1443    318.3258 300.3450335 +22.7342299     1276.634     72.64174      1.290     2.48     4.496709     20.48401      189.267        16     1.012     0.842   9.75   0
       275    828.4885    316.0639 300.3318396 +22.7202134     324.3637      72.7341      1.155     3.68     4.500948     20.48401     42.21633         6     0.789     0.493 -82.57   0
       276     34.8312    308.2456 300.0872905 +22.4802184     5068.695     72.66022      1.636     3.09     4.954675     20.48401     527.5426        42     1.368     1.312  54.03   0
       277    788.5136    307.1959 300.3222517 +22.7056975     579.7081     72.53075      1.239     2.55      4.55424     20.48401     76.89859         7     0.779     0.616  19.02   0
       278    212.7724    306.8603 300.1430633 +22.5331569     409.5149     72.62325      1.081     2.32     4.842873     20.48401     93.24513         8     0.820     0.646  61.92   0
       279    437.1625    305.8712 300.2132102 +22.6001049     440.2355     72.58627      1.304     2.47     4.890243     20.48401     88.40325         9     0.889     0.657 -70.52   0
       280    748.9279    300.3663 300.3121256 +22.6918835      1980.69     72.60476      1.331     2.41     4.739884     20.48401     294.5234        22     1.154     0.927  72.86   0
       281    557.3117    295.0645 300.2541330 +22.6329858     333.7355      72.7341      1.171     3.31     4.878405     20.48401     47.35675         7     0.709     0.697  71.23   0
       282    963.8848    293.4879 300.3814031 +22.7542407     646.6461      72.7341      1.378     3.47     4.695762     20.48401     76.35589        10     1.075     0.715  29.20   0
       283    817.3152    287.1367 300.3377417 +22.7085501     273.0495     72.71564      1.341     3.28     4.533994     20.48401     44.61875         5     0.763     0.682 -31.21   0
       284    410.6942    284.9346 300.2117633 +22.5861603     2191.804      72.7341      1.547     3.12     4.872659     20.48401     237.6991        25     1.268     1.040  72.34   0
       285    623.2061    283.7472 300.2783339 +22.6494649     342.5038     72.56776      1.253     4.15     4.864526     20.48401     54.73597         8     1.117     0.505 -45.44   0
       286    842.5469    278.8304 300.3483057 +22.7137132     292.0468     72.62325      1.258     2.29     4.543972     20.48401     50.35358         5     0.692     0.481  74.94   0
       287    849.8831    278.0805 300.3508370 +22.7156931     696.0336     72.75256      1.384     2.68     4.539546     20.48401      104.389        12     0.981     0.774  35.85   0
       288    732.1188    275.8053 300.3148545 +22.6797893     365.6235     72.53075      1.237     2.47     4.857208     20.48401     78.96146         8     0.939     0.569 -12.41   0
       289    486.5107    264.3815 300.2420369 +22.6029632     1225.921     72.53075      1.219     2.25     4.852954     20.48401     173.0692        17     0.959     0.896  40.05   0
       290    731.4831    256.2870 300.3209887 +22.6739866     1965.635     72.71564      1.227     2.29     4.868606     20.48401     280.5601        20     1.008     0.957 -76.94   0
       291    992.7383    250.7290 300.4042806 +22.7505721     3357.934     72.64174      1.492     2.70     4.835166     20.48401     403.8723        28     1.181     1.106  82.19   0
       292    538.9390    249.4975 300.2631936 +22.6143865     289.8324      72.6787      1.379     3.70     4.871086     20.48401     35.94437         6     0.791     0.498  -4.61   0
       293    439.6983    240.1314 300.2353275 +22.5819735     603.5681     72.69717      1.288     2.70     4.857794     20.48401     88.13603        11     0.953     0.728  63.12   0
       294    145.3209    234.3656 300.1456048 +22.4921224      594.224     72.54926      1.357     3.40     5.135783     20.48401     57.27687        12     1.024     0.801  -8.43   0
       295    114.5311    234.2042 300.1360840 +22.4828486     1488.714     72.56776      1.727     3.60     5.105914     20.48401     140.9448        22     1.340     0.967 -27.76   0
       296   1008.5613    230.9536 300.4156343 +22.7496158     533.3728     72.66022      1.648     4.27     4.889956     20.48401      49.2282        12     1.019     0.955  75.55   0
       297    198.6485    226.0698 300.1648793 +22.5057200     410.8356     72.58627      1.510     4.72     5.159535     20.48401     55.63234        12     1.138     0.971  86.23   0
       298    874.4277    220.2342 300.3772590 +22.7063994     322.7007     72.62325      1.250     3.42     4.568943     20.48401     44.14502         5     0.727     0.466  72.74   0
       299    802.8188    217.8326 300.3557045 +22.6842791     638.7812     72.60476      1.314     2.80      4.87037     20.48401     114.9499        11     0.922     0.771  47.33   0
       300    393.5240    217.0262 300.2284475 +22.5615036     485.8839     72.62325      1.484     3.17     4.904626     20.48401     68.15869         8     0.898     0.731  50.11   0
       301    893.5678    210.9047 300.3862559 +22.7094427     345.3184     72.58627      1.338     2.99     4.645755     20.48401     58.06515         7     0.904     0.624  65.88   0
       302    901.2341    206.8715 300.3899557 +22.7105763     1988.537     72.60476      1.383     2.31     4.679894     20.48401     305.9128        20     1.032     0.989  68.08   0
       303    319.7941    203.8946 300.2097597 +22.5356451     2264.708     72.49371      1.387     2.47     5.085779     20.48401      316.779        22     1.098     0.974  55.55   0
       304    397.5547    198.7116 300.2356423 +22.5574478     1128.434     72.60476      1.545     4.50     4.967703     20.48401     127.3917        18     1.263     1.012  68.41   0
       305    149.8967    199.2029 300.1584321 +22.4833944     432.0005     72.51224      1.465     5.02     5.235996     20.48401     43.39528         8     1.000     0.714  63.12   0
       306    799.6017    198.2379 300.3610570 +22.6776803     576.7785     72.62325      1.397     2.97     4.946329     20.48401     63.77768         9     0.868     0.693  20.68   0
       307    906.5145    195.6645 300.3952380 +22.7089320     333.3126     72.69717      1.358     2.65     4.773775     20.48401     53.68962         5     0.839     0.489  81.39   0
       308    214.6877    191.0797 300.1812161 +22.5004748     808.1711     72.75256      1.439     3.22     5.295834     20.48401      104.689        15     1.052     0.964 -11.16   0
       309    752.3738    188.2250 300.3495789 +22.6606661     1716.368     72.56776      1.307     2.60     4.910368     20.48401     196.9153        17     1.067     0.870  51.87   0
       310    817.3790    187.6630 300.3700305 +22.6799586     671.5387     72.56776      1.412     3.14     4.946333     20.48401     86.85635        12     0.947     0.909  85.63   0
       311    236.0079    184.3977 300.1900148 +22.5049429     585.8936     72.41959      1.505     2.95     5.315344     20.48401     76.67815        11     0.901     0.865  11.11   0
       312   1023.3240    180.7707 300.4365195 +22.7395910     523.3844     58.44516      1.214     2.67     5.253855     20.48401     95.09337        10     0.949     0.653  75.55  24
       313    756.2737    179.4163 300.3536516 +22.6592997     675.8484     72.60476      1.325     3.05     4.925186     20.48401     103.1455        14     1.132     0.803  58.35   0
       314    676.9391    178.9049 300.3290874 +22.6354073      1220.52     72.69717      1.341     2.38     4.888718     20.48401     187.5587        15     1.083     0.866 -45.70   0
       315    498.3943    175.4991 300.2745673 +22.5809748     266.4072     72.49371      1.153     3.76     4.834259     20.48401     46.29951         6     0.947     0.496  55.15   0
       316    872.3928    170.4186 300.3927816 +22.6914594      1475.76     72.56776      1.395     2.32     4.995677     20.48401     202.0968        16     0.982     0.900 -80.91   0
       317    603.1127    170.5099 300.3088045 +22.6108934     1058.473     72.77101      1.383     2.67     4.896767     20.48401     151.8937        14     1.012     0.864 -88.38   0
       318    884.3071    169.6333 300.3967527 +22.6947983     801.8533     72.54926      1.271     2.90     4.995677     20.48401     116.5793        14     1.034     0.850  62.56   0
       319    443.5281    166.4413 300.2604200 +22.5619415     138.1115     72.58627      1.159     4.19     4.902317     20.48401     30.88162         5     1.010     0.496  -1.94   0
       320   1001.0933    159.8764 300.4363571 +22.7269283     1140.814     72.75256      1.384     2.98      5.32025     20.48401     129.4153        15     1.043     0.858   0.33   0
       321     24.3877    156.6534 300.1332136 +22.4335617     569.5857     72.62325      1.809     3.78     5.239214     20.48401     62.71638         9     1.069     0.744  -9.91   0
       322    235.3022    152.7582 300.2000552 +22.4956415     761.9538     72.60476      1.491     2.17     5.425037     20.48401     112.8283        11     0.916     0.753 -54.14   0
       323     96.9288    147.3244 300.1587865 +22.4526215     2230.973      72.6787      1.578     3.22     5.272025     20.48401     256.2687        26     1.352     1.083  56.71   0
       324    920.2961    144.6946 300.4160676 +22.6983899     653.6946     72.78946      1.288     2.87     5.178966     20.48401     109.4189        14     0.984     0.897 -52.56   0
       325     46.4990    144.7470 300.1439462 +22.4367690     470.2678     72.69717      1.341     3.13     5.247805     20.48401     62.12317         7     0.954     0.539 -20.19   0
       326    254.4171    140.7899 300.2098822 +22.4979290      5789.43     72.56776      1.465     2.61     5.429169     20.48401     797.5643        37     1.279     1.123  52.39   0
       327     38.6550    134.9689 300.1446785 +22.4316101     1248.008     72.62325      1.620     3.39     5.245974     20.48401     133.6233        21     1.211     1.130  88.20   0
       328    238.0311    131.6005 300.2077642 +22.4903800     648.0686     72.56776      1.390     2.74     5.439161     20.48401     93.92171        11     1.030     0.705 -55.01   0
       329    898.5764    122.5404 300.4164752 +22.6855174     3478.341     72.60476      1.433     2.38     5.355156     20.48401     500.3314        27     1.134     1.085 -67.07   0
       330   1002.2666    121.2488 300.4492492 +22.7161623     2754.775     72.60476      1.516     2.72     5.381541     20.48401     368.9123        31     1.260     1.203 -41.23   0
       331    448.1126    117.7092 300.2776488 +22.5493064     733.4073     72.77101      1.356     2.85     4.897213     20.48401      103.377        12     0.970     0.810  76.71   0
       332    200.9922    118.1833 300.2005933 +22.4754293     336.4627     72.54926      1.354     2.69      5.45726     20.48401     55.21829         5     0.794     0.471 -48.80   0
       333    562.5071    115.7287 300.3139174 +22.5829861     364.6389      72.7341      1.113     2.18     4.897095     20.48401     51.20432         5     0.680     0.454  65.59   0
       334    372.2182    109.5390 300.2566711 +22.5242314     601.9685     72.54926      1.414     2.20     5.269689     20.48401     84.26403         8     0.852     0.573 -74.38   0
       335    138.2384    106.6639 300.1848126 +22.4533194     426.5663     72.58627      1.205     3.19     5.437065     20.48401      68.5041        10     0.978     0.768  -8.05   0
       336    499.4317    104.9097 300.2977789 +22.5609922     1598.544     72.54926      1.310     2.58     4.889786     20.48401     213.4528        19     1.077     0.868  69.41   0
       337    427.5530    105.1363 300.2753238 +22.5395359     489.1399     72.62325      1.413     3.21     4.903676     20.48401     77.53357         9     1.027     0.710  60.30   0
       338    561.0682    104.4222 300.3171349 +22.5793042     506.6905     72.62325      1.815     2.74     4.897095     20.48401     49.38034         6     0.770     0.494  -0.67   0
       339    243.2764    100.2166 300.2195707 +22.4829336     471.5414     72.60476      1.522     3.94     5.457243     20.48401     43.92871         8     1.028     0.574 -33.82   0
       340    787.9713     94.5721 300.3910462 +22.6443791     356.1343     72.56776      1.302     1.94     5.593307     20.48401     67.84763         6     0.733     0.488  -8.77   0
       341    933.6412     89.3448 300.4381778 +22.6864541     340.8503     72.56776      1.148     3.00     5.508102     20.48401     50.73347         6     0.811     0.530  46.45   0
       342    684.4249     86.1609 300.3614925 +22.6109744     311.6014     72.62325      1.252     2.16     5.089788     20.48401     40.80211         5     0.689     0.459  69.17   0
       343    273.3763     84.6997 300.2339649 +22.4874903     5987.157     72.54926      1.491     2.64     5.319087     20.48401      810.134        36     1.281     1.127  54.15   0
       344    779.8387     85.4209 300.3914771 +22.6393130     355.5266     72.64174      1.080     2.06     5.594393     20.48401     51.81853         5     0.668     0.476 -16.25   0
       345    124.5503     84.0707 300.1878806 +22.4427279     602.5605     72.60476      1.400     3.05     5.348481     20.48401      78.8754        10     0.978     0.685 -29.40   0
       346    244.9702     78.7128 300.2270684 +22.4772617     489.6568     72.60476      1.859     4.81     5.250267     20.48401     47.80929         7     1.054     0.621 -17.86   0
       347    288.4531     76.0881 300.2414474 +22.4895311      338.882     72.62325      1.223     3.94     5.240984     20.48401     62.28313         8     1.218     0.493   2.11   0
       348     35.0693     74.7228 300.1630944 +22.4132321     536.6813     72.71564      2.469     4.83     4.997203     20.48401      60.3625        10     1.319     0.894 -52.04   0
       349    519.5978     70.0007 300.3153762 +22.5569922     6406.487      72.3825      1.418     2.61     4.996166     20.48401     734.9732        41     1.317     1.135  85.33   0
       350    404.9413     69.9817 300.2796806 +22.5226596     691.4149     72.54926      1.330     2.77      4.95138     20.48401     96.86386        11     0.904     0.792 -66.18   0
       351    272.9604     64.4707 300.2403927 +22.4815523     298.7021     72.56776      1.444     4.12     5.116291     20.48401     37.39354         5     0.788     0.617 -84.96   0
       352    713.3334     61.5901 300.3784683 +22.6125575     409.4119     72.60476      1.304     2.49     5.435233     20.48401      52.4077         5     0.674     0.489  -5.97   0
       353    772.1074     59.8643 300.3973511 +22.6296471     617.5436     72.71564      1.313     2.57     5.638747     20.48401     93.18921        12     0.923     0.797  60.82   0
       354    864.7486     58.9583 300.4265360 +22.6571018     422.6874     72.60476      1.268     2.86     5.710302     20.48401     60.12826        10     0.913     0.700   0.05   0
       355    173.1794     56.4766 300.2119463 +22.4493681     232.2622     72.60476      1.107     4.22     5.415045     20.48401     43.51352         5     1.024     0.497  38.65   0
       356    212.6399     54.0450 300.2250073 +22.4604894     482.7979      72.6787      1.320     2.07     5.034555     20.48401     60.50822         7     0.665     0.656 -16.67   0
       357    570.8873     52.6765 300.3369680 +22.5673632     654.2812      72.7341      1.621     3.87     5.162943     20.48401     68.51042        11     1.188     0.712  21.00   0
       358    194.8525     52.9597 300.2198266 +22.4548496     169.3735     72.60476      1.427     3.84     5.197562     20.48401     28.26596         5     0.842     0.502  31.38   0
       359    647.8826     50.1571 300.3617748 +22.5896826     6291.576     72.56776      1.374     2.56     5.310255     20.48401     897.5085        35     1.247     1.083  72.78   0
       360    422.7001     49.0790 300.2919845 +22.5219678     1479.115      72.7341      1.369     2.51     4.896035     20.48401     196.1524        20     1.161     0.902  72.70   0
       361    688.6954     47.5667 300.3753341 +22.6011509     842.8195     72.58627      1.358     3.33     5.455093     20.48401      133.641        13     1.107     0.814  49.71   0
       362    759.1644     45.0932 300.3981035 +22.6215249     448.2063     72.56776      1.820     4.79     5.647075     20.48401     38.74059         8     1.118     0.581 -23.49   0
       363    704.8946     43.5196 300.3816952 +22.6048340     613.6561      72.7341      1.348     3.18     5.524782     20.48401     82.79559        11     1.017     0.779  62.31   0
       364    974.7220     41.3164 300.4665660 +22.6849175     390.5792     72.71564      1.236     3.82     5.642049     20.48401      66.1757         9     1.050     0.654  66.07   0
       365    171.8942     41.8771 300.2162784 +22.4447881     667.2802      72.7341      1.343     2.55     5.400624     20.48401     97.29819        11     0.932     0.715 -29.11   0
       366    743.6643     39.0623 300.3952258 +22.6151522     433.9059     72.64174      1.366     2.87     5.627768     20.48401     71.95876         9     0.955     0.592 -36.37   0
       367    692.0463     35.0170 300.3804462 +22.5985434      2908.14     72.64174      1.439     2.78      5.57156     20.48401     333.7103        27     1.209     1.062  80.84   0
       368    333.1181     35.9295 300.2683624 +22.4913647     541.1357     72.71564      1.577     2.16     4.897652     20.48401     69.62794         8     0.761     0.667  43.09   0
       369    707.1318     33.8745 300.3855187 +22.6027288     878.0148      72.6787      1.775     4.01     5.595466     20.48401     93.59141        17     1.348     1.014  61.40   0
       370    778.5972     26.5974 300.4101574 +22.6220173     1631.221      72.3825      1.486     2.64     5.745517     20.48401     229.8265        20     1.087     1.035  77.35   0
       371    938.8187     25.7112 300.4604204 +22.6696882     205.2326     72.54926      0.960     2.47     5.775085     20.48401     51.08697         5     0.720     0.438  11.86   0
       372    716.5529     19.8672 300.3929953 +22.6015179     733.4517     72.58627      1.471     2.98     5.682652     20.48401     101.6212        14     0.992     0.930  28.53   0
       373    522.4175     19.1028 300.3327514 +22.5432002     1080.687     72.51224      1.392     3.37      5.19769     20.48401     135.4577        17     1.062     0.996 -43.42   0
       374    321.2437   1015.8724 299.9464173 +22.7691697     1270.392     72.58627      2.159     6.46     10.30763     20.48401      74.8938        22     1.361     1.233   5.39  16
       375     94.9619     19.1713 300.1997158 +22.4152185     655.0059     72.60476      1.967     3.95     4.434994     20.48401     58.17785        11     1.148     0.781 -12.63   0
       376    808.1483     16.1588 300.4227554 +22.6278542     406.0705     72.60476      1.161     2.86     5.819958     20.48401     55.48098         7     0.853     0.522  43.20   0
       377      5.9624    978.2847 299.8606222 +22.6637609     2165.738     72.58627     11.715    18.63    -13.92054     20.48401      69.8018        87     3.420     2.823 -59.50  27
       378    164.6656   1010.6891 299.8994046 +22.7206920     513.3355     72.71564      2.363    11.53     94.82774     20.48401     46.36676        19     4.138     0.895  25.61  18
       379    153.0656   1014.7012 299.8944925 +22.7183604     254.4102     72.69717      1.643     6.64     97.58821     20.48401     33.33818         5     1.226     1.011 -61.73   3
