#   1 NUMBER                 Running object number                                     
#   2 X_IMAGE                Object position along x                                    [pixel]
#   3 Y_IMAGE                Object position along y                                    [pixel]
#   4 ALPHA_J2000            Right ascension of barycenter (J2000)                      [deg]
#   5 DELTA_J2000            Declination of barycenter (J2000)                          [deg]
#   6 FLUX_APER              Flux vector within fixed circular aperture(s)              [count]
#   7 FLUXERR_APER           RMS error vector for aperture flux(es)                     [count]
#   8 FLUX_RADIUS            Fraction-of-light radii                                    [pixel]
#   9 FWHM_IMAGE             FWHM assuming a gaussian core                              [pixel]
#  10 BACKGROUND             Background at centroid position                            [count]
#  11 THRESHOLD              Detection threshold above background                       [count]
#  12 FLUX_MAX               Peak flux above background                                 [count]
#  13 ISOAREA_IMAGE          Isophotal area above Analysis threshold                    [pixel**2]
#  14 A_IMAGE                Profile RMS along major axis                               [pixel]
#  15 B_IMAGE                Profile RMS along minor axis                               [pixel]
#  16 THETA_IMAGE            Position angle (CCW/x)                                     [deg]
#  17 FLAGS                  Extraction flags                                          
         1    486.3073     14.6056 300.3327545 +22.5431520     1108.416      74.2198      1.682     3.91     14.48774     20.96638     116.6273        18     1.300     0.918 -84.92   0
         2     58.8146     14.2318 300.1998449 +22.4150762     618.7255     74.31451      1.929     5.63     15.67667     20.96638     48.80788        11     1.218     1.024 -28.22   0
         3    390.0061     12.8445 300.3033356 +22.5138274     834.6306     74.33344      1.546     3.02      14.5242     20.96638     93.51714        13     1.004     0.908  19.45   0
         4    772.5407     12.0437 300.4227949 +22.6280364     448.7117     74.33344      1.392     4.16     15.83811     20.96638     50.66053         8     0.962     0.659 -13.51   0
         5    729.1149      4.0586 300.4118400 +22.6127511     561.5169     71.06335      1.350     2.88     15.99852     20.96638     71.04122        10     0.867     0.754 -86.36  16
         6    161.2667      2.9347 300.2353636 +22.4425068     3408.127     66.39692      1.567     3.12     15.71764     20.96638     380.9029        31     1.375     1.090   4.26  24
         7    121.7554   1005.5639 299.8976339 +22.7185756      1356.37     74.37127      2.842     9.82     98.02625     20.96638     55.65717        25     2.112     1.272 -84.43   0
         8     75.1207   1010.6793 299.8814719 +22.7060488     5969.871     74.44689     16.066    65.91     79.55951     20.96638     171.8398      1960    15.249    11.739  32.84  27
         9     66.6319    948.1348 299.8991742 +22.6855638     5322.167     74.31451     30.025   122.44     36.89919     20.96638     1307.168      4829    22.660    18.355 -58.04  27
        10     27.9922    987.6776 299.8743046 +22.6853093     1047.314     74.27663      6.250     7.89     28.53316     20.96638     43.44469        16     1.462     1.247  41.69   2
        11    209.0633    983.0488 299.9321081 +22.7383119     4718.783     74.35236      7.977    25.59     72.52596     20.96638     95.14823       355     6.076     4.541 -56.09   3
        12    624.0000    986.0863 300.0603009 +22.8636111     5836.771     74.18188      1.732     4.89     13.24017     20.96638     472.8616        22     1.512     0.962 -84.47   3
        13    628.6796    983.6663 300.0625463 +22.8643189     10025.11     74.42799      2.676    15.01     13.24758     20.96638     460.9023        79     3.913     1.601 -14.34   2
        14      4.5424   1023.4267 299.8553893 +22.6885225     748.1851     57.42186      3.226     3.52     4.330166     20.96638     36.40741         5     0.802     0.446 -21.31  26
        15    723.5385    986.6566 300.0911395 +22.8936082     598.4128     74.39018      1.935     7.53     12.93241     20.96638     37.17844        15     1.554     1.020 -42.83   0
        16    488.1226    975.5868 300.0213877 +22.8198627     410.2342     74.33344      1.882     4.74     13.27018     20.96638     32.02428         6     0.942     0.675  76.46   0
        17    915.8688    969.9777 300.1565487 +22.9464431     747.9776     74.33343      2.180     7.92     12.30814     20.96638     36.64418        16     1.482     1.185  83.42   0
        18    137.4434    949.7302 299.9206705 +22.7072674     1246.947     74.27663     10.465    11.27     47.79512     20.96638     39.53619        16     4.273     0.828 -12.68   3
        19    189.9302   1002.0095 299.9199902 +22.7380111     1890.768     74.29557      3.550    24.36      91.7264     20.96638     56.07256        87     4.826     3.415 -18.16  19
        20    641.4109    953.0101 300.0764847 +22.8593316     6889.146     74.20084      2.110     5.03     13.46542     20.96638     335.6955        51     1.625     1.553  10.75   0
        21    153.6792    967.1373 299.9200583 +22.7171318       1399.6     74.40909      7.365     9.31     63.04385     20.96638     43.47449        18     2.196     1.102  64.58   3
        22    189.7295    985.2858 299.9253672 +22.7331535      3990.51     74.42799      8.039    20.63     76.27172     20.96638     95.88013       270     5.009     4.660  50.80   3
        23    549.9022    943.8578 300.0509494 +22.8292747     1522.123     74.40909      1.937     4.59     13.78994     20.96638     99.38307        29     1.424     1.312 -12.14   0
        24    443.6126    939.8654 300.0191450 +22.7962633     885.5374      74.2577      1.921     5.63     13.98574     20.96638     63.69541        22     1.352     1.218  71.47   0
        25    374.2777    938.0853 299.9981386 +22.7749625     6574.922     74.42799      2.103     5.10     14.25479     20.96638     400.5745        47     1.597     1.510 -22.17   0
        26    136.2066    955.6444 299.9183627 +22.7085929     2032.534     74.33344     10.140    11.49     53.17702     20.96638     66.54128        39     2.468     2.068   1.45   3
        27    407.6117    924.9113 300.0127993 +22.7811764     490.7169      74.2577      1.744     3.70     14.28042     20.96638      49.7363         7     1.055     0.456  41.03   0
        28    227.9978    972.6805 299.9413699 +22.7410174     7530.142      74.2198      7.565    29.93     59.47559     20.96638     162.3064       626     9.552     4.773  61.03  18
        29    920.6001    916.9948 300.1752568 +22.9326355     2055.188     74.12498      2.113     5.30     12.71399     20.96638      107.327        33     1.493     1.441  45.11   0
        30    709.6578    905.3266 300.1132630 +22.8660885     765.2186     74.35236      2.222     6.37     13.89038     20.96638     44.25981        12     1.276     0.892  58.24   0
        31    744.2205    900.4730 300.1256164 +22.8750504     1028.275     74.33344      2.004     5.24      13.8872     20.96638     62.48019        19     1.369     1.088  10.49   0
        32    156.9035    976.7059 299.9179490 +22.7208440     2187.973     74.50356      6.331    18.24     72.01369     20.96638     54.11494        67     4.131     2.237  29.56   3
        33    162.7591    997.6484 299.9129586 +22.7286082     2879.494     74.37127      6.233    25.27        90.66     20.96638     69.35842       164     5.361     3.307  19.81  19
        34    766.5608    893.7762 300.1347595 +22.8798199     11276.16     74.35236      1.987     4.67     13.88337     20.96638     622.0104        60     1.595     1.530 -62.15   0
        35    957.1243    893.9661 300.1941426 +22.9369563     423.3463     74.31451      1.773     7.17     12.84075     20.96638     38.98402         8     1.636     0.880 -14.12   0
        36    163.0792    990.9098 299.9152499 +22.7267713     2278.477     74.44689      7.704    17.15     84.37526     20.96638     63.33795        74     3.404     2.401 -60.76   3
        37    220.4125    998.8424 299.9305014 +22.7462475     1009.136     74.29557      2.408     8.45     86.15609     20.96638     54.07574        24     1.899     1.542  35.13   0
        38     78.1575    885.2499 299.9232036 +22.6709838     957.1577     74.35236      3.615     7.25     21.14448     20.96638     46.19946        18     1.631     1.109 -21.72   0
        39    819.2835    882.0197 300.1550237 +22.8922368     446.9324      74.2577      2.604     7.05     13.73568     20.96638     44.71815        10     1.841     0.756  25.31   0
        40    775.1659    875.9456 300.1432403 +22.8772751     1350.455     74.33344      1.938     5.03     14.12477     20.96638     88.07135        22     1.282     1.149 -15.19   0
        41    813.0822    868.8200 300.1573813 +22.8865864     979.6522     74.27663      2.369     8.97     13.96156     20.96638     46.15678        23     1.708     1.315  83.45   0
        42    921.4517    866.0021 300.1921035 +22.9182358     425.0656     74.29557      1.784     3.93      13.1754     20.96638      30.9877         5     0.890     0.497 -87.91   0
        43    861.6316    860.6504 300.1751805 +22.8987813     583.9902     74.35236      2.046     6.12     13.50165     20.96638     35.16103        10     1.285     0.820 -21.72   0
        44    712.8449    859.5723 300.1291330 +22.8538999     662.7922     74.35236      1.779     5.46     14.52641     20.96638     46.19424        12     1.211     0.859  29.87   0
        45    425.5815    855.7634 300.0408759 +22.7667133      4383.51     74.31451      1.913     4.28     14.92942     20.96638     279.0907        39     1.455     1.407 -17.81   0
        46    724.7682    856.8118 300.1337475 +22.8566791     561.0144     74.31451      1.749     5.24     14.53824     20.96638     38.84661        10     1.104     0.703  23.16   0
        47    151.7246    841.4747 299.9603072 +22.6804927     665.8098     74.40909      1.433     3.80     17.92496     20.96638     69.93478         6     0.928     0.446  87.70   0
        48    127.9101    838.4872 299.9538730 +22.6724924     1558.188     74.48467      2.063     4.34      17.7266     20.96638     145.0174        29     1.495     1.349  16.47   0
        49    999.7345    828.0613 300.2288687 +22.9307718      2046.67     74.35236      2.072     5.42     13.13195     20.96638     108.7977        30     1.476     1.388 -26.11   0
        50    953.8586    826.3546 300.2151055 +22.9165446     2124.336     74.35236      2.039     4.88     13.25312     20.96638     117.7877        34     1.562     1.369  -9.48   0
        51      1.8109    997.6044 299.8629395 +22.6802986     738.7721     60.49954      3.635     3.81     6.244504     20.96638     49.92349         5     1.277     0.326 -79.87  24
        52    659.4887    826.7460 300.1231728 +22.8284831     472.7515     74.35236      2.077     5.53     14.67507     20.96638     32.44131         9     1.322     0.651 -42.51   0
        53    737.1597    820.5010 300.1494147 +22.8499592      510.203     74.29557      1.514     6.06     14.68019     20.96638     47.15732        11     1.461     0.707  21.06   0
        54    161.3301    820.2707 299.9701864 +22.6772891     260.5961     74.39018      1.220     3.43     16.64608     20.96638     40.55166         5     0.771     0.440  74.82   0
        55    605.5876    814.0173 300.1105129 +22.8086759     4675.906     74.27663      1.774     3.86     14.82202     20.96638     344.7795        38     1.393     1.328  43.28   0
        56    537.5795    990.7648 300.0318547 +22.8390478     1825.398     74.33344      1.654     4.62     13.20651     20.96638       148.87        22     1.604     0.857  79.45   3
        57    408.0062    810.8992 300.0499874 +22.7485635     623.2491     74.20084      1.609     4.58     15.13322     20.96638     51.62849        13     1.117     0.962   8.27   0
        58    155.7522    807.7167 299.9725319 +22.6720136     1361.522     74.31451      1.984     4.79     15.90624     20.96638     109.7297        25     1.476     1.244  -0.26   0
        59    626.3595    806.6209 300.1193898 +22.8127754     660.7271     74.35236      1.571     3.91     14.82348     20.96638     66.74863        13     1.042     0.936   0.59   0
        60    175.6097    804.6167 299.9797150 +22.6770795     346.4386     74.23875      1.387     3.62     15.71564     20.96638     54.18432         6     0.978     0.386  70.64   0
        61    781.6629    793.8434 300.1719558 +22.8556302      4154.87     74.31451      1.847     4.22     14.74388     20.96638      255.788        35     1.419     1.332  44.00   0
        62    998.8525    794.2718 300.2395769 +22.9207935     1062.697     74.31451      1.974     5.38     13.12126     20.96638     71.76537        20     1.283     1.185  60.52   0
        63    499.4840    786.8578 300.0862863 +22.7690786     471.6378     74.42799      1.560     2.95     15.12283     20.96638     50.18588         7     0.903     0.480  80.03   2
        64    145.1620    783.9828 299.9769517 +22.6620266     951.9307     74.31451      1.951     4.78     15.44053     20.96638     98.83164        19     1.375     1.147  39.40   0
        65    560.2061    779.9167 300.1074567 +22.7852820     575.6182     74.23875      1.925     6.55     15.05553     20.96638     52.57957         9     1.337     0.900 -18.35   0
        66    294.6708    776.1229 300.0260138 +22.7046023     54234.38     74.42799      1.868     3.91     15.63041     20.96638     4111.171        99     1.610     1.541   0.43   0
        67    965.8445    774.7959 300.2356047 +22.9053116     925.4698     74.33343      2.016     6.57     13.30362     20.96638     60.67582        18     1.288     1.154  28.28   0
        68    552.6539    775.2017 300.1066363 +22.7816646     1551.427      74.2577      1.732     4.04     15.08072     20.96638     136.2684        22     1.223     1.139  71.13   0
        69    223.8710    774.0649 300.0046550 +22.6827834     509.7558     74.35236      1.651     3.17     15.68808     20.96638     57.85391         8     1.096     0.503 -79.66   0
        70    581.8052    771.1937 300.1170208 +22.7892485     1089.138     74.16292      1.855     4.62      15.0643     20.96638       85.554        21     1.344     1.130  57.92   0
        71    592.6456    769.8127 300.1208472 +22.7920999     533.5186     74.33344      1.633     3.58     15.05758     20.96638     55.07523        10     0.876     0.851 -26.83   0
        72    911.9561    766.7836 300.2213926 +22.8868730     364.3504     74.33344      2.161     4.73     13.75622     20.96638     29.06519         5     0.915     0.693 -23.07   0
        73    698.2456    766.6208 300.1547952 +22.8228203     478.3126     74.37127      1.444     5.19     14.91611     20.96638     45.17499         8     1.187     0.642   6.09   0
        74    492.5316    762.3973 300.0920701 +22.7599699      398.199     74.29557      2.045     5.80     15.19035     20.96638     39.86882         8     1.427     0.664  55.38   0
        75    735.5637    756.5901 300.1696889 +22.8311166     739.6642     74.31451      1.772     5.40     14.88645     20.96638     58.23518        12     1.033     0.876   1.30   0
        76    344.4109    753.3964 300.0488784 +22.7129893     31601.64     74.14395      1.824     3.76     15.64959     20.96638     2859.697        76     1.513     1.496  12.78   0
        77    358.8094    753.9689 300.0531740 +22.7174698     2135.104     74.31451      1.844     3.87     15.60014     20.96638     162.7986        28     1.344     1.263  49.93   0
        78    867.5738    749.6264 300.2131216 +22.8686512     2774.851     74.27663      1.833     3.99     14.45258     20.96638     189.0543        34     1.366     1.340 -64.75   0
        79    355.9193    748.3967 300.0540850 +22.7150035     710.3605      74.2198      2.476     6.06     15.64687     20.96638     48.68969        11     1.371     0.754 -17.29   0
        80    625.3992    745.5289 300.1389447 +22.7949369     949.3416      74.2198      1.656     4.02     15.13868     20.96638     96.97955        16     1.114     1.054  -1.79   0
        81    462.1999    745.9072 300.0879825 +22.7461438     461.0079     74.18188      1.633     4.30     15.24012     20.96638     40.51532         9     1.002     0.651 -60.13   0
        82    227.1537    745.1258 300.0150796 +22.6754609     839.8235     74.31451      1.843     4.83     15.71236     20.96638       69.585        16     1.280     1.102   8.65   0
        83    467.0659    745.2753 300.0897032 +22.7474206     230.0069     74.39018      1.411     3.43     15.24211     20.96638     35.06189         5     1.020     0.333 -42.80   0
        84     31.6619    741.0456 299.9556173 +22.6156638     562.5899     74.35236      2.197     6.20     15.03561     20.96638     38.87738         9     1.535     0.704 -40.32   0
        85    472.8185    740.2416 300.0931302 +22.7476988     695.9783     74.33344      1.571     3.80     15.25275     20.96638     79.99042        13     1.075     0.946  44.31   0
        86    873.8268    737.8542 300.2188978 +22.8671396     452.2774     74.35236      1.391     3.91     14.46148     20.96638     59.16047         9     0.973     0.644   9.25   0
        87    330.5607    735.7258 300.0503094 +22.7037637     448.7868     74.29557      1.550     6.69     15.72112     20.96638     43.46075         9     1.371     0.917  75.41   0
        88    418.2691    735.2299 300.0777729 +22.7299111     467.6239     74.29557      2.051     7.08      15.2955     20.96638     42.54533        10     1.263     1.111   4.85   0
        89     60.6165    734.3989 299.9667769 +22.6224411     496.8665     74.20084      1.715     3.13     15.07105     20.96638     46.51447         6     0.896     0.659 -21.59   0
        90    851.6157    732.1250 300.2138307 +22.8588417     465.8564     74.31451      1.832     6.48     14.68389     20.96638     35.72165        11     1.359     0.868  53.82   0
        91    225.3519    729.2796 300.0196678 +22.6703719     535.1433     74.33344      1.734     3.88     15.73971     20.96638     51.86335         7     1.127     0.508  67.33   0
        92    548.2307    720.4434 300.1230518 +22.7646097     310.4166     74.35236      1.147     3.41     15.34169     20.96638     43.78252         5     0.743     0.454  20.10   0
        93    517.9586    718.2687 300.1143285 +22.7549144     655.1526     74.29557      1.577     4.52     15.38371     20.96638     55.24788        15     1.225     0.878 -79.93   0
        94    934.1211    714.9504 300.2451524 +22.8786078     4570.912     74.31451      1.853     4.19      13.8764     20.96638     319.9723        39     1.447     1.394 -12.94   0
        95    539.5232    715.7709 300.1218574 +22.7606584     1303.335     74.29557      1.617     3.85     15.38393     20.96638     120.2749        16     1.095     0.984  -2.18   0
        96    458.7273    715.3060 300.0968440 +22.7363141     436.2112     74.44689      1.828     4.83     15.51284     20.96638     40.15866         5     1.065     0.619  28.46   0
        97    922.3454    706.4955 300.2442250 +22.8726514     1687.874     74.39018      1.817     4.18     14.11457     20.96638      152.928        24     1.303     1.204  29.00   0
        98    285.1814    699.9206 300.0478203 +22.6798799     792.8815     74.31451      1.636     4.45     15.80668     20.96638       82.178        14     1.231     0.882  -6.58   0
        99    953.7093    696.5631 300.2572394 +22.8791851     1765.699     74.29557      1.937     4.52     13.83034     20.96638     120.4168        27     1.428     1.218 -16.09   0
       100    748.8121    697.4252 300.1930439 +22.8180814     2566.267     74.31451      1.803     3.73     15.16086     20.96638     218.4836        30     1.432     1.159   4.92   0
       101    831.2314    683.4084 300.2233007 +22.8387336     675.0467     74.31451      1.845     3.85     14.97401     20.96638     48.04036        11     1.032     0.797  17.24   0
       102    134.1770    683.5172 300.0061771 +22.6298981     650.1275     74.27663      1.724     4.71     15.86719     20.96638     60.67635        12     1.212     0.812 -24.92   0
       103    867.2954    674.4987 300.2374448 +22.8469703     148639.1     74.50356      1.785     3.84     14.67922     20.96638     11252.61       153     1.610     1.530 -45.22   0
       104    629.2905    678.4973 300.1619360 +22.7768427     323.7408     74.50356      1.456     5.58      15.3153     20.96638     33.14941         9     1.053     0.833  13.84   0
       105   1014.3777    676.4800 300.2827000 +22.8915702     1265.828     74.27663      2.003     4.58     13.03614     20.96638     80.14282        25     1.320     1.297 -21.94   0
       106    719.7783    674.9302 300.1912998 +22.8029207     727.6462     74.31451      1.820     3.29     15.28286     20.96638     64.31921        13     1.066     0.800  21.22   0
       107    899.9737    667.7587 300.2498295 +22.8548160     497.5774     74.37127      1.659     5.03     14.60647     20.96638     44.33512         9     0.918     0.864   2.16   0
       108    553.6243    663.2723 300.1433052 +22.7498008     1656.326     74.35236      1.581     3.58     15.86302     20.96638     172.2578        21     1.187     1.043 -32.42   0
       109    734.7635    660.5516 300.2006426 +22.8032758     9448.244     74.33344      1.688     3.55     15.35704     20.96638     864.2567        43     1.342     1.302 -56.28   0
       110    236.1989    655.4012 300.0470415 +22.6524140     5055.165     74.08701      1.779     3.57     15.91539     20.96638     500.2425        42     1.407     1.382  66.08   0
       111    318.3697    653.6299 300.0731849 +22.6765358     1212.138     74.29557      1.678     2.83     15.95326     20.96638     159.1674        20     1.181     1.043 -37.36   0
       112    194.6104    651.4808 300.0353778 +22.6388208      400.082     74.27664      1.469     3.91     15.97052     20.96638     44.51718         6     0.898     0.487 -87.99   0
       113    526.5864    649.1916 300.1394562 +22.7376550     788.1138     74.20084      1.632     3.87     16.17979     20.96638     86.30327        15     1.105     1.013 -71.42   0
       114    518.1198    641.2419 300.1394010 +22.7328344     3283.068     74.29557      1.602     3.33     16.32527     20.96638     302.0249        26     1.223     1.151  17.45   0
       115    508.4373    634.7787 300.1384843 +22.7280767     1448.235     74.33344      1.718     4.47     16.43431     20.96638     136.2968        24     1.485     1.087  65.57   0
       116    901.9772    633.4995 300.2615832 +22.8455649     423.6213      74.2577      1.494     4.74     14.80311     20.96638      40.5186         8     1.039     0.615  45.97   0
       117    171.7285    631.2592 300.0348284 +22.6261554     737.8489     74.35236      1.964     5.02     16.03088     20.96638      59.7225        16     1.337     1.115  25.91   0
       118    186.4635    629.6072 300.0399478 +22.6300986     686.7876     74.29557      1.992     4.77     16.01697     20.96638     55.77201        12     1.153     0.844 -22.75   0
       119    955.5637    627.1642 300.2803624 +22.8597835     417.4659     74.39018      1.519     4.31      14.2076     20.96638     42.77191         6     0.950     0.590 -10.79   0
       120    212.1423    626.6213 300.0489050 +22.6369392     535.4436     74.33344      1.815     3.89     15.99398     20.96638     50.79844         7     0.870     0.682  56.80   0
       121    532.4142    624.9792 300.1491356 +22.7324443     367.7297     74.27663      1.430     4.36      16.6091     20.96638     47.56342         5     1.114     0.487  38.88   2
       122    433.2656    624.6917 300.1183501 +22.7026562     1758.145     74.44689      1.578     3.26     16.51572     20.96638     193.0729        24     1.190     1.135  52.13   0
       123   1008.7750    622.6442 300.2984389 +22.8744097     596.1296     74.33344      1.383     4.60     13.40018     20.96638     67.89571        13     1.307     0.728  32.60   0
       124     87.1117    619.4354 300.0123559 +22.5973917     20172.26     74.29557      1.933     3.73     15.96392     20.96638     2001.791        74     1.614     1.540  17.68   0
       125      8.2872    621.7192 299.9871120 +22.5744107     570.9352     74.44689      2.126     4.43     15.17451     20.96638       54.674         7     1.106     0.629   7.07   0
       126    518.1066    620.0389 300.1462833 +22.7267386     947.0961     74.33343      1.511     4.51     16.70002     20.96638     92.97593        16     1.298     0.866  -1.14   0
       127    554.0125    619.1953 300.1577424 +22.7372525     477.4515     74.18188      1.693     3.76     16.64579     20.96638     44.73282         5     0.815     0.498 -65.91   0
       128    936.4418    606.5796 300.2810807 +22.8481401     1028.502     74.35236      1.836     3.95     14.59074     20.96638      96.2339        19     1.310     1.136 -60.85   0
       129    601.0986    607.2810 300.1762824 +22.7479331     193.6047     74.44689      1.480     5.32     16.49078     20.96638      26.4491         8     1.132     0.707  28.05   0
       130     33.2152    603.7902 300.0006819 +22.5767402     1466.224      74.2198      2.125     5.62     15.55192     20.96638     96.93346        31     1.765     1.359 -87.45   0
       131    802.6406    604.2446 300.2400972 +22.8074143     467.8635     74.39018      1.498     5.08     15.56881     20.96638     50.39442         9     1.148     0.636 -82.71   0
       132    481.6698    601.0822 300.1410908 +22.7103761      399.932     74.42799      1.217     3.75     16.95222     20.96638     45.93955         7     0.969     0.609  -0.32   0
       133    273.7434    600.1267 300.0766739 +22.6477957     323.8311     74.35236      1.697     5.89     15.94573     20.96638     45.33052         7     1.050     0.928 -15.66   0
       134    876.3351    599.1710 300.2647323 +22.8280176     920.1535     74.33344      2.142     4.89      15.2092     20.96638     75.25645        14     1.207     0.966  -1.80   0
       135    438.2152    593.0353 300.1301717 +22.6950451     692.8321     74.31451      1.472     3.95     16.76942     20.96638     69.04321        11     1.011     0.834 -10.40   0
       136    586.6213    591.8480 300.1767832 +22.7391617     388.6974     74.33344      1.460     3.35     16.91195     20.96638     64.70161         9     1.042     0.749  27.09   0
       137    633.6802    590.2357 300.1919711 +22.7527928     481.6151      74.2577      1.599     4.41     16.51464     20.96638     48.70382        10     0.989     0.749   9.39   0
       138    603.9698    589.4895 300.1829548 +22.7436800     539.1304     74.27663      1.553     5.99     16.89355     20.96638      48.0409        13     1.124     0.899  69.65   0
       139    482.8333    588.9088 300.1454063 +22.7072271     954.5142     74.27663      1.761     3.60     17.03827     20.96638     92.26136        14     1.059     0.919  13.42   0
       140    916.3869    584.4998 300.2819932 +22.8357873      3278.49      74.2198      1.750     3.96     14.91036     20.96638     265.1998        30     1.330     1.238 -56.52   0
       141    447.9913    584.2548 300.1360671 +22.6954515     1727.379     74.31451      1.541     3.34     16.89869     20.96638     157.2378        22     1.185     1.082  15.73   0
       142   1015.3461    583.6317 300.3131604 +22.8651547     867.7507     74.33344      2.678     6.49     13.51344     20.96638     53.23947         8     1.484     0.861 -71.95  18
       143    813.3593    581.8810 300.2507028 +22.8041933     408.8572     74.27663      2.155     5.33     15.57793     20.96638     35.20245         7     1.306     0.615  -0.04   0
       144      9.9117    577.5460 300.0019603 +22.5622197     4984.038     74.35236      1.974     3.95     15.63444     20.96638     497.4275        43     1.548     1.427   7.10  16
       145    477.4378    574.6975 300.1483405 +22.7015275     394.7515     74.31451      1.751     4.86      17.1111     20.96638     33.64736         7     0.909     0.735 -79.33   0
       146    311.4162    570.8865 300.0978916 +22.6506882      9180.96     74.27663      1.648     3.40     16.18929     20.96638     934.7945        46     1.353     1.323 -79.99   0
       147    433.9129    568.0190 300.1369551 +22.6865691     8949.826      74.2577      1.567     3.21     16.96788     20.96638     772.5683        44     1.321     1.252 -11.41   0
       148    930.3101    559.6223 300.2944162 +22.8327998     12592.45     74.23875      1.724     3.67     14.90026     20.96638     983.9382        53     1.421     1.384  87.65   0
       149    845.6498    562.2022 300.2671648 +22.8082013     1842.032     74.29557      1.621     3.28     15.45786     20.96638     188.3886        24     1.203     1.141  88.20   0
       150    494.4718    557.6190 300.1591911 +22.7017231     11668.66     74.33344      1.593     3.00     17.31995     20.96638     1353.368        50     1.309     1.282  -3.70   0
       151    664.4010    553.9381 300.2133321 +22.7515597      628.025     74.27663      1.466     3.10     16.51068     20.96638     78.28745        11     1.037     0.700 -31.50   0
       152    222.0354    552.8325 300.0759425 +22.6187161     1329.898     74.35236      1.775     3.95     16.01717     20.96638     129.8349        22     1.314     1.084 -52.55   0
       153    380.1144    552.4978 300.1252449 +22.6659914      297.722     74.48467      1.412     4.09     16.72557     20.96638     38.30547         5     0.766     0.623  72.30   0
       154    468.7806    550.6375 300.1534564 +22.6920209     536.3367     74.33344      1.617     4.27     17.24993     20.96638     53.11446        11     1.014     0.902  44.64   0
       155    426.1974    545.8420 300.1417531 +22.6778860     4515.261     74.33343      1.570     3.02     17.13337     20.96638     450.4107        32     1.255     1.163  56.48   0
       156    769.2366    546.0060 300.2485914 +22.7806688     812.7462     74.35236      1.433     3.46     15.84804     20.96638     73.99928        12     0.959     0.844 -13.89   0
       157    404.4727    544.1829 300.1355277 +22.6709007     1225.264     74.31451      1.551     3.16     16.99042     20.96638     128.5198        17     1.084     1.004  48.59   0
       158    158.8681    543.4394 300.0593441 +22.5970856     766.9391     74.27663      1.725     4.90     16.03469     20.96638     73.11071        15     1.267     0.966  58.75   0
       159    846.0584    541.5291 300.2740048 +22.8023787     1649.726     74.35236      1.687     3.45     15.49322     20.96638     161.0457        24     1.360     1.078 -34.67   0
       160     92.7748    541.4628 300.0394335 +22.5767055      317.255     74.29557      1.587     4.84     16.06428     20.96638     38.29144         6     0.910     0.729 -27.36   0
       161    366.9401    540.1622 300.1251487 +22.6585004     436.5203     74.33344      1.776     4.60     16.65048     20.96638     34.51842         5     0.924     0.650 -25.39   0
       162    726.5153    538.4628 300.2377197 +22.7657096     990.0233     74.42799      1.672     3.71     16.10474     20.96638     97.24263        17     1.152     1.016  76.66   0
       163    542.8346    533.3781 300.1821260 +22.7092433     207343.6     74.33344      1.543     2.92     17.80772     20.96638     23330.22       195     1.551     1.456 -21.09   0
       164    931.4158    535.7945 300.3024980 +22.8262772     308.9169     74.23875      1.739     4.30     14.97776     20.96638     29.09061         5     0.818     0.692  27.96   0
       165    228.8224    533.1429 300.0844461 +22.6150956     3621.447     74.33344      1.691     3.55     16.02541     20.96638     298.6133        35     1.339     1.286  30.93   0
       166    794.9707    529.7960 300.2618796 +22.7837118     500.8432     74.27663      1.581     2.64     15.81441     20.96638      47.3901         7     0.714     0.675  10.41   0
       167    574.2258    520.0746 300.1962249 +22.7148214     285.9461     74.33344      1.427     3.99     17.96911     20.96638     35.14898         5     0.885     0.515  36.54   0
       168    433.4843    513.8879 300.1543957 +22.6708879     2885.411     74.44689      1.667     2.76     17.29799     20.96638     312.0647        33     1.516     1.143  79.95   0
       169    278.1883    516.0611 300.1053506 +22.6249835     381.7802     74.27663      1.406     3.95     16.15964     20.96638     53.74607         8     0.953     0.689 -71.99   0
       170    844.7310    510.7165 300.2835943 +22.7931201     314.8803     74.42799      1.454     4.37      15.5518     20.96638      40.9023         7     1.024     0.531 -26.78   0
       171    750.6407    502.5778 300.2568919 +22.7626146     398.3539     74.35236      1.563     2.62     16.17558     20.96638     55.85632         7     0.944     0.635 -15.01   0
       172    830.5035    500.0024 300.2826344 +22.7857802     1746.823      74.2198      1.540     3.21     15.67585     20.96638       183.01        21     1.144     1.069 -61.39   0
       173    701.7859    497.7119 300.2432395 +22.7465894      2613.17      74.2577      1.572     2.90     16.96976     20.96638     307.6685        25     1.202     1.088 -33.68   0
       174    945.9662    494.9814 300.3202886 +22.8188916     373.5781     74.29557      1.367     4.55      14.9854     20.96638     45.89078         9     0.962     0.705  23.87   3
       175    944.9517    490.9304 300.3212870 +22.8174226     911.2952     74.29557      1.956     4.65     15.01121     20.96638      59.6774        15     1.227     1.082 -70.53   2
       176    606.3163    494.1291 300.2146465 +22.7169737     537.0839     74.44689      1.810     4.11     18.25154     20.96638     58.01324         9     1.110     0.667  64.72   0
       177    489.0264    493.3708 300.1783525 +22.6816293     763.1011     74.31451      1.480     4.14     17.69748     20.96638     76.33601        15     1.210     0.860  60.72   0
       178    958.9820    491.6505 300.3254320 +22.8218281       1263.1     74.31451      1.763     3.97     14.92512     20.96638     113.9422        17     1.147     1.114  68.39   0
       179    830.6852    490.0842 300.2859107 +22.7829822     2357.793     74.42799      1.955     4.27     15.69958     20.96638     219.1963        30     1.524     1.155  80.86   0
       180    583.9568    486.9434 300.2100117 +22.7082126      891.493     74.29557      2.131     6.65     18.17021     20.96638     66.86668        17     1.978     0.847  84.34   0
       181    868.9760    485.1280 300.2994642 +22.7930170     4308.546     74.35236      1.594     3.23     15.41196     20.96638     454.5001        34     1.362     1.193 -74.23   0
       182    422.4846    486.6890 300.1597995 +22.6597774     389.9452     74.44689      1.427     4.52     17.34551     20.96638     57.13263         9     1.141     0.634  58.36   0
       183    529.9218    481.1023 300.1950730 +22.6903516     392.5403     74.42799      1.376     2.70     17.91374     20.96638     44.43887         5     0.613     0.594  67.86   0
       184    960.6445    475.8873 300.3310677 +22.8177908     742.3027     74.29557      1.579     4.28     15.00737     20.96638     68.96716        14     1.052     1.007  44.90   0
       185    100.7137    475.1425 300.0634289 +22.5600429     975.7911     74.42799      1.866     5.42     16.01828     20.96638     87.84645        15     1.251     1.177 -85.58   0
       186    900.3134    473.1566 300.3131272 +22.7989519     148.1248     74.29557      1.439     4.39     15.31165     20.96638     33.06669         6     1.141     0.547 -23.23   0
       187    762.0271    469.4641 300.2711911 +22.7565011     232.8493     74.31451      1.297     3.50     16.33865     20.96638     35.48885         6     0.796     0.495   5.38   0
       188    957.2203    465.3760 300.3334108 +22.8137421     312.0399     74.31451      1.803     3.50      15.0498     20.96638     35.29314         5     0.761     0.465  12.89   0
       189    701.1317    459.4550 300.2554533 +22.7353936     537.4144     74.35236      1.753     3.59     17.38774     20.96638     63.37887         8     0.989     0.863 -20.41   0
       190    642.5508    455.3322 300.2385313 +22.7166699     742.3269     74.31451      1.534     3.55     18.18392     20.96638     87.33833        15     1.092     0.950 -86.16   0
       191    957.1207    448.4070 300.3388874 +22.8088303     668.2133     74.23875      1.720     4.24      15.0891     20.96638     68.27332        11     1.118     0.742  52.38   0
       192    703.1522    447.7790 300.2598726 +22.7326411     867.1609     74.35236      1.494     3.46     17.40598     20.96638     94.96305        14     1.046     0.917  62.69   0
       193    860.3841    444.1474 300.3100851 +22.7786581     1096.872     74.31451      1.519     3.77     15.77271     20.96638     109.3071        19     1.172     1.036 -23.78   0
       194    844.6819    440.5323 300.3063601 +22.7729191     735.5933     74.42799      1.585     2.96     15.90778     20.96638     87.87434        12     0.990     0.861  -0.73   0
       195    588.9917    438.2966 300.2273693 +22.6957359     3327.965     74.20084      1.464     2.84     18.31052     20.96638     381.1267        27     1.190     1.118 -85.56   0
       196    949.4650    437.5038 300.3400367 +22.8034028     685.6192     74.42799      1.558     2.84     15.16574     20.96638     61.83247        12     0.880     0.861 -23.21   0
       197     64.6455    429.8160 300.0669243 +22.5362163     350.7758     74.33344      1.712     3.71     16.00854     20.96638     30.88438         5     1.039     0.382  -4.01   0
       198    428.3948    425.0641 300.1816396 +22.6438386     368.0937     74.29557      1.526     6.25     17.40573     20.96638     47.11872         9     1.173     0.936 -35.01   0
       199   1000.3676    417.6541 300.3623663 +22.8129205     1296.384     74.33344      1.624     3.74     14.81551     20.96638     123.1197        18     1.123     1.064  54.20   0
       200    871.8984    417.7480 300.3222447 +22.7745096     394.5203     74.40909      1.300     3.08     15.88465     20.96638     62.36429         7     0.837     0.606 -12.95   0
       201    958.7217    416.2655 300.3498181 +22.8000616      903.284     74.40909      1.565     3.64     15.15226     20.96638      95.7432        19     1.216     1.026  -7.80   0
       202    699.4622    412.2358 300.2702568 +22.7213157      1186.62     74.33344      1.522     3.15     17.67355     20.96638      137.177        17     1.116     0.948  70.94   0
       203    495.3200    413.0996 300.2063641 +22.6604432     277.1845     74.44689      1.231     4.03      17.8007     20.96638     40.65813         9     0.871     0.804   3.59   0
       204    203.4879    409.9404 300.1165503 +22.5721167     718.7604     74.39018      1.560     4.17     16.29451     20.96638     89.17412        14     1.196     0.926  39.00   0
       205    999.0739    404.9011 300.3661009 +22.8088637     4354.019     74.46578      1.671     3.35     14.91385     20.96638     359.6407        35     1.338     1.276 -51.10   0
       206    265.7551    405.9061 300.1372315 +22.5896140     3939.294     74.33344      1.641     3.48     16.41056     20.96638     344.2217        35     1.322     1.255  48.33   0
       207    212.9986    400.6331 300.1225287 +22.5722927     7648.367     74.27663      1.689     3.33     16.31253     20.96638     808.3367        43     1.389     1.317  50.86   0
       208    979.0056    395.9980 300.3627257 +22.8002982     1720.602     74.12498      1.468     3.20     15.14294     20.96638     173.9451        24     1.203     1.103 -66.61   0
       209    353.8522    394.9996 300.1681876 +22.6128713     4799.373     74.27663      1.517     3.11      16.7042     20.96638     454.6682        33     1.258     1.167  57.69   0
       210    615.4308    392.1123 300.2505947 +22.6903736     890.4808     74.29557      2.138     6.79     18.45388     20.96638     68.49223        19     1.700     0.949 -48.61   0
       211    598.1371    391.8654 300.2452857 +22.6851251     18555.68     74.35236      1.487     3.01     18.41074     20.96638     1949.035        54     1.298     1.241 -81.04   0
       212    525.9022    393.5489 300.2222338 +22.6639811      3847.56     74.39018      0.710     1.26     17.94413     20.96638     1607.935         7     0.624     0.390  72.78   0
       213    795.1838    382.4646 300.3097641 +22.7414030     462.3886     74.29557      1.479     3.91     16.70894     20.96638       51.555         8     1.028     0.572  22.86   0
       214    218.7397    378.6632 300.1314426 +22.5677013     385.4936     74.35236      1.654     3.10     16.38564     20.96638     36.99651         5     0.739     0.446  15.48   0
       215    931.8544    374.7437 300.3549065 +22.7800762     799.9285     74.37127      1.748     5.76     15.68093     20.96638     73.44258        13     1.175     0.925 -81.52   0
       216    468.6163    373.6114 300.2108594 +22.6410958     219.5125      74.2577      1.158     3.42     17.55678     20.96638     30.33362         5     1.023     0.332 -21.67   0
       217    152.8637    371.8046 300.1131769 +22.5459929     1956.823     74.29557      1.635     3.12     16.38319     20.96638     219.3288        27     1.304     1.158  45.69   0
       218    538.7936    361.2978 300.2367134 +22.6585693     6753.828     74.20084      1.469     2.63     18.01161     20.96638     858.7697        35     1.232     1.163  68.08   0
       219    952.5139    361.8375 300.3655413 +22.7825431     1255.579     74.29557      1.622     3.61     15.61026     20.96638     116.4257        20     1.246     1.007 -45.92   0
       220    253.8177    360.9289 300.1481093 +22.5731153     607.1094     74.33344      1.423     3.00      16.5254     20.96638     84.42482        10     1.017     0.689  -0.02   0
       221    798.9299    353.5559 300.3203116 +22.7342082     386.8467     74.27663      1.370     3.55     16.86217     20.96638      46.6237         9     0.927     0.665 -63.34   0
       222    111.1090    354.4765 300.1058133 +22.5285038     525.5024     74.46578      1.604     4.83      16.2224     20.96638     59.84489        10     1.325     0.499  -1.26   0
       223    652.7339    351.5165 300.2753914 +22.6898670     391.4229     74.42799      1.419     3.92     18.36258     20.96638     50.66351        10     0.940     0.858 -39.81   0
       224    743.1474    350.5041 300.3039061 +22.7166369     1114.152     74.39018      1.532     3.78      17.6184     20.96638     133.1675        18     1.191     0.998  11.38   0
       225    445.3888    347.4332 300.2121185 +22.6266153     6117.754     74.29557      1.536     2.77     17.29355     20.96638     763.8654        37     1.281     1.158  70.18   0
       226    934.8546    342.4106 300.3663327 +22.7716699     490.2578     74.31451      1.398     3.30     15.85431     20.96638     66.98736        11     0.939     0.818 -67.45   0
       227    837.4781    342.1172 300.3360461 +22.7424521     1385.887     74.42799      1.528     3.05     16.51535     20.96638     163.6887        21     1.159     1.066 -79.87   0
       228    430.2189    336.2216 300.2110315 +22.6188498     439.6671     74.31451      1.306     3.30     17.11324     20.96638     60.72666         7     0.846     0.600 -54.86   0
       229    512.6339    334.5545 300.2372397 +22.6430482     430.6609     74.33344      1.253     4.20     17.69247     20.96638      57.1321         6     0.989     0.508  53.80   0
       230    790.6368    333.4876 300.3242354 +22.7259534     216.2727     74.29557      1.116     4.67     16.97635     20.96638     32.09568         6     1.065     0.580  59.78   0
       231    493.7122    332.1960 300.2321110 +22.6367047      223.923     74.23875      1.058     3.79     17.53436     20.96638      39.4298         5     0.879     0.469 -42.54   0
       232    810.1359    329.9585 300.3314618 +22.7307729     566.5714     74.27663      1.502     4.11     16.76834     20.96638     69.03153        13     1.085     0.949 -21.37   0
       233    332.9468    326.5556 300.1838842 +22.5869404      2507.63     74.33344      1.531     3.08     16.67725     20.96638     289.0207        26     1.181     1.136  34.75   0
       234     51.3351    323.9648 300.0971258 +22.5018279     1073.741     74.31451      1.746     3.90     16.20396     20.96638     122.4072        19     1.305     1.067  -5.16   0
       235    302.2617    316.0148 300.1777529 +22.5747204     30235.55     74.27663      1.569     3.00     16.64934     20.96638     3049.696        73     1.434     1.327  59.02   0
       236    837.1681    314.0264 300.3450617 +22.7342774     1441.635     74.31451      1.468     3.08     16.58587     20.96638      144.458        24     1.257     1.037 -49.30   0
       237    792.0457    312.0170 300.3316394 +22.7201982     412.8482     74.33343      1.371     3.41     16.96297     20.96638     42.57404         5     0.622     0.611  -3.10   0
       238      1.0000    303.8596 300.0880004 +22.4809691     425.7757     55.75638      1.124     3.53     16.04803     20.96638     80.94566         5     1.248     0.289  90.00  24
       239    752.2242    302.8872 300.3221824 +22.7056559     564.4836     74.27663      1.438     4.23     17.49802     20.96638     65.45326        11     1.206     0.681 -31.40   0
       240    176.6925    302.5352 300.1430567 +22.5332326     449.6057     74.42799      1.480     4.09     16.57847     20.96638     49.73331         8     0.913     0.781  15.08   0
       241    400.7600    301.7414 300.2130428 +22.6001168     626.8861     74.31451      1.679     3.34     16.76927     20.96638      70.2234         9     1.027     0.651 -43.15   0
       242    712.7656    296.0953 300.3120822 +22.6918942     1888.595     74.31451      1.448     2.86     17.84236     20.96638     220.8966        22     1.138     1.039 -89.50   0
       243    521.0980    290.8618 300.2540481 +22.6330197     455.3975     74.40909      1.414     4.59     17.43402     20.96638     46.27248         9     0.929     0.777  86.28   0
       244    927.7867    289.1721 300.3813963 +22.7542348     587.7097     74.31451      1.485     4.53     16.01132     20.96638     57.50379         9     0.951     0.720 -15.48   0
       245    374.4789    280.5440 300.2117354 +22.5861537     2260.167     74.35236      1.704     3.45     16.69412     20.96638     231.3576        23     1.264     1.086  71.21   0
       246    586.8550    279.6648 300.2781664 +22.6494842     454.2972     74.37127      2.101     4.81     17.82706     20.96638      40.8553         8     0.941     0.697  58.69   0
       247    813.7554    273.6560 300.3508525 +22.7156570     690.7239     74.33344      1.565     3.81     16.76929     20.96638     71.88358        11     1.096     0.708  54.96   0
       248    696.2089    271.1836 300.3149998 +22.6797735     450.7487     74.23875      1.479     4.60     17.81301     20.96638     55.90972         7     0.922     0.653  38.10   0
       249    450.3740    259.8886 300.2420647 +22.6029405     1310.161      74.2577      1.547     4.40     16.85965     20.96638     145.6016        20     1.317     1.019 -45.16   0
       250    257.6839    260.4724 300.1818937 +22.5454066     201.1334     74.42799      1.334     4.42     16.62396     20.96638     32.20612         5     1.014     0.547  40.90   0
       251    695.3190    251.9514 300.3209592 +22.6739747      2210.21     74.35236      1.513     3.08     17.69626     20.96638     228.2261        24     1.222     1.063 -85.61   0
       252    956.6469    246.4163 300.4042691 +22.7505611     3274.293     74.35236      1.682     3.05     15.99947     20.96638     342.3471        30     1.321     1.166 -83.15   0
       253   1017.8856    241.4165 300.4250058 +22.7674358     344.4185     74.27663      1.655     5.77     15.99362     20.96638     38.86613         6     1.099     0.852  37.36  16
       254    403.7448    235.8339 300.2353450 +22.5820638     616.0612     74.33344      1.335     2.98     16.69456     20.96638     85.63799        12     0.959     0.837 -15.00   0
       255     78.6225    229.7773 300.1361521 +22.4829481     1408.674     74.31451      1.975     4.07     16.17776     20.96638     118.3839        25     1.458     1.152 -24.89   0
       256    109.1289    229.8384 300.1456177 +22.4921050     474.7914     74.27663      1.499     4.85     16.25845     20.96638     69.36588        11     1.105     0.883 -19.98   0
       257    972.0626    227.5281 300.4152054 +22.7497345     486.6553     74.35236      1.353     3.04     16.00269     20.96638     54.34123         6     0.777     0.495  -6.08   0
       258    816.0517    223.9491 300.3676875 +22.7020409     407.8266     74.35236      1.432     4.59     16.74703     20.96638     39.62485         7     0.919     0.652  51.87   0
       259    162.6096    221.7617 300.1648683 +22.5058050     427.5555     74.33344      1.600     2.64     16.54936     20.96638     61.29413         5     0.857     0.441  73.52   0
       260    958.2984    220.1665 300.4132964 +22.7434991     362.8488     74.29557      1.602     3.15      16.0023     20.96638     46.79423         5     0.937     0.368  -3.85   0
       261     17.6778    219.2793 300.1206095 +22.4616725     292.3767     74.42799      1.438     4.32      16.1212     20.96638     41.94475         7     1.014     0.524 -25.53   0
       262    838.3000    215.7057 300.3773002 +22.7063241     373.4405     74.50356      1.589     4.04     16.62035     20.96638      34.3246         6     0.927     0.504  44.65   0
       263    766.8438    213.4910 300.3557314 +22.6843103     619.7769     74.31451      1.380     3.61     17.12386     20.96638     75.21259        10     1.071     0.701 -34.68   0
       264    356.8807    213.3127 300.2280570 +22.5615574     454.1346     74.44689      1.708     3.72     16.59436     20.96638     52.68938         5     1.064     0.374 -15.99   0
       265    865.1287    202.4877 300.3899554 +22.7105449     2098.271     74.48467      1.570     2.96     16.44177     20.96638      237.072        26     1.217     1.179  17.97   0
       266    283.6503    199.3575 300.2097887 +22.5356177      2145.55     74.35236      1.641     2.97     16.53098     20.96638     261.8548        27     1.341     1.095  80.05   0
       267    361.4404    194.5171 300.2355698 +22.5575191     1061.753     74.27664      1.710     3.28      16.5259     20.96638     111.9726        19     1.173     1.050 -55.27   0
       268    763.6144    194.1404 300.3609981 +22.6777761     635.0143     74.27663      1.618     3.43     17.03038     20.96638     65.22699        10     0.947     0.779  66.58   0
       269    870.6277    190.8651 300.3954392 +22.7088446     257.8929     74.29557      1.245     4.14     16.37543     20.96638     38.92642         5     1.178     0.416 -77.07   0
       270    178.4305    186.8797 300.1810974 +22.5005197     848.2478     74.31451      1.856     3.62     16.29027     20.96638     75.92924        12     1.109     0.839  -5.40   0
       271    716.2422    183.7182 300.3496057 +22.6606046     1835.127     74.27663      1.528     3.09     17.16159     20.96638     199.5686        22     1.181     1.052  80.63   0
       272    781.1539    183.4626 300.3699296 +22.6799505     502.6811     74.35236      1.254     3.97     16.88383     20.96638     60.23899         9     1.025     0.694 -66.98   0
       273    199.8441    180.2607 300.1899041 +22.5050309     572.8339     74.33344      1.646     2.59      16.3378     20.96638     64.97591         8     0.842     0.700 -71.65   0
       274    987.8867    176.3572 300.4367354 +22.7397354     1046.866     74.29557      1.697     4.45       15.991     20.96638     91.80375        19     1.332     1.025 -48.55   0
       275    720.1985    175.3650 300.3535471 +22.6593848     703.1801     74.27663      1.387     3.15     17.06639     20.96638      86.7845        13     0.993     0.881  81.73   0
       276    489.8333    176.1265 300.2815114 +22.5906671     316.4875     74.31451      1.102     2.03      16.6499     20.96638     60.27663         6     0.694     0.550 -35.74   0
       277    640.8145    174.6296 300.3290389 +22.6354212      1172.73     74.33344      1.374     2.64     17.18019     20.96638     167.3521        16     1.018     0.939  45.49   0
       278    462.1874    171.3338 300.2744546 +22.5810137     324.8745     74.27663      1.329     2.69     16.54776     20.96638     42.67428         5     0.734     0.440  16.87   0
       279    836.3228    166.1553 300.3927477 +22.6914720     1549.507     74.29557      1.572     2.91     16.54723     20.96638     157.9254        25     1.342     1.052  33.81   0
       280    567.1150    166.0831 300.3088424 +22.6109083     993.7219     74.46578      1.446     3.15      16.8945     20.96638     107.0164        15     1.023     0.920  69.95   0
       281    848.2252    165.1980 300.3967710 +22.6947565      806.698      74.2577      1.449     4.16     16.46508     20.96638     95.26681        15     1.300     0.848  74.85   0
       282    894.8019    164.6515 300.4114796 +22.7085294     315.5734     74.29557      1.601     4.74     16.18096     20.96638     40.73429         7     1.041     0.611 -48.29   0
       283   1009.2261    156.1921 300.4499337 +22.7403100     1702.698     74.31451      1.790     3.39      15.9947     20.96638     173.0054        28     1.351     1.239 -76.50   0
       284    964.9156    155.5469 300.4363114 +22.7268753     1082.297     74.37127      1.600     3.20     15.97392     20.96638     129.8778        15     1.257     0.962 -77.98   0
       285    198.9423    148.4123 300.1999466 +22.4956071     693.1627     74.27663      1.601     4.34     16.16007     20.96638     64.87062        14     1.303     0.933 -24.20   0
       286     60.8309    142.7794 300.1588213 +22.4526221     2194.466     74.31451      1.715     4.21     15.80238     20.96638     193.8769        31     1.419     1.246  18.95   0
       287    883.9542    140.5092 300.4159207 +22.6983357     824.8458     74.29557      1.451     3.22     16.08232     20.96638     93.66193         8     1.033     0.500   0.62   0
       288     10.3311    140.1575 300.1439727 +22.4367408     536.3441     74.29557      1.723     4.73      15.7113     20.96638     55.50477         9     1.273     0.677  -4.14   0
       289    218.2755    136.2815 300.2098927 +22.4979099     5723.573     74.42799      1.692     3.08     16.17837     20.96638     665.0002        40     1.390     1.269  67.38   0
       290    200.0703    137.5188 300.2038282 +22.4928138     326.5996     74.42799      1.353     4.91     16.11675     20.96638     45.74127         6     1.192     0.573 -27.52   0
       291      2.7799    130.9597 300.1446064 +22.4318360     1151.515     65.65122      1.602     3.08     15.69003     20.96638     147.7515        19     1.175     1.021 -37.54  24
       292   1017.2670    124.1441 300.4628318 +22.7334861     18377.58     74.37127      1.784     3.52     16.07102     20.96638      1854.69        68     1.606     1.427 -81.32  16
       293    201.6841    127.4587 300.2075906 +22.4904055     558.0917     74.42799      1.546     2.94     16.06969     20.96638      80.3291         8     1.015     0.638  -0.91   0
       294    862.5707    118.1340 300.4165013 +22.6854999     3614.804     74.33344      1.679     3.16     15.99431     20.96638     367.5428        33     1.360     1.207 -89.26   0
       295    966.2135    116.9787 300.4492176 +22.7161590     2948.976     74.29557      1.725     3.64     15.87493     20.96638     313.6664        34     1.391     1.270 -62.01   0
       296    412.0175    113.6581 300.2775249 +22.5494101     783.9408     74.29557      1.653     2.57     15.73306     20.96638     71.73461         7     0.737     0.619  15.80   0
       297    336.1183    105.1691 300.2566469 +22.5242488     709.9614     74.31451      2.105     6.15     15.63998     20.96638     54.79395        16     1.527     0.900 -57.43   2
       298    340.0620    103.9785 300.2582603 +22.5250871     450.2498     74.29557      1.595     3.53     15.59273     20.96638     40.45721         7     0.755     0.709  18.97   3
       299    102.5336    102.1969 300.1849392 +22.4534511     618.3317     74.31451      1.935     3.40      15.7767     20.96638      59.4074        11     0.983     0.824 -67.78   0
       300    463.4103    100.3671 300.2978362 +22.5609698     1577.965     74.31451      1.540     2.85     15.80229     20.96638      193.347        19     1.170     0.942 -77.69   0
       301    391.7532    101.0200 300.2753111 +22.5397099     449.4698     74.35236      1.353     3.27     15.50882     20.96638     51.39426         8     0.827     0.658 -44.94   0
       302    525.5015    100.2611 300.3172110 +22.5795213     332.2474     74.39018      1.302     2.57     15.77527     20.96638     44.55646         5     0.707     0.446 -65.67   0
       303    207.0157     96.4502 300.2192978 +22.4830886     354.9706     74.33344      1.320     3.12     15.91769     20.96638     40.40385         6     0.777     0.496  -3.96   0
       304    751.3575     90.5179 300.3907630 +22.6442891     337.2535     74.27663      1.247     3.49     16.61186     20.96638     55.84304         6     0.846     0.609 -64.57   0
       305    898.1607     84.2802 300.4385769 +22.6863966     323.9344     74.27663      1.383     3.35     15.65724     20.96638     39.41471         5     0.928     0.351 -45.45   0
       306    237.3123     80.1682 300.2339995 +22.4874794     6025.795     74.27663      1.709     3.20     15.84677     20.96638     646.4236        42     1.398     1.324  70.40   0
       307    743.5961     81.5270 300.3912563 +22.6393800     389.3501      74.2577      1.199     3.67     16.59562     20.96638     39.68303         6     0.932     0.415  19.46   0
       308     88.5458     79.7382 300.1878670 +22.4428073       865.17     74.37127      1.897     3.11     15.72664     20.96638     110.3951        13     1.054     0.888 -60.32   0
       309    866.8384     77.9584 300.4308526 +22.6752105     261.9007     74.40909      1.078     2.81     15.70745     20.96638     42.65137         6     0.744     0.551  55.36   0
       310    209.3056     74.4717 300.2271318 +22.4774561     385.8089     74.42799      1.279     3.06     15.86945     20.96638     56.90037         5     0.747     0.406  27.56   0
       311    251.8671     72.0886 300.2411461 +22.4895143     328.1943     74.42799      1.674     4.55     15.72784     20.96638     37.05586         5     0.834     0.706  31.83   0
       312    483.3900     65.5814 300.3153308 +22.5569434     6358.261     74.27664      1.588     3.00     15.33831     20.96638     715.8643        39     1.347     1.195  73.04   0
       313    368.6262     65.4391 300.2796402 +22.5225550     713.7028     74.33344      1.634     3.88      15.0735     20.96638     74.44291        12     1.119     0.842  61.71   0
       314    540.8127     60.5491 300.3348490 +22.5726786     223.9868     74.35236      1.015     3.48     15.30551     20.96638     44.10205         5     0.763     0.460  18.28   0
       315    677.4998     57.5577 300.3784156 +22.6127110     267.2766     74.29558      1.377     3.65     16.45072     20.96638     41.88999         6     0.948     0.404 -19.70   0
       316    735.8959     55.5680 300.3972667 +22.6296054     623.5629     74.27663      1.312     2.72     16.43397     20.96638     110.8873         9     0.903     0.727 -51.96   0
       317    829.1757     54.5604 300.4266848 +22.6572122     418.9855     74.35236      1.478     3.52     15.79944     20.96638     63.74475        10     1.053     0.731 -37.42   0
       318    534.8577     48.5117 300.3368939 +22.5674336     478.7708     74.39018      1.559     2.92     15.16667     20.96638     49.95437         7     0.905     0.605  25.90   0
       319    176.5619     49.3329 300.2250908 +22.4604251     538.2505     74.29557      1.687     4.20     15.81218     20.96638     50.60652         8     1.102     0.520 -21.09   0
       320    611.8050     45.7676 300.3617592 +22.5896658     6197.459     74.29557      1.572     3.03      15.5073     20.96638      721.312        40     1.368     1.226  82.39   0
       321    386.6201     44.5786 300.2920009 +22.5219414     1590.102     74.31451      1.700     3.52     14.87401     20.96638      170.969        23     1.282     1.134  57.38   0
       322    652.8828     43.6337 300.3752534 +22.6013402     776.8986     74.27663      1.378     2.31     16.05073     20.96638     114.4416        13     0.908     0.820 -77.77   0
       323    668.9826     39.5067 300.3816090 +22.6049685      640.996     74.23875      1.471     3.26     16.24088     20.96638     52.29434         8     0.742     0.738  63.02   0
       324    135.6805     37.6638 300.2161558 +22.4448294     751.1012     74.42799      1.668     4.16     15.75011     20.96638     73.53511        10     1.094     0.718 -44.66   0
       325    939.2230     37.2146 300.4666411 +22.6851218      536.473     74.31451      1.592     5.52     15.50891     20.96638     52.88462         9     1.433     0.599 -16.93   0
       326    707.5526     34.9302 300.3951159 +22.6151881     425.1181     74.29557      1.477     2.88     16.25812     20.96638     62.40194         9     0.911     0.641 -25.86   0
       327    656.0514     30.5752 300.3804718 +22.5985300     2756.242     74.33344      1.569     3.35     15.94901     20.96638     302.2071        31     1.330     1.173  75.84   0
       328    296.8366     32.0859 300.2681003 +22.4914747     447.0851     74.29557      1.543     3.48     14.81476     20.96638     44.98032         6     0.745     0.576 -33.87   0
       329    671.2701     29.6914 300.3855021 +22.6028279     837.4335     74.44689      1.919     4.83      16.1835     20.96638      69.7555        17     1.428     0.923  57.67   0
       330    742.4751     22.4596 300.4100448 +22.6220434     1488.643     74.37127      1.522     2.69     16.11646     20.96638     176.5881        20     1.128     0.989  35.11   0
       331    902.4111     21.7387 300.4601673 +22.6696600     220.0524      74.2577      1.326     4.04     15.45924     20.96638     38.24242         6     1.109     0.420 -36.55   0
       332    820.4172     17.1666 300.4360678 +22.6438278     332.8127     74.29557      1.284     4.14       15.612     20.96638      34.9684         7     0.869     0.614  17.58   0
       333    680.6375     15.7968 300.3929235 +22.6016308      628.621     74.35236      1.211     2.59     16.09901     20.96638     94.31149        10     0.929     0.648  -9.13   0
       334      2.4370   1019.2396 299.8560971 +22.6866901     1247.254     64.02406      4.675     6.79     1.652319     20.96638     45.13174        11     1.689     0.766  22.35  24
       335    144.6714   1017.0405 299.9010263 +22.7287434     461.1528     74.29557      2.341     4.22     107.8931     20.96638     33.13074         5     0.823     0.617  -5.26   0
       336     33.0190   1008.9555 299.8689463 +22.6929196     1161.442     74.33343      6.568    10.78     35.45193     20.96638     46.84997        17     2.207     1.516  20.94   2
       337    535.0000    991.0158 300.0309696 +22.8383465     977.4692     74.14395      1.486     5.27     13.19278     20.96638     87.24802        12     1.393     0.644  81.93   3
       338    286.2671   1011.1294 299.9469921 +22.7695278      1046.05     74.35236      1.959     4.94     18.78203     20.96638     75.74282        15     1.497     0.759  77.09   2
