#   1 NUMBER                 Running object number                                     
#   2 X_IMAGE                Object position along x                                    [pixel]
#   3 Y_IMAGE                Object position along y                                    [pixel]
#   4 ALPHA_J2000            Right ascension of barycenter (J2000)                      [deg]
#   5 DELTA_J2000            Declination of barycenter (J2000)                          [deg]
#   6 FLUX_APER              Flux vector within fixed circular aperture(s)              [count]
#   7 FLUXERR_APER           RMS error vector for aperture flux(es)                     [count]
#   8 FLUX_RADIUS            Fraction-of-light radii                                    [pixel]
#   9 FWHM_IMAGE             FWHM assuming a gaussian core                              [pixel]
#  10 BACKGROUND             Background at centroid position                            [count]
#  11 THRESHOLD              Detection threshold above background                       [count]
#  12 FLUX_MAX               Peak flux above background                                 [count]
#  13 ISOAREA_IMAGE          Isophotal area above Analysis threshold                    [pixel**2]
#  14 A_IMAGE                Profile RMS along major axis                               [pixel]
#  15 B_IMAGE                Profile RMS along minor axis                               [pixel]
#  16 THETA_IMAGE            Position angle (CCW/x)                                     [deg]
#  17 FLAGS                  Extraction flags                                          
         1    209.2143     11.0516 300.2354765 +22.4424359      3902.49     72.28174      1.587     2.95     5.600918     20.38768     388.3501        35     1.344     1.220  79.55   0
         2    777.2378     11.9330 300.4120321 +22.6127359     564.3504     72.24493      1.239     2.62     5.409983     20.38768     91.73115        10     0.937     0.677 -77.96   0
         3      1.7647     11.3914 300.1708903 +22.3803828     271.8701     58.60315      1.234     3.13     5.778562     20.38768     38.78652         6     0.696     0.653  84.94  24
         4    631.7438      8.4719 300.3678159 +22.5682030     438.2856     72.28174      1.393     2.79     5.746479     20.38768     54.79148         5     0.713     0.482 -14.23   0
         5    770.8064      3.7447 300.4126808 +22.6084560      890.123     67.83923      1.412     2.87     5.435714     20.38768      136.424        15     0.999     0.919 -65.35  24
         6    736.2257      3.3506 300.4020305 +22.5979959     330.7708     66.29227      1.382     3.74     5.413095     20.38768     47.22111         6     0.845     0.717  75.84  16
         7    325.2446      3.1424 300.2741273 +22.4749138     1131.717     65.44415      1.417     3.81     5.703656     20.38768     148.2618        21     1.216     1.108 -82.86  24
         8    210.5197    999.6853 299.9148732 +22.7265772     2391.029     72.41044      7.676    17.17     74.97367     20.38768     65.88524        78     3.014     2.719 -44.91   3
         9    286.7093   1020.6780 299.9317324 +22.7554634     1666.044     69.96274      3.487    12.03     40.71061     20.38768     63.70674        42     2.557     1.656 -66.37  26
        10    128.3473   1013.8577 299.8847207 +22.7059730      3070.13     72.31853     13.987    72.88     88.08971     20.38768     121.1694      1113    20.633     7.144  44.89  27
        11    118.1572    956.0184 299.9003714 +22.6863348     5194.132     72.28174     22.251   101.36     35.65313     20.38768     220.5954      2974    20.127    14.163   2.47  19
        12    202.8930    978.8860 299.9192694 +22.7183251     1309.861     72.44717      6.777    12.63     57.65105     20.38768     47.34693        20     2.940     1.511  61.38   3
        13    205.0326    984.0607 299.9182510 +22.7204508     1791.322     72.30014      4.280    13.79      61.7799     20.38768     59.47577        43     2.437     2.171  74.08   3
        14    535.4307    983.4056 300.0212518 +22.8193990     357.3695     72.26334      1.558     5.02     3.569221     20.38768     48.88925         7     1.190     0.698   1.69   0
        15    965.3415    978.9974 300.1566566 +22.9470286     470.0446     72.22652      1.478     3.88     3.464153     20.38768     38.18708         5     1.234     0.350 -61.68   3
        16    963.2648    976.9805 300.1566651 +22.9458270     558.4657     72.24493      2.043     6.98     3.467309     20.38768     36.68764        13     1.504     0.908 -74.74   2
        17    771.6046    995.3603 300.0909279 +22.8936540     630.1536     72.28174      1.841     5.96     3.595546     20.38768     38.05814        11     1.163     0.859   0.03   0
        18     17.3711    973.0243 299.8635262 +22.6609513     786.8077     72.26334      3.599     3.45    -5.749063     20.38768     26.94739         5     1.713     0.201 -54.53   1
        19    185.7398    964.3871 299.9186540 +22.7090198      1696.37     72.22652      6.151    10.56     45.31084     20.38768     48.28214        28     1.866     1.664  42.20   2
        20    181.1253    962.7023 299.9177677 +22.7071517     1787.348     72.39207      5.022     8.33     44.50797     20.38768     55.61719        21     1.909     1.017  73.72   3
        21    584.6978    998.9758 300.0315255 +22.8386434     2371.648     72.17125      1.882     4.42     3.579387     20.38768     170.9451        31     1.399     1.319 -68.26   0
        22    689.6505    961.3154 300.0764686 +22.8593101     6792.316     72.24493      1.867     4.12     3.673717     20.38768     404.9232        47     1.501     1.415  -4.99   0
        23      2.5197   1011.3793 299.8464347 +22.6674831     2588.692     62.53405     16.650    34.68    -30.63001     20.38768     67.85448       233     9.548     3.496 -74.07  27
        24    393.4211   1005.6046 299.9698310 +22.7831638     639.1594     72.22652      1.923     4.98     3.542964     20.38768     44.47506         8     0.923     0.761  54.16   0
        25      3.8126    959.5115 299.8637106 +22.6530078     860.1649     68.09364      6.539     8.30    -9.855211     20.38768     31.57928        10     1.779     1.083 -22.23  25
        26    114.6640    924.1252 299.9096601 +22.6761434     4145.821     72.30014     19.892    63.91      10.3894     20.38768     83.33775      1163    14.606     7.761 -19.35   3
        27    597.9994    952.3038 300.0508530 +22.8292406     1537.119     72.13438      1.819     4.76     3.591844     20.38768     124.5943        24     1.386     1.191 -37.79   0
        28    569.6746    955.0558 300.0411374 +22.8215356     386.0224     72.30014      1.711     4.78     3.585201     20.38768     45.36781         6     1.057     0.612  42.41   0
        29    281.2711    955.8651 299.9511286 +22.7352469     364.3535     72.30014      1.480     5.31     19.15112     20.38768     50.15932        10     1.226     0.724  86.82   0
        30    775.4147    949.1574 300.1071484 +22.8815335     333.4926     72.28174      1.686     5.51     3.655164     20.38768     40.25102         6     1.042     0.823  47.50   0
        31    186.7105   1015.5350 299.9023146 +22.7239742     751.9267      72.3737      2.151     7.97     88.59012     20.38768     44.22301        11     1.779     0.999 -59.10  16
        32    491.8662    948.3669 300.0190898 +22.7962791     970.6038     72.26334      1.749     4.45      3.71076     20.38768     79.06973        19     1.333     0.981  29.01   0
        33    422.5097    946.4810 299.9981179 +22.7749328     6754.834      72.3737      1.834     4.14     3.964386     20.38768     459.1736        43     1.409     1.395   6.48   0
        34    523.9934   1008.0358 300.0096769 +22.8230343     371.8158     72.28174      1.760     4.83       3.5331     20.38768      27.1753         6     0.895     0.740 -47.25   0
        35    454.9546    933.7059 300.0123705 +22.7810009     415.3359     72.28174      1.558     4.81     3.909657     20.38768     40.39414         8     1.012     0.648 -63.67   0
        36    969.1219    925.2909 300.1753094 +22.9327374     2174.449     72.41044      2.040     5.65     3.534439     20.38768     106.8237        32     1.549     1.367 -28.60   0
        37     17.4143    981.4594 299.8607955 +22.6633816     1592.731     72.22652     11.320    56.89    -7.330478     20.38768     60.02107       268    10.599     8.474 -25.03  19
        38    619.0847    922.2374 300.0672006 +22.8269353      345.985     72.24493      1.470     5.29     3.661433     20.38768     39.25682         9     1.013     0.779 -71.38   0
        39      4.1894   1021.3162 299.8437201 +22.6708319     2758.167     64.58488     12.051    41.63    -33.21957     20.38768     74.00594       273    10.911     4.407 -30.20  27
        40    757.7966    914.0044 300.1130935 +22.8661602     799.3151     72.07904      2.000     4.99     3.728495     20.38768     58.38597        13     1.331     0.894  62.83   0
        41    792.4214    908.5095 300.1256722 +22.8749617     948.7118     72.18967      1.836     4.91     3.725125     20.38768     60.49905        21     1.266     1.155 -51.17   0
        42    570.1055    909.2988 300.0561565 +22.8085346     376.3417     72.44717      1.629     4.55     3.705364     20.38768     31.01678         8     1.147     0.513  54.15   0
        43    276.2216    981.8461 299.9411059 +22.7411816     8547.451     72.30014     10.224    34.67     32.45955     20.38768     188.2848       904    11.897     5.279  62.56  19
        44      2.7996    905.0596 299.8811070 +22.6370976     401.2372     63.88083      1.568     5.37     2.603282     20.38768      39.7769         9     1.158     0.702 -85.37  16
        45    814.8405    902.0608 300.1347578 +22.8798300     11587.94     72.26334      1.801     3.99     3.730372     20.38768     725.9569        55     1.501     1.401  44.90   0
        46    860.6739    902.7136 300.1488340 +22.8937544     431.5631     72.39207      1.830     5.29     3.696846     20.38768     35.06384         7     1.296     0.609  12.08   0
        47    211.0923   1015.6015 299.9098725 +22.7313120     577.2924     72.17125      2.317    11.72     88.22513     20.38768      44.1861        12     2.885     1.327  -0.98  19
        48   1005.5118    902.6359 300.1940310 +22.9371337     358.8277     72.24493      1.639     3.31     3.672262     20.38768     43.74197         5     0.952     0.447  12.16   0
        49    671.4078    994.3370 300.0600413 +22.8633169     8684.658     72.22652      1.931     4.45     3.666496     20.38768     525.6737        44     1.589     1.357  38.76   3
        50    162.7499    901.0604 299.9321065 +22.6839634     860.9773     72.31853      4.776     4.88     12.51983     20.38768     31.91629         5     0.984     0.684  57.50   0
        51    210.5862   1007.0799 299.9124879 +22.7287171     2464.358     72.24493      6.138    19.25     80.77119     20.38768     62.22055       106     4.751     2.168  13.82  19
        52    676.9829    991.9953 300.0625400 +22.8643167     9505.733      72.2081      1.980     4.63     3.668869     20.38768     599.9544        52     1.593     1.455   7.99   3
        53    126.3293    893.2271 299.9233346 +22.6707866     1175.792     72.24493      6.912     5.94     8.801969     20.38768     63.36816        20     1.501     1.208  51.21   0
        54    519.8302    889.9673 300.0467910 +22.7879099     517.8837     72.28174      1.606     4.58     3.833638     20.38768     48.27296        10     0.937     0.893 -20.26   0
        55    231.0079    885.0913 299.9585194 +22.6998683     410.2166     72.17125      4.738     4.74     9.446811     20.38768     30.39567         5     1.457     0.437  71.73   0
        56    823.2804    884.0749 300.1432389 +22.8771952     1419.549      72.3737      1.704     3.89     3.779211     20.38768     114.7407        25     1.263     1.220  56.44   0
        57    866.3680    889.7746 300.1548180 +22.8917453     311.5295     72.26334      1.426     6.03     3.743395     20.38768     50.70268        11     1.139     0.897 -64.64   0
        58    675.6907    881.1407 300.0982001 +22.8321117     600.1505     72.33693      2.397     6.03     3.802007     20.38768     40.15204        10     1.232     0.828  19.99   0
        59    861.6381    877.6901 300.1572738 +22.8868575      914.862     72.24493      2.189     4.65     3.788327     20.38768     68.80988        14     1.223     0.918  61.22   0
        60    201.1716    877.6280 299.9516705 +22.6887748     564.9045     72.22652      4.145     5.39     9.107535     20.38768     39.23643         5     1.272     0.645 -70.41   0
        61    969.7665    874.8603 300.1919147 +22.9184455     374.2961     72.30014      1.958     5.38     3.901389     20.38768     40.22499         6     1.148     0.712  15.94   0
        62    909.3291    869.3757 300.1748488 +22.8987611     636.6252     72.28174      2.107     5.66     3.862848     20.38768     47.53992        11     1.297     0.706  10.91   2
        63    761.4449    867.9203 300.1292197 +22.8540229     725.2842     72.24493      1.694     3.80     3.835181     20.38768     64.05338        13     1.019     0.884  15.55   0
        64     21.7946    866.5760 299.8995221 +22.6317690     276.0796     72.24493      1.179     3.60     3.928221     20.38768     33.61742         5     0.952     0.391 -83.33   0
        65    772.3355    865.2278 300.1334894 +22.8565142     624.7079     72.26334      1.580     4.22     3.840585     20.38768     56.73059        10     0.970     0.817 -42.29   0
        66    473.7922    864.1711 300.0408497 +22.7667006     4165.744     72.26334      1.645     3.43     4.129307     20.38768     330.4418        33     1.279     1.237 -85.32   0
        67    252.2344    853.1682 299.9755007 +22.6970821     221.8539     72.28174      1.151     3.46     5.837289     20.38768     31.72973         5     0.999     0.345 -43.05   0
        68    517.1625    852.5907 300.0581160 +22.7763841     355.5035     72.28174      1.622     3.45      3.96044     20.38768     39.50882         5     0.745     0.461 -16.96   0
        69    199.1348    849.6859 299.9601236 +22.6801506     936.6866     72.35531      1.955     4.52     6.739502     20.38768     84.76196        19     1.420     1.011  36.88   0
        70    176.2741    846.8965 299.9539241 +22.6724908     1464.043     72.39207      1.718     3.73     6.862671     20.38768     152.0595        23     1.237     1.163  -4.67   0
        71    107.6370    847.7618 299.9323104 +22.6521409     212.6823     72.33693      1.255     4.45      5.25574     20.38768     33.75826         7     0.986     0.571  33.29   0
        72     51.5871    836.5983 299.9185247 +22.6321177     470.1653     72.09749      1.634     3.47     4.334533     20.38768     54.36687         8     1.050     0.489  86.31   0
        73   1002.3369    834.5898 300.2151720 +22.9166349     2092.122      72.2081      1.828     4.55     4.256787     20.38768     131.3696        31     1.405     1.349   3.17   0
        74    785.7828    828.4094 300.1496539 +22.8499723     770.9214      72.2081      1.621     4.25     3.985182     20.38768     66.63143        11     0.963     0.834 -38.26   0
        75    208.5156    828.3553 299.9699757 +22.6768480     377.3975     72.24493      1.287     4.28     5.794545     20.38768     55.34226         8     0.981     0.715 -59.69   0
        76    653.8851    822.3170 300.1105367 +22.8086881     4854.723     72.41044      1.602     3.30     4.016826     20.38768     387.6021        36     1.299     1.225 -30.74   0
        77    144.1302    822.5295 299.9518557 +22.6558574     273.8044     72.35531      1.300     4.31     5.613028     20.38768      47.2883         7     0.900     0.587 -83.85   0
        78    456.2411    819.3680 300.0499557 +22.7485807     557.9245     72.31853      1.428     3.57     4.063076     20.38768     61.38503        10     0.976     0.794  75.45   0
        79    204.0885    815.8928 299.9726512 +22.6719454     1359.904      72.4288      1.753     3.74     5.365069     20.38768     138.1408        25     1.321     1.195  21.97   0
        80    674.6086    814.9633 300.1193835 +22.8127892     901.3399     72.26334      1.730     3.82     3.976289     20.38768     80.47561        16     1.182     1.000   4.84   0
        81    223.4377    812.6066 299.9797353 +22.6768084     381.6523     72.30014      1.444     4.27     5.161021     20.38768     42.34997         9     1.053     0.706  70.29   0
        82    590.4037    805.9464 300.0960877 +22.7849573     299.2363     72.24493      1.412     3.85       4.1157     20.38768     36.54454         7     0.930     0.604 -34.29   0
        83    829.8817    802.0858 300.1719594 +22.8556281     4116.771     72.41044      1.617     3.40     4.061056     20.38768      322.242        30     1.268     1.162  35.23   0
        84    238.2031    796.1492 299.9896766 +22.6765178     567.2997     72.26334      1.534     4.54     4.693457     20.38768     57.88724        11     1.176     0.946 -64.54   0
        85    546.5776    794.5952 300.0861313 +22.7685593     714.3633     72.22652      1.645     3.93     4.020947     20.38768     73.43275        13     1.098     0.902 -14.04   0
        86    193.1391    792.4601 299.9768653 +22.6619394     1040.786     72.30014      1.568     3.57     4.735248     20.38768     100.6058        17     1.121     1.005  20.73   0
        87    608.3321    788.0657 300.1074844 +22.7851993     481.7881     72.31853      1.494     4.29     4.233573     20.38768     46.03525         9     0.912     0.712 -22.61   0
        88    342.8934    784.5468 300.0260079 +22.7045940     53973.12     72.31853      1.621     3.27     4.546497     20.38768      5305.44        89     1.420     1.387  13.64   0
        89    600.6328    783.6888 300.1065095 +22.7816346     1599.889     72.22652      1.536     3.02     4.228762     20.38768     180.8018        19     1.089     0.991  13.31   0
        90   1013.6652    782.9945 300.2354830 +22.9052044     973.9833     72.24493      1.863     4.92     4.552133     20.38768       59.453        20     1.300     1.129  77.93   0
        91    271.1418    782.8972 300.0042272 +22.6825979     430.6012     72.33693      1.497     5.03     4.645716     20.38768     45.90847         9     0.982     0.730 -78.66   0
        92    629.6796    779.6902 300.1168562 +22.7891943     968.3981     72.39207      1.609     4.07      4.19154     20.38768     89.78185        17     1.135     1.054 -80.74   0
        93     28.6977    779.2406 299.9300606 +22.6088029      857.713     72.26334      2.308     5.47     4.127946     20.38768     72.87831        19     1.709     1.231 -35.03   0
        94    640.7953    777.9558 300.1208823 +22.7920284     516.6428     72.26334      1.604     3.74     4.149978     20.38768     57.78614        11     1.095     0.824 -47.37   0
        95    960.8036    775.5783 300.2214035 +22.8872391     419.6299     72.22652      1.706     4.88     4.325821     20.38768     36.89544         7     1.009     0.669  27.54   0
        96    746.2141    774.3171 300.1549094 +22.8225802     439.9552     72.24493      1.394     3.68     4.042921     20.38768     49.47176         9     0.953     0.742 -88.22   0
        97    540.9302    771.5661 300.0918597 +22.7602558     405.7702     72.26334      1.428     3.81     4.015556     20.38768     44.49929         6     1.232     0.339  43.50   0
        98    783.5958    764.7557 300.1696680 +22.8310367     721.8757     72.28174      1.443     3.10     3.956495     20.38768     81.87734        14     0.960     0.922  46.58   0
        99    392.6317    761.7839 300.0488817 +22.7129800     31450.57     72.24493      1.576     3.17     4.207642     20.38768     3417.773        74     1.358     1.341 -28.89   0
       100    406.9074    762.3851 300.0531283 +22.7174337     1988.148     72.18967      1.526     3.20      4.09757     20.38768     171.7185        22     1.149     1.043 -15.27   0
       101    915.7465    757.9556 300.2130796 +22.8686784     2796.845     72.28174      1.582     3.59     4.223002     20.38768     221.5618        30     1.257     1.204 -22.84   0
       102     30.1315    758.5786 299.9372220 +22.6033089     277.7829     72.26334      1.286     4.24      4.14008     20.38768     28.78967         5     0.957     0.536  47.87   0
       103    403.4715    756.1351 300.0540908 +22.7146098     648.2946     72.30014      1.748     4.34     4.128322     20.38768     66.68683        12     1.185     0.827  -1.70   0
       104    673.7637    753.8547 300.1389871 +22.7949903     925.9813     72.28174      1.511     3.25     4.006622     20.38768     98.73938        16     1.085     0.938  30.38   0
       105    510.0558    753.7271 300.0880465 +22.7458785     527.1997     72.28174      1.729     3.22     4.016613     20.38768     66.06622         8     0.923     0.750  59.63   0
       106    275.2140    753.4786 300.0150564 +22.6753799     931.4362     72.28174      1.687     3.74     4.520477     20.38768     95.12785        18     1.223     1.031  29.25   0
       107    520.8683    748.6968 300.0930477 +22.7476764     927.4874     72.39207      1.482     3.05       4.0159     20.38768     101.1903        13     0.968     0.859  19.30   0
       108     79.8198    749.0831 299.9557458 +22.6154971      530.282      72.2081      1.660     4.46     4.349262     20.38768     49.74074        10     0.968     0.850 -40.28   0
       109    921.9821    745.3830 300.2191113 +22.8669343     472.0668     72.24493      1.544     4.43     4.312022     20.38768     52.86044        12     1.234     0.856   8.83   0
       110    423.1319    745.2046 300.0637616 +22.7173687     280.9338     72.22652      1.238     3.93      4.01642     20.38768     40.25762         6     0.753     0.588  50.47   0
       111    378.7736    744.4282 300.0502113 +22.7038436     327.0523     72.22652      1.605     5.17     4.316626     20.38768     32.83629         5     1.063     0.711 -73.41   0
       112    466.5370    743.4768 300.0778318 +22.7298881      486.704     72.33693      1.647     4.33     4.016123     20.38768     40.47416        10     1.017     0.723 -22.68   0
       113    108.8276    742.9944 299.9667387 +22.6224552     539.7971     72.26334      1.650     3.54     4.388426     20.38768     50.84296         6     0.797     0.657  79.43   0
       114    899.1282    740.2534 300.2136516 +22.8586143     392.4942     72.26334      1.344     5.20     4.162334     20.38768     37.27046         9     1.191     0.641  26.62   0
       115    272.8890    738.0260 300.0193559 +22.6702492     440.8095      72.2081      1.516     5.25     4.444929     20.38768     60.78801         9     1.256     0.621 -13.13   0
       116    595.9296    728.6169 300.1229468 +22.7644140     476.8604     72.28174      1.206     2.52     4.397895     20.38768      59.1282         7     0.720     0.639 -23.21   0
       117    565.6702    726.6259 300.1141709 +22.7547718      780.441     72.26334      1.675     4.88     4.170748     20.38768     73.14841        14     1.223     0.937 -28.19   0
       118    475.0048    725.8178 300.0862071 +22.7273584     320.7525     72.22652      1.288     4.18     4.014778     20.38768     43.99678         7     0.894     0.627 -56.74   0
       119    982.1773    723.1353 300.2451188 +22.8785728     4591.301     72.24493      1.648     3.44     4.441157     20.38768     362.5728        35     1.336     1.267 -33.04   0
       120    587.6309    724.0179 300.1218572 +22.7606060     1371.602     72.24493      1.456     3.11     4.327372     20.38768     139.7402        18     1.156     0.926  46.37   0
       121    507.5272    723.8088 300.0969838 +22.7365324     312.6528     72.24493      1.336     1.79     4.015231     20.38768     62.64339         5     0.670     0.487 -76.17   0
       122    668.8815    718.8608 300.1488407 +22.7834786     346.6016     72.35531      1.562     5.21     4.054153     20.38768     34.52939         8     1.073     0.716  13.98   0
       123    970.7514    714.4696 300.2443711 +22.8726605     1728.231     72.26334      1.737     3.68     4.430582     20.38768     134.6139        26     1.315     1.163  75.87   0
       124    333.6217    708.2856 300.0479112 +22.6799311     835.1179      72.2081      1.548     2.98      4.44302     20.38768     92.42634        15     1.003     0.935  70.37   0
       125    797.0031    705.7079 300.1930403 +22.8180940     2663.285     72.17125      1.635     3.46     3.881327     20.38768     257.9976        28     1.338     1.136 -22.16   0
       126   1001.8201    704.7950 300.2572078 +22.8791855      1582.14     72.24493      1.626     3.70     4.447186     20.38768     131.2608        22     1.246     1.105  10.30   0
       127     19.7710    695.5956 299.9544722 +22.5821392     870.9717     72.22652      1.829     4.84     4.129998     20.38768     71.20046        17     1.233     1.099 -53.63   0
       128    879.3820    691.6622 300.2232876 +22.8387387     648.4387     72.22652      1.876     7.04     4.191967     20.38768     38.26885        17     1.436     0.967  47.09   0
       129    182.4419    692.2104 300.0061229 +22.6299741     672.2499     72.26334      1.558     4.80     4.246711     20.38768     69.49527        13     1.171     0.911 -33.75   0
       130    915.4532    682.7319 300.2374384 +22.8469777     149091.9     72.28174      1.615     3.33     4.353512     20.38768     13375.74       156     1.496     1.433 -59.81   0
       131    678.3724    686.5095 300.1623115 +22.7770324     379.7261     72.24493      1.306     5.01     4.050096     20.38768     51.11221         8     0.950     0.747 -23.25   0
       132    767.6978    683.0221 300.1912790 +22.8027971     880.4252     72.18967      1.586     3.02     3.915862     20.38768     84.04938        15     1.062     0.844  71.39   0
       133    948.1473    675.5964 300.2499542 +22.8547198      548.461     72.26334      1.608     4.04     4.410287     20.38768     53.71437        10     1.022     0.944  74.95   0
       134    601.6405    671.5181 300.1432818 +22.7497310     1719.299     72.22652      1.451     2.58     4.292638     20.38768     230.7255        20     1.080     0.990  60.86   0
       135    782.9012    668.8524 300.2006222 +22.8032819     9307.921     72.35531      1.451     2.92     3.953282     20.38768     1070.344        37     1.172     1.162  43.41   0
       136    284.3969    663.8811 300.0470296 +22.6524264     4914.422     72.17125      1.524     2.92        4.226     20.38768     617.6004        38     1.278     1.208  -9.77   0
       137    366.5280    662.0294 300.0731793 +22.6765241     1210.722     72.26334      1.452     3.02      4.33521     20.38768     146.9361        16     1.006     0.962  37.74   0
       138    241.6158    659.5473 300.0351338 +22.6383522     537.1304     72.26334      1.642     7.02     4.239682     20.38768     54.92231        14     1.309     1.054  60.39   0
       139    574.5872    657.4044 300.1394429 +22.7375699     792.6339     72.11594      1.352     3.02     4.277006     20.38768     97.41456        13     0.988     0.858  77.75   0
       140    566.3918    649.6964 300.1393954 +22.7329002     3051.004     72.15282      1.372     2.53     4.300148     20.38768     424.6068        24     1.085     1.006  65.64   0
       141    556.7108    643.4695 300.1384041 +22.7282106     1547.654      72.4288      1.425     2.62     4.331888     20.38768     169.9082        19     1.003     0.995 -53.98   0
       142    950.2624    641.6523 300.2616441 +22.8455985     486.9304     72.31853      1.546     4.65     4.410721     20.38768     48.01738         9     1.207     0.570 -12.98   0
       143    485.7741    642.3163 300.1166939 +22.7066165      239.481     72.24493      1.366     3.87     4.215264     20.38768     41.86959         5     0.876     0.489 -47.25   0
       144    467.7334    640.2631 300.1117454 +22.7006189     272.0232     72.31853      1.311     4.29      4.21697     20.38768     44.28613         5     0.784     0.669  67.08   0
       145    220.1364    639.3912 300.0350037 +22.6261266     710.1451     72.24493      1.404     3.40     4.310479     20.38768     81.52882        13     1.020     0.936 -85.44   0
       146    234.0250    637.8878 300.0398106 +22.6298607     763.9508      72.2081      1.581     3.22     4.314931     20.38768     83.50598        15     1.008     0.996  38.97   0
       147   1003.6552    634.6324 300.2805811 +22.8595702     520.3588     72.28174      1.500     3.28     4.432592     20.38768     62.42709        12     0.984     0.879 -17.53   0
       148    291.2951    635.0067 300.0585564 +22.6462090     397.2874     72.15282      1.590     3.55     4.327943     20.38768     42.09544         7     0.977     0.675 -16.86   0
       149    259.8962    634.7163 300.0488858 +22.6367096     540.7797      72.4288      1.474     3.21     4.325193     20.38768     70.83489        10     1.014     0.892  29.19   0
       150    580.7029    633.8207 300.1490101 +22.7326307     547.5703     72.18967      1.733     3.14      4.46029     20.38768      56.0955        11     1.007     0.819  25.76   0
       151    481.4001    633.0382 300.1183468 +22.7026416     1743.176     72.24493      1.446     3.00     4.263122     20.38768     207.8832        21     1.069     1.060  12.66   0
       152    515.2100    632.2039 300.1291429 +22.7125367     328.0507     72.09749      1.261     3.84      4.34053     20.38768     39.52536         6     0.774     0.546  52.11   0
       153    135.3392    627.8999 300.0123766 +22.5973952     19876.57     72.35531      1.642     3.18      4.41722     20.38768     2317.225        63     1.423     1.363  60.24   0
       154     56.4824    629.6323 299.9873089 +22.5742359     600.8173     72.24493      1.642     2.79      4.53836     20.38768     74.84663         8     0.919     0.624 -20.74   0
       155    566.2960    628.5831 300.1462253 +22.7268089     1020.795     72.17125      1.328     2.52     4.468849     20.38768     130.4776        14     0.910     0.880 -56.12   0
       156    601.5558    627.3372 300.1576107 +22.7370184      258.692     72.28174      1.197     3.32     4.543577     20.38768     44.57929         5     0.718     0.479 -75.87   0
       157    320.2356    620.3403 300.0723227 +22.6506782     270.0206     72.28174      1.281     3.74     4.394535     20.38768     37.20984         5     0.969     0.414 -83.96   0
       158    650.0385    616.4608 300.1762454 +22.7484235     360.7828     72.26334      1.447     3.82     4.593981     20.38768     32.66394         6     0.841     0.498  -0.73   0
       159    984.5627    614.7305 300.2810909 +22.8481327     1095.463     72.24493      1.728     3.26     4.424897     20.38768     112.7664        17     1.193     0.939   3.27   0
       160     81.1654    612.2415 300.0006277 +22.5766522     1426.701     72.31853      1.928     4.48     4.681223     20.38768      115.705        26     1.545     1.153 -84.04   0
       161    850.9755    613.0552 300.2399729 +22.8076437     629.1342     72.28174      1.829     4.12     4.345109     20.38768     48.74122         8     0.917     0.695  88.21   0
       162    148.0314    613.0771 300.0211367 +22.5969497     371.2938     72.24493      1.514     4.38     4.410482     20.38768     41.89323         6     0.800     0.682  15.24   0
       163    529.8769    609.0393 300.1412348 +22.7102815     421.4684     72.24493      1.421     3.58     4.572055     20.38768     62.33041        10     1.023     0.725  -9.39   0
       164    924.6846    607.5246 300.2647547 +22.8281304     907.7123      72.3737      2.108     3.62     4.405624     20.38768     65.76215        14     1.096     0.872   7.92   0
       165    322.6902    608.1981 300.0770307 +22.6479292     349.6242     72.18967      1.305     3.41      4.41414     20.38768     38.31662         7     0.829     0.615  63.66   0
       166    486.5893    601.5376 300.1301957 +22.6951528     793.5482     72.18967      1.594     3.20     4.449441     20.38768     72.32399        10     0.904     0.801  -6.65   0
       167    634.6288    600.2332 300.1767171 +22.7391451     437.5043     72.28174      1.262     3.33     4.697259     20.38768     63.89705         5     0.836     0.453 -41.83   0
       168    681.8809    598.7303 300.1919254 +22.7528719      513.012      72.3737      1.518     2.59     4.658698     20.38768     63.10826         8     0.850     0.628  58.10   0
       169    652.1101    598.0524 300.1828710 +22.7437570     569.2625     72.28174      1.333     3.03     4.708481     20.38768     78.81498         9     0.818     0.714  51.66   0
       170    530.7971    596.9952 300.1454339 +22.7070988     996.7811     72.07904      1.533     3.13     4.631846     20.38768     116.3225        14     1.023     0.918  39.82   0
       171    964.4696    592.7901 300.2819508 +22.8358096     3299.425     72.24493      1.510     2.92     4.518316     20.38768     341.3598        30     1.187     1.113  40.40   0
       172    496.1653    592.5986 300.1360803 +22.6954565     1822.042     72.22652      1.395     2.50     4.508982     20.38768     224.0253        20     1.072     0.980 -60.58   0
       173     58.1234    586.1823 300.0019326 +22.5622645     5061.231     72.26334      1.688     3.16     4.712829     20.38768     505.2192        41     1.416     1.359 -76.09   0
       174    861.1791    589.8181 300.2507033 +22.8040226     241.5923     72.26334      1.220     3.93     4.379675     20.38768     40.99505         6     0.764     0.579 -30.89   0
       175   1003.9797    582.8884 300.2974932 +22.8447938     380.8702     72.18967      1.452     4.61     4.591639     20.38768     49.83421         6     1.001     0.629  -5.53   0
       176    359.5933    579.2609 300.0979105 +22.6506875     9255.555     72.22652      1.439     2.62     4.413876     20.38768     1081.206        42     1.233     1.140  77.57   0
       177    482.0764    576.4006 300.1369561 +22.6865826      9055.78     72.13438      1.362     2.53     4.491799     20.38768     1074.695        38     1.148     1.115 -59.81   0
       178    886.8046    573.9721 300.2638412 +22.8071434     319.8091     72.22652      1.781     4.98     4.468679     20.38768     35.13617         5     1.110     0.734  79.78   0
       179    246.8517    573.9597 300.0645653 +22.6153620     376.8972     72.28174      1.461     3.38     4.464424     20.38768     50.00005         7     0.873     0.641 -18.71   0
       180    729.0273    573.0366 300.2149618 +22.7596158      198.309     72.26334      1.175     3.81     4.518151     20.38768     49.82047         5     0.820     0.509 -21.31   0
       181    893.7895    570.4016 300.2671792 +22.8082090     1973.629     72.07904      1.553     2.79     4.509595     20.38768     233.5005        25     1.305     1.055 -80.20   0
       182    978.4310    567.8495 300.2944079 +22.8328211     12560.38     72.30014      1.543     3.06     4.679612     20.38768     1255.723        45     1.297     1.231 -40.11   0
       183    542.6437    565.9754 300.1591984 +22.7017413     11540.27     72.30014      1.361     2.48     4.842224     20.38768      1609.85        42     1.162     1.117 -88.88   0
       184    712.1752    562.1724 300.2132395 +22.7514461     464.1465     72.24493      1.251     2.64     4.663808     20.38768     68.75607         9     0.910     0.628  27.60   0
       185    270.0479    561.4155 300.0758530 +22.6187173     1348.851     72.30014      1.408     2.88     4.446202     20.38768     137.3993        17     1.001     0.939 -21.38   0
       186    428.0429    560.9422 300.1251593 +22.6659480     284.7997     72.22652      1.110     2.92     4.430622     20.38768     54.72354         5     0.770     0.499 -21.79   0
       187    192.1401    560.0405 300.0520749 +22.5949606     212.8093     72.26334      1.250     3.91     4.565207     20.38768     27.12323         5     0.829     0.528 -33.18   0
       188    516.9523    559.0533 300.1534477 +22.6920539     452.1541     72.30014      1.447     3.85     4.730963     20.38768     50.53038         6     0.971     0.559 -13.92   0
       189    817.0855    554.2814 300.2484996 +22.7806042     742.1475     72.41044      1.218     2.83     4.698968     20.38768     103.7738        11     0.917     0.784  68.51   0
       190    474.3035    554.1469 300.1417646 +22.6778628     4365.817     72.33693      1.325     2.52     4.523282     20.38768     570.0716        27     1.091     1.049  75.73   0
       191    452.7065    552.6569 300.1355262 +22.6709618     1264.107     72.31853      1.443     2.57      4.48351     20.38768     166.8763        19     1.215     0.904  43.63   0
       192    206.8438    551.7219 300.0593478 +22.5969828     694.8342     72.24493      1.435     3.37     4.569167     20.38768     91.79128        13     1.112     0.772  51.02   0
       193    894.2084    549.5673 300.2740771 +22.8023465     1531.444     72.26334      1.532     3.09     4.577301     20.38768     156.1492        24     1.267     1.039 -65.07   0
       194    140.8870    549.6220 300.0395262 +22.5766001     269.0315     72.18967      1.326     2.80      4.67702     20.38768     42.37671         5     0.742     0.431  21.67   0
       195    590.9618    541.7170 300.1821234 +22.7092533     201582.1     72.22652      1.373     2.47     4.998118     20.38768     28736.78       181     1.391     1.344 -32.55   0
       196    414.5242    547.7418 300.1252395 +22.6581058     397.9176     72.31853      1.438     3.11     4.411927     20.38768     53.52463         8     0.849     0.766  89.35   0
       197    774.6251    546.5724 300.2377681 +22.7656712     827.0612     72.24493      1.430     2.93     4.732861     20.38768     113.8773        14     1.037     0.855 -69.02   0
       198    867.9554    545.2976 300.2672775 +22.7932575     243.1139     72.28174      1.474     4.45     4.423471     20.38768      35.9733         6     0.942     0.598  60.44   0
       199    277.0471    541.6240 300.0844574 +22.6151353     3496.218     72.28174      1.444     2.70     4.447114     20.38768     399.6943        29     1.177     1.103  58.97   0
       200    842.7927    538.2299 300.2617275 +22.7836906     529.3476     72.26334      1.350     2.29     4.614307     20.38768     82.34666         9     0.844     0.685  -3.45   0
       201    861.8343    536.5129 300.2682220 +22.7888997     271.5365     72.22652      1.375     2.25     4.503222     20.38768     46.46891         5     0.703     0.450  23.77   0
       202    481.5688    521.9244 300.1544907 +22.6707873     2744.145     72.26334      1.441     2.47     4.594657     20.38768     362.6049        24     1.138     0.973  73.89   2
       203    326.0012    524.1251 300.1053667 +22.6247890      393.794     72.15282      1.328     3.59     4.453969     20.38768     69.21368        10     0.930     0.837 -46.12   0
       204    893.0113    518.7827 300.2837019 +22.7931399     416.5816     72.22652      1.339     3.40     4.803245     20.38768      41.0927         6     0.876     0.489  34.23   0
       205    712.4388    517.8802 300.2277066 +22.7387996      231.623     72.22652      1.226     4.38     4.841888     20.38768     35.89052         7     0.893     0.612  -7.51   0
       206    911.0104    513.9017 300.2909002 +22.7971264     154.9808     72.15282      1.271     2.46     4.926898     20.38768     39.01024         5     0.612     0.587  88.04   0
       207    798.9282    510.8168 300.2569556 +22.7626755      411.061     72.26334      1.325     3.02     4.912709     20.38768     64.17297         8     0.920     0.672  -5.83   0
       208    878.6025    508.4305 300.2825707 +22.7858497     1600.143     72.22652      1.236     2.44     4.835949     20.38768     204.4192        16     0.960     0.874  24.57   0
       209    749.7905    505.9286 300.2432275 +22.7465537     2617.421     72.24493      1.357     2.49      4.82667     20.38768      355.844        23     1.046     1.036  71.24   0
       210      8.6280    506.7831 300.0123401 +22.5246394     815.2632     72.26334      1.757     3.55     4.717237     20.38768     97.55914        13     1.083     0.939  62.16   0
       211    992.6435    499.1942 300.3211398 +22.8173391     920.5149     72.26334      1.885     3.49     4.952555     20.38768     77.34737        14     1.178     0.811  74.05   2
       212    959.3313    503.1197 300.3094730 +22.8084947     257.5672     72.37369      1.489     4.87     5.012228     20.38768     40.71912         8     1.088     0.727  13.27   0
       213    654.7734    502.5741 300.2147109 +22.7171275     340.1505     72.22652      1.173     2.61     5.041137     20.38768     76.44766         6     0.819     0.524  39.42   0
       214    537.1505    501.5927 300.1783968 +22.6816043     752.0911     72.26334      1.372     3.05      4.92241     20.38768     104.5452        14     1.055     0.875  84.64   0
       215   1007.1139    500.1082 300.3253576 +22.8219338     1277.974      72.4288      1.477     2.90     4.918508     20.38768     128.9039        19     1.111     0.963   1.22   0
       216    878.7646    498.3135 300.2859066 +22.7829903     2369.354     72.24493      1.693     4.29     4.927904     20.38768     267.7378        29     1.615     0.978  68.68   0
       217    632.0576    495.2714 300.2100060 +22.7082242     729.7731     72.30014      2.123     6.77     5.066422     20.38768     79.38806        14     1.887     0.681  86.14   0
       218    417.9992    496.0986 300.1430913 +22.6443189     320.9139     72.13438      1.220     3.79     4.547907     20.38768     44.06441         7     0.972     0.629  25.86   0
       219    917.0258    493.4962 300.2994027 +22.7930618     4356.161     72.22652      1.409     2.56     5.095887     20.38768     572.9743        30     1.224     1.080 -37.72   0
       220    470.3990    495.2782 300.1596663 +22.6597875     453.5395     72.15282      1.309     2.75     4.612453     20.38768      55.6841         8     0.859     0.633  -1.84   0
       221    557.8516    492.8395 300.1876849 +22.6852929     296.1591     72.26334      1.080     3.58     4.990959     20.38768     40.91642         6     0.904     0.472  32.74   0
       222    577.6508    489.0300 300.1950874 +22.6901309     369.0147     72.28174      1.271     3.80     5.032338     20.38768     54.95125         7     0.964     0.617 -83.36   0
       223   1008.6373    483.8677 300.3311066 +22.8177203     742.0762     72.24493      1.469     3.42     4.946026     20.38768      89.7488        14     1.101     0.909  35.97   0
       224    141.6595    474.0526 300.0643040 +22.5551459     321.2541     72.31853      1.256     2.73     4.738574     20.38768     54.37376         7     0.887     0.684 -49.51   0
       225    148.9521    483.5650 300.0634825 +22.5600627     928.6722     72.30014      1.483     3.35     4.702387     20.38768     103.8597        15     1.093     0.927  49.98   0
       226    749.1791    467.9713 300.2553620 +22.7354629     402.7034     72.26334      1.272     3.32     4.916831     20.38768     58.30069         8     0.916     0.643  55.98   0
       227    638.8686    466.4206 300.2214953 +22.7019759     305.3951     72.26334      1.471     2.59     5.010838     20.38768     44.75544         6     0.768     0.490   5.71   0
       228    357.9469    465.7708 300.1342522 +22.6176114     320.0355     72.26334      1.374     4.39     4.605569     20.38768     40.85312         5     1.181     0.465  55.34   0
       229    690.4349    463.8773 300.2383858 +22.7166918     631.6312     72.22652      1.348     2.76     4.969887     20.38768     94.51002        11     0.972     0.747 -46.05   0
       230    479.4834    461.8329 300.1733532 +22.6529044     207.7784     72.22652      1.037     3.56     4.714399     20.38768     39.51906         5     1.006     0.363   5.29   0
       231   1005.0509    456.6700 300.3388186 +22.8088264     542.1093     72.26334      1.430     3.66     4.904288     20.38768     70.20125         9     1.117     0.625 -40.12   0
       232    751.3097    456.0390 300.2599001 +22.7326719     768.8258     72.26334      1.245     2.78     4.881191     20.38768     110.4655        12     0.915     0.792 -30.77   0
       233    908.5149    452.3211 300.3101177 +22.7786768     973.6484     72.39207      1.335     2.83     5.055928     20.38768     117.7067        15     0.995     0.931 -49.11   0
       234    892.6899    448.9348 300.3062820 +22.7729654     575.8495      72.3737      1.442     3.92     5.025953     20.38768     74.87816        13     1.249     0.831  86.99   0
       235    873.3279    448.8555 300.3002700 +22.7671455     290.5609     72.28174      1.334     3.07     5.001593     20.38768      55.1627         5     0.937     0.347   3.59   0
       236    637.0285    446.6595 300.2273377 +22.6957470     3165.306     72.26334      1.306     2.26     4.926759     20.38768     508.4688        25     1.055     0.974  76.12   0
       237    997.2737    445.6078 300.3399837 +22.8033175     537.5039     72.22652      1.544     2.85     4.895582     20.38768     72.82626         9     1.007     0.565  34.49   0
       238    113.1377    438.0495 300.0671269 +22.5362606     340.8847     72.31853      1.324     2.93     4.879659     20.38768     53.07639         7     0.869     0.535 -40.37   0
       239    476.9369    433.4883 300.1817622 +22.6440002      257.003     72.35531      1.192     3.89     4.823203     20.38768     51.57928         8     0.908     0.624  50.12   0
       240    408.7528    434.4401 300.1602318 +22.6238414     189.3456     72.31853      1.160     3.36     4.797782     20.38768     33.58706         5     0.747     0.438 -22.73   0
       241   1006.9407    424.6802 300.3497939 +22.8001932     887.6581     72.31853      1.444     2.71      4.81992     20.38768     126.3872        17     1.038     1.024 -76.08   0
       242    920.2623    425.4123 300.3225174 +22.7744575      551.223     72.22652      1.352     2.42      4.96489     20.38768      88.8534        10     0.937     0.707  51.36   0
       243    656.2673    422.4666 300.2411846 +22.6945583     214.4459     72.31853      1.108     3.32     4.852214     20.38768     46.79263         5     0.770     0.416  25.15   0
       244    747.7222    420.5576 300.2703007 +22.7214003     1085.102     72.24493      1.326     2.49      4.76849     20.38768     144.0843        15     0.960     0.877  -2.54   0
       245    543.4941    420.9772 300.2065447 +22.6603481     389.3317     72.17125      1.175     3.32     4.888432     20.38768     69.47478         8     1.007     0.654  45.33   0
       246    251.5152    418.8882 300.1163658 +22.5722478     634.2544     72.39207      1.460     2.95     4.759943     20.38768     86.74976        11     1.003     0.750 -80.62   0
       247    313.9611    414.4361 300.1372328 +22.5896875     3677.602     72.33693      1.387     2.62     4.827628     20.38768     442.9058        28     1.182     1.034 -89.70   0
       248    261.1538    409.1650 300.1225192 +22.5723455     7656.507     72.28174      1.394     2.67     4.810928     20.38768     854.3718        38     1.225     1.122  52.43   0
       249    401.9636    403.4977 300.1681628 +22.6129204     4896.466     72.26334      1.335     2.46     4.858856     20.38768     654.7648        29     1.130     1.006  69.21   0
       250    646.2024    400.2119 300.2452730 +22.6851488     18562.28     72.07904      1.301     2.40     4.849427     20.38768      2399.42        50     1.208     1.084  74.48   0
       251    493.0067    401.9103 300.1970148 +22.6397446     358.5625     72.17125      1.537     4.06     4.856389     20.38768      51.2151         6     0.810     0.581  34.87   0
       252    663.6622    400.3952 300.2506527 +22.6904309     816.8752     72.24493      2.053     5.69     4.864261     20.38768     96.14616        16     1.576     0.761 -34.88   0
       253    273.0143    397.9328 300.1298534 +22.5726757      281.671     72.24493      1.711     5.04     4.867619     20.38768     26.83517         6     1.267     0.567  82.55   0
       254    837.2220    391.4996 300.3076312 +22.7398470     2285.089      72.2081      0.767     1.79      4.72242     20.38768     926.3678         8     0.647     0.411 -41.46   0
       255    843.4780    390.8926 300.3097787 +22.7415455     242.1559     72.41044      1.116     2.56      4.72585     20.38768     57.04257         8     0.824     0.654 -26.35   0
       256    265.8981    387.5844 300.1309988 +22.5675715     308.3346     72.17125      1.346     3.93     4.898841     20.38768     47.99955         6     1.016     0.435 -14.63   0
       257    980.0311    382.8249 300.3549849 +22.7801026      897.789     72.26334      1.709     3.91     4.565698     20.38768     94.47656        13     1.176     0.911  47.99   0
       258    516.7837    382.3562 300.2107637 +22.6412508     508.1393     72.28174      1.602     2.87      4.84933     20.38768     50.32795         7     0.758     0.633 -16.99   2
       259    200.7548    380.2046 300.1131372 +22.5459256      2055.86     72.26334      1.474     3.13     4.957425     20.38768     227.7453        22     1.157     1.037  75.31   0
       260    586.8392    369.6268 300.2367095 +22.6585793     6592.489     72.28174      1.294     2.28     4.942162     20.38768     1050.696        34     1.156     1.037  58.54   0
       261   1000.4728    370.0570 300.3655064 +22.7825487      1192.13     72.30014      1.465     3.05     4.410393     20.38768     132.2168        18     1.068     1.016  23.97   0
       262    301.6187    368.9036 300.1481713 +22.5729137     559.9812     72.17125      1.322     2.91     4.948694     20.38768     81.82623        10     0.931     0.733  83.64   0
       263    159.2451    362.1147 300.1061030 +22.5282886     476.8874     72.24493      1.356     3.69     5.048302     20.38768     65.96351         9     0.968     0.703  13.60   0
       264    846.7693    361.7088 300.3202767 +22.7341405      358.398      72.2081      1.397     3.85     4.518329     20.38768     50.70106         6     1.181     0.440  -5.87   0
       265      6.5452    359.8259 300.0593939 +22.4818479     1302.344     72.28174      1.582     3.25     5.086184     20.38768     166.7728        19     1.155     1.053   0.23  16
       266    701.0332    359.9063 300.2754371 +22.6899867     474.6166      72.2081      1.326     2.86     4.820567     20.38768     80.40902        10     0.927     0.786 -53.82   0
       267    791.0552    358.7567 300.3038658 +22.7166117     1241.344     72.26334      1.434     2.42     4.533661     20.38768     172.2179        14     0.960     0.823  55.66   0
       268    493.4263    355.8383 300.2120979 +22.6266350     6227.952     72.28174      1.306     2.38     4.771966     20.38768      916.382        33     1.161     1.018  64.95   0
       269    982.8954    350.5713 300.3663465 +22.7716841     677.2734     72.18967      1.346     2.86     4.310151     20.38768     101.6655        13     1.048     0.863  23.74   0
       270    885.4904    350.3810 300.3360268 +22.7424749     1380.863     72.18967      1.258     2.38     4.460807     20.38768     206.9631        16     1.004     0.870  34.73   0
       271    478.1760    344.5571 300.2110113 +22.6188253     430.2614     72.31853      1.260     2.88       4.7617     20.38768     67.51426         9     0.830     0.754 -27.52   0
       272    560.7243    342.6485 300.2373318 +22.6430050     594.3549     72.26334      1.386     2.09      5.00762     20.38768     79.85984         8     0.807     0.592 -89.54   0
       273      4.7967    341.1970 300.0648954 +22.4759773     1073.007      70.9632      1.522     4.24     5.205549     20.38768     102.7794        16     1.132     1.078  58.76  16
       274    541.0388    340.3297 300.2319543 +22.6364422     386.3124     72.22652      1.646     4.14     4.982363     20.38768     40.74708         7     0.969     0.701  88.33   0
       275    858.3778    338.0916 300.3315606 +22.7308253     494.6138     72.18967      1.326     3.18      4.50988     20.38768     65.68686         9     0.917     0.712 -79.04   0
       276    381.0999    335.0530 300.1838828 +22.5870101      2437.18     72.35531      1.348     2.63     4.840292     20.38768     313.5288        24     1.064     1.015   4.16   0
       277     99.4889    332.3936 300.0971737 +22.5018422     1152.093     72.17125      1.520     3.05     5.050517     20.38768     139.5615        15     1.077     0.851  49.47   0
       278    728.4567    329.5432 300.2938358 +22.6894710     228.1416     72.33693      1.399     4.89      4.78997     20.38768     32.81033         8     0.936     0.724  39.80   0
       279    350.3682    324.4988 300.1777455 +22.5747701     29896.36     72.24493      1.377     2.46     4.862526     20.38768     3886.432        69     1.290     1.191  53.97   0
       280    885.0488    322.0486 300.3450832 +22.7341958     1503.037     72.30014      1.442     2.93     4.531662     20.38768     169.1862        21     1.115     1.026  45.61   0
       281    840.6797    319.7981 300.3319786 +22.7202674      316.922     72.17125      1.303     3.57     4.587659     20.38768     46.21754         7     0.864     0.771 -28.73   0
       282     46.6326    312.2568 300.0872824 +22.4802152     4790.864     72.28174      1.616     3.14     5.243247     20.38768     525.2563        36     1.311     1.261  78.85   0
       283    800.5333    310.8975 300.3223507 +22.7056901     381.7032     72.35531      1.158     2.95     4.653622     20.38768     66.05566         8     0.899     0.585  75.64   0
       284    449.0915    309.8277 300.2132268 +22.6001347     541.5187     72.24493      1.281     2.24     4.852516     20.38768     101.8844         9     0.887     0.614  49.76   0
       285    224.6486    310.8952 300.1430563 +22.5331876     378.6612     72.31853      1.279     3.38     5.041658     20.38768     55.74698         6     0.740     0.638 -33.30   0
       286    760.8333    304.2950 300.3121184 +22.6919066     2031.429     72.24493      1.345     2.34     4.755891     20.38768     286.6641        18     1.041     0.899 -87.21   0
       287    976.1669    297.6927 300.3814062 +22.7544617      672.947      72.2081      1.452     3.19     4.329494     20.38768     91.02368        12     0.991     0.934  -6.39   0
       288    569.1571    298.8627 300.2541650 +22.6329487     268.4444     72.26334      1.197     2.91     5.361886     20.38768     57.64992         7     0.985     0.486  67.87   0
       289    422.6895    288.9099 300.2117961 +22.5862157     2120.323      72.4288      1.497     2.98     4.884629     20.38768     232.5103        26     1.248     1.032  68.54   0
       290    634.6034    287.8484 300.2781224 +22.6493829     199.7763     72.24493      1.200     3.60     5.204228     20.38768      42.2077         8     0.974     0.645  29.62   0
       291    861.6348    282.0394 300.3507634 +22.7156824     626.2607     72.31853      1.240     2.74      4.69524     20.38768     104.8719        11     0.952     0.744 -28.75   0
       292    761.0343    279.7578 300.3201419 +22.6849123     295.3432     72.31853      1.184     2.82     4.791565     20.38768     36.52833         5     0.777     0.490  56.07   0
       293    744.1732    279.1984 300.3150684 +22.6797037     404.3579      72.2081      1.176     3.96     4.806215     20.38768     73.47526         8     0.987     0.670 -58.13   0
       294    712.3181    279.0020 300.3052050 +22.6701100     235.0677     72.17125      1.114     2.90     4.835131     20.38768     46.30805         6     0.803     0.624 -51.81   0
       295    536.8362    274.3464 300.2520541 +22.6162232      197.579     72.28174      0.910     2.92     5.374208     20.38768     34.55774         5     0.750     0.431 -19.28   0
       296    213.2333    269.9856 300.1527782 +22.5180188     40.96472     72.24493      1.328     4.55     5.035431     20.38768     27.07656         6     1.097     0.536  -9.19   0
       297    498.4781    268.2362 300.2420935 +22.6029785     1242.956     72.22652      1.454     2.40     5.031655     20.38768     131.5927        16     0.977     0.840 -83.83   0
       298    306.0054    268.6248 300.1820716 +22.5454287     322.5717     72.24493      1.498     4.50     5.010814     20.38768     32.54081         6     0.863     0.667 -30.61   0
       299   1009.9927    264.4181 300.4027550 +22.7550120     334.3898     72.22652      1.187     2.92      4.51355     20.38768     60.67296         6     0.804     0.632  42.93   0
       300    904.2366    261.2659 300.3707877 +22.7224586     209.4177     72.26334      1.376     4.71     4.615991     20.38768     33.17434         5     1.202     0.552  26.96   0
       301    881.6160    261.2559 300.3637366 +22.7156858     321.5143     72.22652      1.175     2.89     4.667399     20.38768     41.24879         5     0.707     0.470 -76.46   0
       302    743.4072    260.1895 300.3209963 +22.6740092     2263.942     72.13438      1.327     2.42     4.812317     20.38768     269.2986        21     1.104     0.948 -74.67   0
       303   1004.6193    254.6539 300.4042460 +22.7505953     3111.645     72.24493      1.460     2.61     4.610795     20.38768     387.4829        24     1.194     0.977  74.64   0
       304    451.9431    244.0155 300.2354642 +22.5820802     705.7772     72.24493      1.431     3.36     4.862056     20.38768     111.5805        12     1.067     0.764 -62.83   0
       305    126.5814    238.0809 300.1361887 +22.4828868     1406.805     72.24493      1.811     3.87     5.120335     20.38768      112.705        26     1.441     1.094 -39.66   0
       306    157.0602    237.9992 300.1456892 +22.4919984     690.9405     72.22652      1.538     4.45     4.977806     20.38768     68.85223        11     0.964     0.871 -11.15   0
       307   1020.7333    235.1705 300.4155940 +22.7498114     499.1427     69.67698      1.524     2.77     4.858371     20.38768     65.77757         7     0.812     0.638 -31.95  16
       308    864.1936    231.8476 300.3678433 +22.7020138     421.0046     72.26334      1.572     4.22     4.728187     20.38768     39.40027         7     0.931     0.667 -82.76   0
       309    210.5638    230.2794 300.1648271 +22.5058159     514.2311      72.2081      1.369     3.88      5.01587     20.38768     57.69633        10     1.146     0.671  -5.35   0
       310    886.8144    223.8599 300.3774882 +22.7064862     257.3322     72.22652      1.163     2.08     4.718727     20.38768     52.45859         6     0.704     0.544  52.91   0
       311    814.9256    221.6797 300.3557803 +22.6843442     655.9092      72.3737      1.290     2.48     4.748671     20.38768     115.9986        13     0.965     0.839  43.00   0
       312    405.6792    221.1803 300.2284720 +22.5616609     476.1758     72.26334      1.458     2.43     4.839286     20.38768     62.72847         9     0.856     0.638  15.40   0
       313    951.0859    215.0291 300.4003982 +22.7231785     209.8297     72.26334      1.290     3.45     4.782013     20.38768      33.6138         5     0.626     0.607  -6.39   0
       314    905.7153    214.9102 300.3862854 +22.7095681     492.3961     72.41044      1.448     3.70     4.726803     20.38768     60.10635         6     0.909     0.566  27.79   0
       315    913.0644    210.7134 300.3899387 +22.7105601     2214.719     72.35531      1.437     2.59     4.734716     20.38768     309.7086        25     1.228     0.977  59.55   0
       316    409.5401    203.0990 300.2355375 +22.5576222     1136.664     72.35531      1.436     2.84     4.841155     20.38768     134.1139        15     1.048     0.830 -49.85   0
       317    811.7156    202.6466 300.3609526 +22.6779098     487.2527     72.24493      1.163     2.16     4.752143     20.38768      86.4911         8     0.791     0.632  50.03   0
       318    567.5773    202.8476 300.2848179 +22.6048804     126.8449     72.28174      1.027     2.78     5.136438     20.38768     32.80665         5     0.723     0.453  69.57   0
       319    161.0300    203.2409 300.1581958 +22.4832067     330.6587     72.28174      1.431     4.21      4.97965     20.38768     57.44456         5     0.772     0.661 -10.54   0
       320    331.5886    207.9023 300.2097250 +22.5356509     2270.076     72.15282      1.426     2.44     4.921434     20.38768     317.6887        23     1.201     1.025  55.68   0
       321    226.2961    195.2412 300.1810820 +22.5004670     889.3323     72.26334      1.463     2.97     5.259729     20.38768     93.67928        12     1.029     0.714  -7.50   0
       322    344.5781    194.2471 300.2181945 +22.5356193     222.5195     72.28174      1.446     3.97     4.882812     20.38768     30.21459         5     0.815     0.684  40.13   0
       323    764.1394    192.2196 300.3495039 +22.6606714     1642.833      72.2081      1.253     2.27     4.796804     20.38768     225.2658        18     1.074     0.861  46.23   0
       324    829.0679    191.6764 300.3699202 +22.6799481     547.8216     72.35531      1.427     2.46     4.755622     20.38768     86.56254        11     0.894     0.817  54.30   0
       325    247.6370    188.2338 300.1899908 +22.5048486     459.7569     72.31853      1.379     3.37     5.248796     20.38768     64.96648        11     0.974     0.819  71.74   0
       326    768.2524    183.4758 300.3536215 +22.6593881     784.8121     72.26334      1.272     2.61     4.792007     20.38768     119.7091        13     1.137     0.733  48.34   0
       327    537.6105    184.3635 300.2814806 +22.5905941     307.6349     72.26334      1.167     2.63     4.995212     20.38768     54.86027         7     0.808     0.624  16.54   0
       328    688.8558    182.7847 300.3291027 +22.6354234     1087.504     72.24493      1.245     2.32     4.839946     20.38768     207.5376        12     0.937     0.718 -89.41   0
       329    896.0611    173.7707 300.3966167 +22.6948455     905.8918     72.28174      1.561     2.80      4.81047     20.38768     119.2336        15     1.111     0.948 -32.56   0
       330    884.3246    174.2474 300.3928020 +22.6914707     1510.983     72.26334      1.452     2.61     4.796513     20.38768     183.0404        19     1.205     0.883  67.12   0
       331    614.8520    174.5676 300.3087126 +22.6109060     1023.832     72.28174      1.344     2.40     4.875754     20.38768      162.831        14     1.002     0.799  61.83   0
       332    455.5584    170.8132 300.2603297 +22.5621276     237.4029     72.28174      1.105     3.40     4.820799     20.38768     37.15452         5     0.743     0.451  69.30   0
       333   1012.9142    163.8761 300.4362768 +22.7269594     1103.731     72.37369      1.407     3.45     4.993056     20.38768     126.1348        16     1.136     0.909  58.81   0
       334     36.9678    160.8154 300.1333959 +22.4338419     389.1253     72.24493      1.285     3.82     5.427499     20.38768     67.83079         7     1.004     0.608 -28.76   0
       335    246.8820    156.6947 300.1999826 +22.4955627      665.112      72.4288      1.474     2.84     5.418118     20.38768     94.26357        12     0.978     0.811  59.77   0
       336    108.9241    151.4967 300.1587776 +22.4527317      2268.17     72.41044      1.487     2.95     5.401823     20.38768     234.3301        24     1.153     1.087  47.44   0
       337    932.0692    148.8813 300.4159180 +22.6984591     771.9291     72.37369      1.343     2.39     4.893109     20.38768     119.7209        12     1.031     0.753  22.86   0
       338     58.6883    148.4556 300.1441520 +22.4368030     454.3492     72.30014      1.339     4.03     5.485384     20.38768      65.2419         8     1.240     0.556  52.85   0
       339    266.2937    144.7715 300.2098854 +22.4979532      5860.78     72.18967      1.475     2.62     5.368638     20.38768     722.5701        35     1.267     1.128  65.84   0
       340    247.8425    145.6571 300.2038599 +22.4926798     337.5358      72.2081      1.337     3.35     5.435638     20.38768     46.13177         5     0.779     0.418  20.05   0
       341     50.4916    139.1024 300.1446374 +22.4316606     1417.212     72.44717      1.628     3.28     5.530895     20.38768     161.7261        22     1.289     1.095  60.47   0
       342    249.7363    135.4050 300.2077727 +22.4903019     557.5452     72.24493      1.247     2.31     5.451647     20.38768     91.41714         9     0.798     0.722  -1.33   0
       343    910.4766    126.5735 300.4164163 +22.6855810     3493.004     72.28175      1.403     2.38      4.89749     20.38768     473.9111        29     1.168     1.104 -53.49   0
       344   1014.1113    125.3294 300.4491491 +22.7162256     2732.055      72.4288      1.456     2.52     4.936522     20.38768     384.6463        26     1.226     1.044  65.49   0
       345    460.0341    121.7270 300.2776380 +22.5493605     503.5348     72.26334      1.275     2.38     4.780543     20.38768     88.29847         9     0.897     0.596 -23.99   0
       346    574.0626    119.7270 300.3137896 +22.5829280     310.1531     72.30014      1.137     2.50     4.760063     20.38768     57.65512         5     0.761     0.481  63.92   0
       347    384.4474    113.5314 300.2567703 +22.5243687     913.2482     72.24493      2.163     3.95     4.919438     20.38768     81.18249        13     1.206     0.906  -9.49   2
       348    150.1854    110.4356 300.1849144 +22.4533029     591.4293     72.26334      1.352     3.63     5.515861     20.38768     79.88615        11     1.087     0.745  -3.42   0
       349    511.2897    108.9322 300.2977423 +22.5610305      1730.81     72.41044      1.331     2.62     4.731398     20.38768     230.9265        17     1.040     0.835  70.54   0
       350    439.0385    109.7682 300.2749797 +22.5396360     565.1236     72.30014      1.496     3.28     4.806469     20.38768     61.51403         8     0.934     0.697   2.77   0
       351    572.7609    108.4780 300.3170311 +22.5793043     379.4681     72.24493      1.273     2.95     4.749176     20.38768     46.03587         9     0.853     0.732 -29.68   0
       352     48.1525    109.2125 300.1536001 +22.4223765     231.6973     72.28174      1.347     3.80     5.674747     20.38768     34.73479         5     0.909     0.456  46.77   0
       353    254.8125    104.0572 300.2195136 +22.4828168      408.205     72.22652      1.418     3.18     5.514485     20.38768     59.62627         9     0.979     0.606  66.96   0
       354    945.1629     93.0573 300.4381011 +22.6863146     389.5811     72.26334      1.169     2.87     4.913365     20.38768     56.66017         5     0.638     0.578  -7.35   0
       355    285.2878     88.6281 300.2339935 +22.4875127     6072.438     72.26334      1.485     2.67      5.52875     20.38768     778.4638        36     1.293     1.118  75.17   0
       356    791.3488     89.3383 300.3913429 +22.6392252     364.9139     72.31853      1.397     2.88     5.084764     20.38768     48.76362         6     0.748     0.562  46.97   0
       357    136.2024     88.1308 300.1877978 +22.4427066     749.3845     72.22652      1.453     4.64     5.628568     20.38768     92.05416        12     1.165     0.768  29.19   0
       358    914.2679     86.4617 300.4306027 +22.6751745     370.4023     72.31853      1.500     3.30     5.020764     20.38768     46.17699         5     0.747     0.424  25.30   0
       359    761.5284     79.9850 300.3850796 +22.6276113     170.2026     72.26334      1.105     4.32     5.166857     20.38768     32.81055         5     1.011     0.526 -13.96   0
       360    300.9686     79.9899 300.2416710 +22.4897275     202.8407     72.26334      1.099     3.46     5.467442     20.38768     44.95969         6     0.748     0.580  49.21   0
       361     47.3806     79.1489 300.1631049 +22.4135116     394.0068     72.24493      1.614     2.48     5.736784     20.38768     47.37361         6     0.709     0.608  -7.47   0
       362    531.3813     74.0303 300.3153117 +22.5570125     6248.618     72.26334      1.381     2.53     4.843049     20.38768     697.6173        35     1.193     1.097  82.68   0
       363    417.0311     73.8829 300.2797624 +22.5227317     613.0776     72.26334      1.300     3.08     4.925123     20.38768     108.0392        12     1.047     0.800 -38.66   0
       364    588.2792     69.1157 300.3346235 +22.5726326     244.1539     72.41044      1.166     3.00     5.010241     20.38768     45.54611         6     0.750     0.562  45.86   0
       365    783.9915     64.1039 300.3972291 +22.6297649     842.0204     72.15282      1.471     2.70     5.200212     20.38768     112.2062        14     0.989     0.898  63.42   0
       366    725.2881     65.4747 300.3784882 +22.6125927     360.0335     72.41044      1.155     3.39     5.226616     20.38768     45.70074         5     0.747     0.444  22.37   0
       367    876.4125     62.7670 300.4264774 +22.6570322     616.6246     72.24493      1.460     3.12     5.264453     20.38768     83.48334        10     0.980     0.821  10.84   0
       368    944.4127     60.2080 300.4485153 +22.6766376     286.0915     72.15282      1.440     3.44     5.113904     20.38768     27.03615         5     0.786     0.436  69.58   0
       369    224.6341     57.8431 300.2251079 +22.4604990     475.0687     72.31853      1.549     2.81     5.564577     20.38768     61.76971         8     0.913     0.619  78.93   0
       370    583.0830     56.8182 300.3369910 +22.5675412     353.9333      72.2081      1.270     1.80     5.100184     20.38768     84.98797         6     0.703     0.506 -36.50   0
       371    659.7853     54.1929 300.3617346 +22.5897445     6258.945     72.17125      1.329     2.47     5.260521     20.38768     866.3764        33     1.187     1.023  79.03   0
       372    434.6898     52.9748 300.2920350 +22.5220097     1475.898      72.2081      1.343     2.65     4.982148     20.38768       198.66        18     1.090     0.972 -82.02   0
       373    701.0482     51.8318 300.3753564 +22.6014146     796.9662     72.30014      1.370     2.49     5.281871     20.38768     112.9382        12     0.956     0.765  54.38   0
       374    716.5245     47.5821 300.3815565 +22.6048237     545.8044     72.26334      1.234     2.43     5.300012     20.38768     96.45655         8     0.874     0.629  36.89   0
       375    183.3852     45.5136 300.2162781 +22.4446000     645.5471      72.2081      1.508     3.91     5.605064     20.38768     85.94498        16     1.315     0.861 -83.48   0
       376    986.5039     45.3263 300.4664697 +22.6849447     704.8054     72.39207      1.916     3.41     4.702881     20.38768     57.41701        12     1.001     0.854  50.32   0
       377     30.6980     46.1345 300.1686211 +22.3990310     372.3344     72.35531      1.523     4.36      5.76038     20.38768     34.80282         6     0.926     0.586 -29.12   0
       378    755.3658     43.1249 300.3951061 +22.6151646     438.7993     72.26334      1.223     2.47     5.295948     20.38768     76.25054         7     0.726     0.623  66.66   0
       379    703.9893     39.0192 300.3804255 +22.5986096     2745.269     72.22652      1.396     2.54     5.366061     20.38768     365.9078        27     1.235     0.989  85.92   0
       380    344.6796     39.6483 300.2683440 +22.4912258     391.6145     72.28174      1.442     3.95     5.498045     20.38768     57.10088        10     0.904     0.845  59.17   0
       381    719.1966     38.0101 300.3854914 +22.6028702     933.8315     72.07904      1.792     5.33      5.34632     20.38768     84.66961        15     1.327     0.852  52.31   0
       382    790.4626     30.6914 300.4100755 +22.6220892       1575.2     72.35531      1.371     2.34     5.336657     20.38768     219.1361        19     1.016     0.988  75.42   0
       383    868.9594     25.7207 300.4361602 +22.6441432     237.4913     72.24493      1.426     4.28     5.544255     20.38768     33.43393         5     1.042     0.501  38.10   0
       384    728.3184     24.1043 300.3928408 +22.6015998     704.2314     72.41044      1.344     2.47     5.382286     20.38768     99.81344        10     0.856     0.737  34.03   0
       385    534.0236     22.9874 300.3326773 +22.5431280     969.8658     72.26334      1.371     2.70     5.118388     20.38768      134.215        15     0.985     0.880  86.68   0
       386    106.9988     23.1189 300.1997900 +22.4152823     515.4584     72.15282      1.264     2.45     5.694044     20.38768     101.3725         9     0.879     0.763 -11.56   0
       387    437.9734     21.2174 300.3033488 +22.5138639     871.8787     72.28174      1.361     2.73     5.107433     20.38768     102.4773        12     0.947     0.775 -28.19   0
       388    819.9410     20.0613 300.4227103 +22.6278505     351.1258     72.31853      1.176     3.38     5.447412     20.38768      60.1728         7     1.033     0.505  55.07   0
       389    333.2580   1019.6904 299.9465313 +22.7691499     829.2915     72.15282      1.703     5.10     14.46862     20.38768     86.61324        19     1.352     1.198  40.26  16
       390    169.8738   1014.1348 299.8975368 +22.7185187     1718.845     72.30014      3.348     9.80     87.17789     20.38768     59.76859        48     2.203     1.774 -47.37  18
       391    240.0949   1012.5216 299.9198916 +22.7391343     2689.354     72.39207      5.984    28.17     73.98673     20.38768     67.88436       212     5.716     3.855  -5.69  19
       392    270.9341   1007.2646 299.9311914 +22.7468830     3184.716     72.31853      7.942    28.60     47.22362     20.38768     73.16812       223     6.829     3.325  -6.66  19
       393    238.2248    993.6810 299.9254404 +22.7331713     4758.713     72.24493      8.136    22.38     61.67841     20.38768     94.76541       293     5.177     4.762  78.07  19
       394    258.2351    992.6382 299.9320015 +22.7388780     6036.522     72.33693      9.694    28.38     48.53422     20.38768     109.2666       488     6.567     5.511 -57.12  19
