#   1 NUMBER                 Running object number                                     
#   2 X_IMAGE                Object position along x                                    [pixel]
#   3 Y_IMAGE                Object position along y                                    [pixel]
#   4 ALPHA_J2000            Right ascension of barycenter (J2000)                      [deg]
#   5 DELTA_J2000            Declination of barycenter (J2000)                          [deg]
#   6 FLUX_APER              Flux vector within fixed circular aperture(s)              [count]
#   7 FLUXERR_APER           RMS error vector for aperture flux(es)                     [count]
#   8 FLUX_RADIUS            Fraction-of-light radii                                    [pixel]
#   9 FWHM_IMAGE             FWHM assuming a gaussian core                              [pixel]
#  10 BACKGROUND             Background at centroid position                            [count]
#  11 THRESHOLD              Detection threshold above background                       [count]
#  12 FLUX_MAX               Peak flux above background                                 [count]
#  13 ISOAREA_IMAGE          Isophotal area above Analysis threshold                    [pixel**2]
#  14 A_IMAGE                Profile RMS along major axis                               [pixel]
#  15 B_IMAGE                Profile RMS along minor axis                               [pixel]
#  16 THETA_IMAGE            Position angle (CCW/x)                                     [deg]
#  17 FLAGS                  Extraction flags                                          
         1    779.7783     13.4290 300.4120208 +22.6127777     590.9095      72.3114      1.235     2.57     5.135488     20.40644      84.9787         9     0.818     0.723 -69.24   0
         2    211.6007     12.3750 300.2354564 +22.4423814     4070.573     72.27454      1.609     2.87     4.844223     20.40644     501.4945        36     1.370     1.182  49.39   0
         3      3.9289     12.3050 300.1709280 +22.3801437     430.1685     68.68215      1.475     4.54     5.673245     20.40644     42.10976         9     1.006     0.677 -28.43  16
         4    634.2962      9.7259 300.3678827 +22.5681785     475.0891     72.47707      1.693     2.58      4.56765     20.40644     61.46121         6     0.826     0.539  44.96   0
         5    537.7736      9.8646 300.3377730 +22.5393282     240.2756      72.3114      1.382     3.71     4.634492     20.40644     41.49269         5     0.950     0.417 -87.59   0
         6    327.6918      4.5674 300.2740971 +22.4749066     1369.136     70.53902      1.513     2.54     4.685327     20.40644     187.4319        18     1.185     0.907  71.64  16
         7    773.1057      4.9124 300.4127010 +22.6083309     824.6854     71.62632      1.345     3.48     5.169165     20.40644     108.9789        13     1.002     0.911  83.89  16
         8    259.2032      4.0404 300.2529622 +22.4542440     387.6821     68.99188      1.926     4.31     4.613226     20.40644     32.80134         5     1.105     0.479  50.93  16
         9    811.6827      1.2771 300.4259059 +22.6188264     286.7321      56.0312      0.971     2.41     5.190961     20.40644     69.90479         5     0.720     0.438  -9.35  24
        10    395.9276   1006.8169 299.9698329 +22.7831401     690.3911     72.32983      2.213     5.97     3.411627     20.40644      35.8945        11     1.179     0.850  72.19   0
        11    773.9770   1023.1588 300.0822467 +22.9012220     324.8317     59.17727      1.669     3.92     3.190325     20.40644      26.0579         5     0.837     0.526  58.36  24
        12    336.5046   1020.8407 299.9467811 +22.7693309     801.8522      69.3771      1.502     4.34     11.30023     20.40644     85.63349        14     1.337     0.761  66.60  19
        13    334.0000   1021.0303 299.9459402 +22.7686337     205.1778     68.64334      1.269     3.61     12.67112     20.40644     46.92855         5     1.283     0.293  80.66  19
        14    289.8921   1020.1802 299.9324973 +22.7551527     2224.987     71.17842      3.781    13.95     32.49511     20.40644     57.04461        40     2.660     2.189 -15.61  27
        15    142.7544   1021.3638 299.8863648 +22.7113262     4530.611     67.58692      6.926    28.94     91.64545     20.40644     112.1787       262     7.260     3.203   6.80  27
        16    123.2861   1016.0551 299.8820418 +22.7039598     4314.769     72.38507      9.993    46.69     86.47226     20.40644      84.2253       551     9.951     6.085  82.33  27
        17    120.4538    957.5963 299.9001840 +22.6863513     5188.451      72.3114     23.332    98.15     36.55577     20.40644     267.0984      2755    18.001    14.850  24.73  19
        18    272.4233   1009.4811 299.9305465 +22.7468419     3753.147     72.29297      8.477    28.89     44.12128     20.40644     103.4996       251     6.117     3.788  -7.06  19
        19    208.0790    985.8334 299.9182341 +22.7207492     1677.584      72.3114      3.964    14.19     64.29161     20.40644     47.51852        48     2.845     1.967  81.94   2
        20      7.6508   1008.6023 299.8485383 +22.6671042     2011.508     72.32983      5.264    14.00    -23.13947     20.40644     58.16019        57     3.966     1.375  84.98  19
        21     19.2238    982.5765 299.8606022 +22.6631204     1029.947     72.29297      7.340     7.79    -5.992554     20.40644     40.22443        13     1.789     0.953  63.34   3
        22    575.4479    984.2104 300.0330722 +22.8305089     310.5218     72.34824      1.858     5.09     3.184541     20.40644     27.76368         5     1.402     0.523 -49.42   0
        23     23.0671    981.2395 299.8622312 +22.6638912     876.7856     72.29297      3.539     5.59    -2.590766     20.40644     55.96996        10     1.052     0.883 -89.89   3
        24    966.8592    979.2413 300.1566837 +22.9464303     741.3424     72.32983      1.958     7.55     3.043057     20.40644     50.05514        17     1.423     1.120 -11.93   0
        25      8.8415    997.6300 299.8524787 +22.6643172     2321.475     72.36666     14.227    41.73    -18.56817     20.40644     52.63512       332    11.971     4.038  62.92  19
        26      3.6330   1022.0055 299.8429285 +22.6697387     1923.463     59.91576      3.465    15.33    -32.66054     20.40644     64.92014        58     3.797     1.721  -5.59  27
        27    186.9429    968.0000 299.9174659 +22.7092920     626.3174     72.23765      2.745     4.11     49.67928     20.40644     41.29696         5     1.309     0.369   0.28   3
        28    185.2265    964.0103 299.9182305 +22.7076329     1564.529     72.32983      5.535    13.44     46.45301     20.40644     50.02831        48     3.030     1.659  27.00   2
        29      3.7927   1013.5269 299.8457374 +22.6673569     2996.676     68.09761     11.214    43.51    -29.62243     20.40644     64.77987       216     8.978     5.852  60.85  27
        30    692.1882    962.6091 300.0764651 +22.8593183     6731.906      72.2192      1.846     4.08     3.408062     20.40644     413.2996        43     1.468     1.355  10.24   0
        31    283.5633    956.7086 299.9511835 +22.7350517     452.2336     72.29297      1.658     4.60     16.79478     20.40644     49.83596        11     1.192     0.957  55.03   0
        32    203.7832    957.4965 299.9261190 +22.7113348     659.4778     72.23765      2.506     6.16     40.17006     20.40644     29.35937         8     1.817     0.586  33.44   0
        33    571.9124    957.2900 300.0407313 +22.8217235     506.8178     72.49545      1.673     4.83     3.144187     20.40644     35.40516         8     1.139     0.580 -27.91   0
        34    844.0876    956.4142 300.1258243 +22.9030785     295.0583     72.27454      2.182     5.83     3.008994     20.40644     27.00094         7     1.276     0.750   2.70   0
        35    600.6579    953.2237 300.0510066 +22.8291774      1431.42     72.32983      1.728     4.29     3.139828     20.40644     111.0014        21     1.222     1.125  42.09   0
        36    587.3668   1000.3273 300.0315388 +22.8387085     2430.029     72.32983      1.905     4.71     3.210258     20.40644     144.2949        33     1.421     1.345  -4.02   0
        37    425.1616    947.7626 299.9981468 +22.7749711     6481.065     72.40348      1.758     3.84     3.359968     20.40644     568.0183        41     1.389     1.322  -8.54   0
        38    494.5921    949.6701 300.0191367 +22.7963459     1091.183      72.3114      1.719     5.08     3.089005     20.40644     84.60579        17     1.252     1.014 -14.08   0
        39    673.9364    995.5845 300.0600475 +22.8633100     8812.392      72.3114      1.943     4.99     3.544652     20.40644     557.2066        48     1.540     1.438  15.08   3
        40    679.5314    993.3485 300.0625183 +22.8643460     9285.804      72.3114      1.913     4.51     3.529505     20.40644     538.1421        45     1.482     1.416  56.78   3
        41    457.7110    934.3650 300.0126362 +22.7808917      459.703      72.3114      1.716     4.13     3.272491     20.40644     40.50505         7     0.873     0.653  70.17   0
        42    971.7130    927.4232 300.1750600 +22.9330018     1655.396     72.27454      1.881     5.77     3.060084     20.40644     122.0239        21     1.711     0.856 -32.99   3
        43    970.6412    925.6893 300.1752898 +22.9321826     1094.786     72.32983      1.430     3.33     3.065522     20.40644     114.8264        13     1.218     0.691 -41.56   3
        44    469.2736    922.5703 300.0200725 +22.7809759     381.0034     72.34824      1.609     5.75      3.26956     20.40644     31.20153         9     1.152     0.809  -4.82   0
        45    760.1760    915.5479 300.1129641 +22.8661914      776.615     72.34824      1.929     5.51     3.363077     20.40644     59.49779        17     1.456     0.990  29.14   0
        46    794.9505    909.7010 300.1257052 +22.8749367     1069.392     72.40348      1.682     4.29     3.286575     20.40644     85.23679        19     1.289     1.016  -2.06   0
        47    572.9173    910.5012 300.0562675 +22.8085972     324.5746     72.49545      1.362     3.58     3.131119     20.40644     42.65499         8     1.028     0.699  31.74   0
        48    774.1750    995.8253 300.0912048 +22.8934351      747.756     72.29297      2.227     6.53     3.224873     20.40644     45.36497        17     1.468     1.218  43.96   0
        49    248.5544    906.2894 299.9566993 +22.7100864     683.5409     72.32983      3.664     3.44      10.0562     20.40644     32.94342         5     1.137     0.302  68.88   0
        50      5.4644    906.6777 299.8810204 +22.6372348     411.5773     72.42188      1.551     4.12     3.161147     20.40644     50.56048         7     1.028     0.472  79.83  16
        51    817.3268    903.3705 300.1347401 +22.8798259     11407.24     72.34824      1.788     4.02     3.250983     20.40644      710.366        51     1.432     1.375  -6.94   0
        52   1007.8651    903.3411 300.1941741 +22.9369163     547.2525     72.36666      2.008     5.57     3.230006     20.40644     40.59995         8     1.249     0.707 -20.32   0
        53    862.8853    903.0394 300.1490520 +22.8933855     542.0406      72.3114      1.789     6.49     3.135207     20.40644     34.52983        10     1.243     0.950 -24.49   0
        54    195.2237    900.3044 299.9420640 +22.6923660     621.7263      72.2192      4.072     4.47     12.71563     20.40644     50.40253         5     1.227     0.466 -31.58   0
        55    128.8745    895.2109 299.9230962 +22.6709926     1062.802     72.34824      6.901     7.87     9.337928     20.40644     46.07058        23     1.613     1.435  61.10   0
        56    521.8959    891.4514 300.0465777 +22.7878292     553.9531     72.40348      2.118     5.65     3.233241     20.40644     31.74521         9     1.040     0.864  32.50   0
        57    825.7501    885.5463 300.1431648 +22.8772321     1471.546     72.36666      1.770     4.40     3.286389     20.40644     93.00583        27     1.357     1.244  -8.48   0
        58    869.5120    891.9172 300.1547367 +22.8921773     489.5398     72.44028      2.124     4.19     3.187804     20.40644     44.28777         5     0.754     0.663 -19.59   0
        59   1009.0985    884.4218 300.2007140 +22.9318507     423.3082      72.2561      2.047     5.85     3.340203     20.40644     33.94232         8     1.153     0.836  39.42   0
        60    678.6952    882.8425 300.0982134 +22.8323748     447.6344     72.34824      1.336     3.33     3.344002     20.40644     56.68594         8     0.971     0.563 -73.11   0
        61    864.0339    879.0302 300.1572209 +22.8868344     905.9198     72.34824      1.913     4.10     3.243584     20.40644     61.50594        17     1.189     1.019 -17.38   0
        62    912.3701    870.0114 300.1752280 +22.8987289     596.0834     72.32983      1.718     5.42      3.38045     20.40644     50.15041        14     1.101     0.989 -16.69   0
        63    763.7004    868.9206 300.1292311 +22.8538599     714.1802     72.45867      1.540     3.98       3.3879     20.40644     73.23809        14     1.120     0.960 -25.71   0
        64    367.7702    868.6793 300.0060152 +22.7350661     330.4162     72.32983      1.353     3.38     3.918453     20.40644     33.85278         5     1.220     0.271 -55.85   0
        65    117.2900    925.5732 299.9096190 +22.6762208     3975.252     72.29297     23.278    71.65     10.85351     20.40644     1193.624      1239    15.550     9.159   3.97   3
        66    775.0095    866.4507 300.1335594 +22.8565404     685.8801     72.32983      1.817     4.19     3.389587     20.40644     62.24356        14     1.158     0.996  54.93   0
        67    476.3424    865.5390 300.0408251 +22.7667311     4010.933     72.40348      1.609     3.30     3.469253     20.40644     402.0573        28     1.213     1.153  12.33   0
        68    519.7493    853.2540 300.0583339 +22.7762231     495.6808     72.36666      1.945     5.05     3.347067     20.40644     39.05768         9     0.935     0.771  -2.27   0
        69    118.9989    853.0065 299.9337538 +22.6559268     315.5812     72.14536      1.379     2.84     5.086193     20.40644     33.77423         5     0.631     0.586   0.01   0
        70    201.5767    851.1650 299.9600220 +22.6801798     616.8377     72.34824      1.531     4.77     6.416503     20.40644     68.82614        15     1.294     0.948 -22.14   0
        71    178.4528    848.2498 299.9537810 +22.6724048       1644.7     72.36666      1.803     4.36     6.459577     20.40644     131.8051        25     1.341     1.165   4.34   0
        72    110.3889    849.0852 299.9323531 +22.6522183     403.2749     72.27454      1.652     4.40     4.661884     20.40644     37.79386         6     0.856     0.642  56.29   0
        73     54.5125    838.0645 299.9185738 +22.6322878     423.9169     72.42188      1.549     2.49     4.113074     20.40644      39.5041         6     0.754     0.500 -89.27   0
        74   1004.9152    835.8763 300.2152000 +22.9166501     2193.938     72.44028      1.895     5.61     3.442089     20.40644     128.7395        28     1.492     1.238 -12.52   0
        75    481.4617    835.3218 300.0522465 +22.7595946     260.7204     72.40348      1.278     3.94     3.487474     20.40644     36.85972         5     0.993     0.447  75.53   0
        76    211.0431    829.8674 299.9698914 +22.6769118     465.2671      72.3114      1.568     5.15     5.394482     20.40644     54.26755        10     1.354     0.790 -35.87   0
        77    788.3462    829.6472 300.1496870 +22.8499687     688.0456     72.36666      1.757     4.66     3.465222     20.40644     49.92426        14     1.227     0.879 -14.52   0
        78    656.4551    823.6640 300.1105328 +22.8087175     4754.623     72.38508      1.562     3.15     3.483653     20.40644     500.8104        33     1.268     1.120  12.81   0
        79    145.9048    824.5038 299.9513855 +22.6558275     334.6179     72.51382      1.298     4.18     5.077334     20.40644     42.23458         7     1.004     0.496  -4.00   0
        80    458.5898    820.7797 300.0498563 +22.7485620     589.8081      72.3114      1.394     3.97      3.51235     20.40644      61.7828        13     1.069     0.910 -88.68   0
        81    206.5699    817.3289 299.9725779 +22.6719732     1236.571     72.32983      1.646     3.59     4.817387     20.40644     122.1423        22     1.285     1.102  11.66   0
        82    677.0302    816.0806 300.1194091 +22.8127080     716.6312     72.32983      1.497     4.25     3.521047     20.40644     70.25231        13     1.074     0.879 -45.53   0
        83    226.2075    814.6732 299.9795474 +22.6771035      358.562     72.29297      1.507     3.30     4.678339     20.40644     55.66941         9     0.997     0.694  79.26   0
        84    593.5414    806.6680 300.0964630 +22.7849769     255.4931     72.34824      1.037     3.27     3.520509     20.40644     45.75082         5     1.057     0.293  21.26   0
        85    832.4511    803.3516 300.1719881 +22.8556337      4333.85     72.36666      1.649     3.51     3.528977     20.40644     365.3142        35     1.313     1.255  -1.82   0
        86    241.0576    797.5425 299.9897354 +22.6766447     475.4429     72.40348      1.488     4.18     4.130499     20.40644     50.05367         8     1.150     0.584 -41.29   0
        87    549.3379    795.8477 300.0862159 +22.7686178     594.8961     72.36666      1.453     4.10     3.563452     20.40644     89.06516        12     1.234     0.818  33.36   0
        88    195.8084    793.8186 299.9768767 +22.6620007     1035.786     72.29297      1.685     4.38     4.083951     20.40644     117.6138        19     1.402     1.019   8.09   0
        89    611.3795    789.3029 300.1076656 +22.7853393     638.3843      72.2561      1.654     4.92      3.64848     20.40644     57.46459        16     1.318     0.881 -28.97   0
        90    345.4191    785.8657 300.0259923 +22.7046008     54059.94     72.29297      1.603     3.18     4.317493     20.40644     6228.299        96     1.413     1.380  31.74   0
        91    603.4043    785.0142 300.1065761 +22.7817172     1525.056     72.18229      1.436     2.84     3.674511     20.40644     183.7052        21     1.117     1.021 -34.80   0
        92   1016.4042    784.5397 300.2354803 +22.9053406     878.0517     72.29297      1.855     5.93     3.707357     20.40644     60.23615        16     1.125     1.034  10.45  16
        93    319.1630    783.8141 300.0184913 +22.6961365     219.7602     72.32983      1.411     3.73     4.298891     20.40644     31.06376         5     0.936     0.426 -45.62   0
        94    274.4361    784.1052 300.0044848 +22.6828033      471.135     72.32983      1.444     2.12     4.226503     20.40644     50.72303         5     0.686     0.463  69.60   0
        95    632.3995    781.1735 300.1168564 +22.7893066     894.9591     72.29297      1.471     3.12     3.704658     20.40644     93.97984        15     1.006     0.925  42.38   0
        96     31.5766    780.8054 299.9300658 +22.6089858     742.9247      72.3114      1.831     4.75     4.081189     20.40644     63.20165        12     1.259     0.986   1.82   0
        97    643.3135    779.2246 300.1208899 +22.7920186     657.8669     72.27454      1.508     3.77     3.718524     20.40644     65.37982        13     1.161     0.749  22.18   0
        98    748.8691    776.1461 300.1547808 +22.8227723     409.6055     72.36666      1.428     3.58     3.686962     20.40644     43.15998         8     0.814     0.681  49.73   0
        99    395.1648    763.1224 300.0488649 +22.7129940     31666.08     72.29297      1.505     2.91     4.221612     20.40644     3561.636        68     1.325     1.299  18.87   0
       100    786.1292    766.0454 300.1696785 +22.8310373      708.202      72.3114      1.454     3.28     3.781522     20.40644     74.88039        13     1.025     0.847  16.28   0
       101    409.3768    763.7311 300.0530896 +22.7174308     2097.281     72.34824      1.561     2.80     4.146612     20.40644     244.1252        24     1.207     1.069 -18.45   0
       102    918.2927    759.1926 300.2131155 +22.8686676     2732.116     72.23765      1.619     3.59     4.057198     20.40644     222.9477        26     1.199     1.177 -24.86   0
       103    406.3261    757.5601 300.0541465 +22.7147449     637.6585      72.3114      1.833     3.61     4.236081     20.40644     53.71492        13     0.973     0.947  77.76   0
       104    947.5082    757.0955 300.2229100 +22.8768171     301.6069     72.51382      1.437     3.72     4.131375     20.40644     36.69861         6     0.797     0.500  89.89   0
       105    676.3220    755.0545 300.1390320 +22.7949722     884.9705     72.36666      1.467     3.62     3.882782     20.40644     92.59544        14     1.139     0.837 -11.15   0
       106    512.6669    755.1159 300.0880415 +22.7459303     506.3354     72.44028      1.627     5.30     3.898905     20.40644     54.06127         9     0.984     0.879  74.70   0
       107    277.8250    754.9313 300.0150237 +22.6754497     708.8107     72.32983      1.467     2.96     4.238141     20.40644      101.182        13     0.998     0.880  21.02   0
       108     82.5818    750.7880 299.9556725 +22.6156843     514.8335     72.29297      1.643     4.38     4.008354     20.40644     46.57576         7     0.913     0.597   3.34   0
       109    523.4741    749.8416 300.0931210 +22.7476564     795.1279      72.3114      1.387     2.84     3.941412     20.40644      99.6115        14     0.996     0.876  18.40   0
       110    671.7044    747.8602 300.1399323 +22.7915222     321.7644     72.40348      1.627     4.38     3.935313     20.40644     25.12239         7     0.879     0.621 -62.05   0
       111    924.4518    747.0151 300.2189959 +22.8670139     518.0885     72.32983      1.625     4.17     4.222019     20.40644     51.22988        10     1.042     0.649  25.42   0
       112    425.5981    745.6988 300.0640002 +22.7171199     284.2954      72.2192      1.221     3.59     4.314808     20.40644     52.15628         6     0.981     0.378  69.80   0
       113    469.1955    745.1675 300.0777427 +22.7300404     407.3832      72.3114      1.398     4.47     4.057624     20.40644     43.33541         8     0.863     0.666 -45.98   0
       114    111.1863    744.1940 299.9667055 +22.6223763     519.5118     72.20074      1.618     3.80     4.011614     20.40644     57.72252        11     1.139     0.830 -24.18   0
       115    902.0388    741.8333 300.2136903 +22.8588107     360.0379     72.36666      2.215     4.12     4.215047     20.40644     43.39502         6     1.064     0.788 -88.72   0
       116    275.4912    739.2949 300.0193810 +22.6702632     434.1426     72.51382      1.381     4.26     4.229413     20.40644     55.99339        10     1.055     0.801   3.15   0
       117    598.6577    729.7292 300.1230721 +22.7644209     560.9499     72.34824      1.628     5.04     4.051087     20.40644     45.86875        10     0.910     0.853  40.26   0
       118    568.3035    728.1112 300.1141446 +22.7548572     598.8912     72.51382      1.314     2.70     4.089822     20.40644     78.73528        11     0.860     0.818  36.05   0
       119    605.8902    728.5813 300.1256979 +22.7662593     363.4528      72.2561      1.413     3.84     4.048773     20.40644     42.42813         5     0.885     0.478   9.30   0
       120    477.4850    727.0997 300.0861967 +22.7273395     423.5989     72.49545      1.717     4.72     4.146591     20.40644     51.63818         8     1.139     0.820  29.59   0
       121    984.7013    724.4839 300.2451154 +22.8785866     4521.893     72.49545      1.682     3.51     4.536087     20.40644     381.3322        34     1.297     1.208  -3.05   0
       122    590.2239    725.4178 300.1218469 +22.7606549     1415.727     72.32983      1.493     3.05     4.082204     20.40644     148.6664        18     1.040     1.018  11.45   0
       123    510.0285    725.5637 300.0968273 +22.7366556     237.0284     72.34824      1.128     2.05      4.12844     20.40644     64.31804         7     0.729     0.650  16.43   0
       124    973.0466    715.7909 300.2443054 +22.8725976     1679.893     72.34824      1.622     5.34     4.526724     20.40644     130.0806        27     1.463     1.153  73.28   0
       125    739.0657    711.1691 300.1728503 +22.8011720     397.1653     72.32983      1.684     3.45     4.019197     20.40644     38.67199         5     0.902     0.625  27.28   0
       126    336.3201    709.6470 300.0479397 +22.6799999     782.1311     72.34824      1.325     2.74     4.465578     20.40644     105.4145        14     0.921     0.885 -24.93   0
       127    202.5927    710.3907 300.0061074 +22.6401030     314.2635     72.18229      1.267     3.32     4.275571     20.40644     40.83759         5     0.976     0.327  23.17   0
       128    799.5948    707.0719 300.1930486 +22.8181318     2640.843     72.27454      1.594     3.12     4.121402     20.40644     250.8544        31     1.423     1.088 -10.68   0
       129   1004.2017    706.0533 300.2571910 +22.8791302     1733.621     72.29297      1.709     3.57     4.630393     20.40644     137.0404        26     1.265     1.207 -73.95   0
       130     22.1822    697.4016 299.9542584 +22.5822487     850.1184     72.23765      1.821     3.09     4.041656     20.40644     88.92495        12     0.980     0.845 -17.58   0
       131    881.5231    693.1810 300.2231084 +22.8386857     702.1706     72.32983      1.845     3.99     4.343267     20.40644     63.27641        12     1.142     0.790  19.68   0
       132    185.1972    693.2111 300.0062827 +22.6299558     576.5359     72.14536      1.630     3.81     4.390413     20.40644      73.4165         7     0.963     0.675  31.02   0
       133    917.9713    684.0823 300.2374329 +22.8469891     149122.9     72.34824      1.527     3.05     4.466367     20.40644     12625.89       153     1.454     1.415  22.26   0
       134    680.0403    687.9022 300.1620202 +22.7768010     320.7671     72.32983      1.257     3.96      4.18199     20.40644     48.39267         6     0.909     0.494 -31.22   0
       135    770.6362    684.5436 300.1913446 +22.8029835     772.1285     72.32983      1.551     3.09     4.157045     20.40644     78.39562        16     1.026     0.969 -85.82   0
       136    950.6685    676.8018 300.2499983 +22.8546902     507.3081     72.29297      1.541     5.46     4.569291     20.40644     47.48386        12     1.088     0.918  54.88   0
       137    785.4334    670.2055 300.2006172 +22.8032978     9528.448     72.32983      1.433     2.72     4.232213     20.40644     942.0115        40     1.215     1.145  66.80   0
       138    604.2537    672.7460 300.1433372 +22.7497351     1651.482     72.36666      1.373     2.78     4.271182     20.40644     224.1946        21     1.085     1.049   9.47   0
       139    286.8984    665.1407 300.0470310 +22.6524056     4989.313     72.42188      1.468     2.89     4.484582     20.40644     533.3751        31     1.202     1.146   2.43   0
       140      1.5533    663.6553 299.9588166 +22.5663800     914.1958     57.50997      1.067     2.79     4.045658     20.40644     151.7049        11     0.975     0.615  89.95  24
       141    369.0357    663.3392 300.0731688 +22.6765197     1173.476     72.34824      1.390     2.80     4.481099     20.40644     142.5306        19     1.134     0.943 -34.33   0
       142    244.6086    661.4127 300.0350901 +22.6386525     496.0591      72.2192      1.636     3.75     4.526132     20.40644     57.64285        12     1.001     0.914  28.64   0
       143    577.2861    658.8479 300.1394550 +22.7376612     729.1594      72.3114      1.402     3.03     4.455904     20.40644     104.3756        13     0.987     0.845  44.46   0
       144    568.8863    650.9641 300.1394011 +22.7328796     3178.635      72.3114      1.339     2.55     4.516396     20.40644     429.4137        25     1.062     1.014   8.09   0
       145    559.1335    644.5858 300.1384367 +22.7281248     1476.496     72.29297      1.409     2.73     4.557503     20.40644     189.4576        20     1.238     0.957  86.68   0
       146    952.7781    642.7540 300.2617222 +22.8455366     522.4182     72.36666      1.723     4.76     4.546782     20.40644     45.88719        12     1.031     0.876  72.43   0
       147    222.3942    640.7719 300.0348895 +22.6260668     685.4547     72.32983      1.673     2.99     4.552604     20.40644     92.75901        11     1.050     0.744  63.24   0
       148    236.6807    638.9614 300.0399203 +22.6298321     595.1188     72.29297      1.520     4.03     4.528725     20.40644     70.42565        12     1.044     0.900  63.73   0
       149    122.2590    638.5456 300.0044827 +22.5953921      454.149     72.38508      2.080     3.47     4.497338     20.40644     36.15826         5     0.747     0.466 -17.40   0
       150   1006.0853    636.1566 300.2804971 +22.8596039     446.7444     72.29297      1.458     5.58     4.609919     20.40644     53.30004         9     0.964     0.910 -18.13   0
       151    294.1010    636.2825 300.0586491 +22.6462834     409.6106     72.49545      1.638     4.23     4.415134     20.40644     39.33815         6     0.804     0.634 -53.93   0
       152    262.4006    636.1941 300.0488181 +22.6367514     473.3026     72.14536      1.265     2.55     4.473667     20.40644     74.14848         9     0.912     0.675   0.20   0
       153    583.0139    634.8272 300.1490448 +22.7324796     543.9299     72.32983      1.450     3.19     4.599302     20.40644     59.90133        10     0.880     0.764  68.39   0
       154    483.9090    634.3248 300.1183493 +22.7026302     1820.016     72.49545      1.366     2.84     4.611733     20.40644     199.7107        19     1.053     0.929  42.16   0
       155    137.8372    629.2056 300.0123596 +22.5973854     20008.96     72.36666      1.595     3.23     4.528514     20.40644     1922.915        63     1.423     1.310  26.52   0
       156    513.0774    631.2065 300.1284435 +22.7104781     2406.339      72.2561      0.516     0.80     4.615362     20.40644     1607.191         5     0.419     0.305  67.65   0
       157    568.8218    629.5618 300.1463359 +22.7267140     1170.867     72.34824      1.478     3.07     4.625459     20.40644     134.0941        16     1.003     0.981  54.44   0
       158    603.9283    628.6803 300.1575562 +22.7369823     385.6275     72.45867      1.409     4.16     4.650782     20.40644     53.78577         7     0.940     0.727  43.03   0
       159    940.1606    625.4911 300.2633963 +22.8367962     164.2629     72.32983      1.383     4.63     4.511301     20.40644     24.77691         6     1.020     0.596 -66.46   0
       160    623.9645    621.8052 300.1660312 +22.7410121     262.6738     72.32983      1.266     3.99     4.708275     20.40644     26.06539         6     0.949     0.481  35.25   0
       161    322.4806    621.2345 300.0723666 +22.6504744      414.427     72.27454      1.285     2.79     4.379488     20.40644      61.4803         8     0.789     0.753  -2.39   0
       162    986.8899    616.0795 300.2810323 +22.8480847     1148.095     72.45867      1.664     3.64     4.536231     20.40644     89.81847        20     1.133     1.108 -41.70   0
       163     83.8440    613.4661 300.0006924 +22.5766729     1540.508      72.3114      1.985     4.89     4.486829     20.40644     119.5971        22     1.415     1.069  87.18   0
       164    853.6519    614.0750 300.2401264 +22.8076056     381.9092     72.34824      1.209     2.62     4.416152     20.40644     55.72116         7     0.718     0.655  69.74   0
       165     58.8049    630.9553 299.9872293 +22.5741784     606.0853     72.32983      1.547     3.33     4.380316     20.40644     79.35651        12     1.034     0.899  27.74   0
       166    532.1516    610.5165 300.1411053 +22.7102539     482.9836      72.3114      1.425     2.80     4.668102     20.40644     59.15011         8     0.748     0.708 -48.29   0
       167    927.1939    608.6500 300.2648242 +22.8280725     921.9449      72.3114      1.877     3.54     4.490948     20.40644     74.88902        15     1.065     0.969  20.45   2
       168    325.1594    609.0760 300.0771504 +22.6477877     310.8198     72.29297      1.400     3.38     4.351331     20.40644     38.03681         5     0.753     0.671 -87.90   0
       169    671.5415    607.1956 300.1856000 +22.7510722     281.5686     72.29297      1.233     4.36     4.790009     20.40644     39.89736         6     0.957     0.564  26.29   0
       170    489.0023    602.6329 300.1302324 +22.6950569     784.9097     72.29297      1.408     3.02     4.662935     20.40644      99.0052        13     1.046     0.790  43.08   0
       171    636.9702    601.3892 300.1767162 +22.7390452     464.5273     72.32983      1.221     2.64     4.817446     20.40644     78.59914         8     0.783     0.673 -83.38   0
       172    684.2166    599.8740 300.1919281 +22.7527667     497.3096     72.32983      1.345     2.52     4.740537     20.40644     71.22949         8     0.762     0.679  19.90   0
       173    654.6796    599.3453 300.1828973 +22.7437647     650.3684     72.36666      1.574     3.00     4.806538     20.40644     72.55571        10     0.927     0.776 -68.89   0
       174    532.9836    598.3975 300.1453019 +22.7070230     835.6147     72.23765      1.295     2.66      4.68938     20.40644     105.0006        12     0.916     0.774  44.29   0
       175    720.0276    597.9406 300.2037153 +22.7629406     206.3008     72.32983      1.178     3.68     4.565021     20.40644     34.24945         5     0.640     0.607   2.31   0
       176    967.0157    594.0832 300.2819794 +22.8358105     3375.196     72.29297      1.478     3.02     4.483955     20.40644     327.1906        30     1.248     1.132 -68.14   0
       177    498.6843    593.9478 300.1360684 +22.6954649     1646.386     72.36666      1.334     2.47     4.657857     20.40644      250.542        17     1.040     0.858  50.71   0
       178    863.8023    591.3669 300.2506699 +22.8041199     201.5912     72.29297      1.218     3.49     4.438842     20.40644     40.48574         5     0.840     0.419 -19.12   0
       179    474.3396    589.3486 300.1299838 +22.6868472     355.6531     72.38508      1.190     2.93     4.606768     20.40644     44.98188         5     0.725     0.460  12.66   0
       180     60.6178    587.3302 300.0019658 +22.5622073     5183.698     72.36666      1.689     3.50     4.470412     20.40644     500.2518        36     1.376     1.249  40.23   0
       181   1006.3033    583.2992 300.2977407 +22.8444742      277.058      72.5322      1.605     4.67     4.466744     20.40644     27.67454         7     1.088     0.568 -25.39   0
       182    362.1200    580.6409 300.0978876 +22.6507066     8972.103      72.3114      1.388     2.56     4.361523     20.40644     1170.505        40     1.194     1.121  26.86   0
       183    484.5661    577.6661 300.1369627 +22.6865578     8941.605     72.32983      1.327     2.33     4.609336     20.40644     1391.257        36     1.155     1.043  56.72   0
       184    730.6299    573.6342 300.2149165 +22.7591335     335.0189     72.34824      1.734     3.98     4.512894     20.40644     33.53766         6     0.943     0.481  87.12   0
       185    128.6411    573.6137 300.0275619 +22.5786761     379.4075     72.34824      1.627     3.82     4.607135     20.40644     32.35588         5     0.981     0.426  15.47   0
       186    896.3763    571.6718 300.2672271 +22.8082149     1862.629     72.36666      1.503     2.85     4.453049     20.40644      211.191        21     1.132     1.053  80.03   0
       187    980.9639    569.1802 300.2944219 +22.8328282     12619.01     72.34824      1.483     2.89     4.437671     20.40644     1341.362        48     1.272     1.236  67.75   0
       188    545.1290    567.3019 300.1591862 +22.7017325     11906.77     72.45867      1.314     2.46     4.770596     20.40644     1414.463        44     1.190     1.094  49.56   0
       189    714.8066    563.3226 300.2133353 +22.7514304     454.7467      72.2561      1.096     2.17     4.598444     20.40644     80.00652         7     0.777     0.566  31.05   0
       190    272.6420    562.5681 300.0759234 +22.6186908      1358.05     72.38508      1.414     2.62     4.475057     20.40644     197.7568        19     1.078     0.990  80.92   0
       191    430.7213    561.6739 300.1253974 +22.6658261     457.0757     72.44028      1.704     4.49     4.426106     20.40644     36.18233         6     1.041     0.551  65.62   0
       192    519.4880    560.2440 300.1534949 +22.6920210     455.2162     72.32983      1.456     3.14     4.693699     20.40644     58.84761         7     0.963     0.488  42.82   0
       193    476.8574    555.5143 300.1417591 +22.6778860     4314.878     72.44028      1.262     2.38     4.537378     20.40644     642.4456        25     1.062     0.950  44.46   0
       194    819.6063    555.6863 300.2484818 +22.7806285     708.8023      72.2561      1.348     2.94     4.471259     20.40644     101.5623        13     1.008     0.822 -30.59   0
       195    455.1877    553.9491 300.1355220 +22.6709415     1271.476     72.36666      1.315     2.46     4.473108     20.40644     176.9661        16     1.007     0.853  28.75   0
       196    209.3817    553.3148 300.0592564 +22.5970656     737.7449     72.27454      1.529     2.92     4.627425     20.40644     94.54617        12     0.967     0.857  17.00   0
       197    896.6917    551.2283 300.2739669 +22.8024332     1598.728      72.3114      1.435     2.60     4.450256     20.40644     187.5188        20     1.075     0.984 -28.68   0
       198    593.4953    543.0452 300.1821285 +22.7092587       201589     72.34824      1.332     2.40     4.831229     20.40644     28018.02       204     1.411     1.367 -10.24   0
       199    777.3470    547.9913 300.2378076 +22.7657595     818.4482     72.32983      1.323     2.41      4.47998     20.40644      118.483        13     0.926     0.866  46.15   0
       200    279.5085    542.9511 300.0844312 +22.6151186     3557.797     72.36666      1.414     2.55     4.485368     20.40644     518.1537        26     1.118     1.052  44.56   0
       201    845.3290    539.1276 300.2618809 +22.7835733     595.8837     72.40348      1.327     2.98      4.47735     20.40644     70.14754         8     0.935     0.565  27.00   0
       202    863.9749    537.6660 300.2681698 +22.7887373     198.2998      72.3114      1.207     4.71     4.474567     20.40644     40.73042         6     0.962     0.655 -21.13   0
       203    625.2434    529.6837 300.1963577 +22.7149330     276.7079     72.29297      1.235     3.41     4.824272     20.40644     40.78108         5     0.761     0.442 -13.53   0
       204    484.0331    523.5579 300.1543730 +22.6708591     2885.273     72.38507      1.441     2.69     4.629795     20.40644     306.6077        29     1.464     1.002  86.23   0
       205    328.5990    525.8546 300.1052546 +22.6249284     388.6167      72.2561      1.181     2.78     4.398169     20.40644     77.68126         7     0.885     0.591 -41.58   0
       206    933.9227    523.8001 300.2944890 +22.8056971     266.2409     72.20074      1.387     3.42     4.392337     20.40644     42.55476         6     0.983     0.615 -46.33   0
       207    640.6061    520.6229 300.2040864 +22.7169327     420.8866      72.3114      2.051     4.01     4.817213     20.40644     39.79799         6     0.943     0.489 -89.53   0
       208    895.8305    520.0062 300.2838404 +22.7932005     324.0223     72.32983      1.313     3.56     4.427394     20.40644     44.49226         5     1.121     0.327 -21.19   0
       209    801.1600    512.0989 300.2568895 +22.7625768     382.1214     72.32983      1.164     3.26     4.481836     20.40644     53.54784         9     0.889     0.751  -8.44   0
       210    881.2160    509.5860 300.2826672 +22.7858289     1709.186     72.27454      1.433     2.71     4.431868     20.40644     225.9303        19     1.067     0.966 -68.98   0
       211    752.3108    507.2510 300.2432371 +22.7465528     2646.547     72.34824      1.319     2.39     4.528949     20.40644     310.0758        24     1.055     1.033 -58.36   0
       212     11.0717    508.2355 300.0122618 +22.5246521     775.4492     72.32983      1.726     4.11     4.505047     20.40644     68.74384        14     1.288     0.828 -24.58   0
       213    111.7993    507.3824 300.0438389 +22.5546191     250.1901     72.23765      1.239     3.38      4.64183     20.40644     31.27374         5     0.759     0.436 -20.16   0
       214    996.9006    504.6009 300.3203722 +22.8190325     578.9586     72.16383      2.031     6.31     4.222576     20.40644      52.2749        12     1.606     0.697 -30.59   0
       215    657.0303    504.1451 300.2145550 +22.7171189     403.4552     72.34824      1.224     2.62      4.80452     20.40644     62.98014         7     0.722     0.642   3.67   0
       216    539.4746    503.2649 300.1782257 +22.6816447     824.2449     72.36666      1.384     2.40     4.811749     20.40644     105.2456        13     0.922     0.802  47.84   0
       217   1009.6874    501.2202 300.3254601 +22.8218883     1334.583      72.2561      1.526     3.21     4.173435     20.40644     140.8692        18     1.157     0.917 -32.44   0
       218    995.4476    500.7519 300.3211690 +22.8174908     765.6017     72.36666      1.435     2.85     4.211761     20.40644     83.45539        11     0.955     0.724  31.77   1
       219    881.4140    499.7612 300.2859200 +22.7830639     2100.237     72.34824      1.559     3.65     4.422267     20.40644     233.3556        23     1.395     0.951  79.21   0
       220    634.8671    497.8175 300.2097054 +22.7086612     774.1948      72.3114      1.793     2.94     4.800386     20.40644      90.6968        10     0.917     0.788  44.89   2
       221    919.5660    494.7794 300.2994369 +22.7930554     4352.945     72.34824      1.427     2.48     4.383233     20.40644     538.6844        34     1.161     1.138  71.79   0
       222    473.0659    496.6087 300.1597113 +22.6598323     331.6066     72.32983      1.265     3.44     4.701507     20.40644      55.3503         7     0.859     0.646  58.47   0
       223    420.8607    497.4081 300.1432021 +22.6444160     247.2974      72.3114      1.190     3.53     4.408444     20.40644     45.40582         6     0.718     0.658  67.46   0
       224    560.2422    494.1628 300.1876489 +22.6852529     135.6304     72.42188      1.181     3.98     4.815822     20.40644     32.90985         6     0.783     0.578  42.11   0
       225    657.2650    491.4667 300.2187457 +22.7135464      277.056     72.38508      1.379     3.43     4.795096     20.40644      38.9278         5     0.769     0.442  21.58   0
       226    580.0479    490.5772 300.1949815 +22.6901571     351.5188     72.34824      1.278     2.84     4.807162     20.40644     50.42327         6     0.762     0.493   2.68   0
       227   1011.3684    485.4646 300.3311017 +22.8178610     743.7997     72.32983      1.532     3.45     4.096846     20.40644     85.85417        16     1.089     0.962  61.91   0
       228    151.6877    485.0471 300.0634907 +22.5601710     967.8719      72.3114      1.406     2.43     4.693489     20.40644     151.4474        12     0.965     0.727  -2.14   0
       229    812.6644    478.8355 300.2712792 +22.7564615     309.0756     72.32983      1.256     3.08     4.473408     20.40644     44.90694         5     0.733     0.449  75.34   0
       230    143.1858    476.6673 300.0635689 +22.5552164     1807.117     72.32983      0.564    -1.27     4.686591     20.40644     1378.381         9     0.976     0.298 -58.52   0
       231   1007.3526    474.6066 300.3333750 +22.8135366     264.8642     72.32983      1.217     4.17     4.117206     20.40644     49.12351         7     1.057     0.470   8.17   0
       232    751.8059    469.5183 300.2553340 +22.7355575     363.6527      72.2561      0.995     1.62     4.565575     20.40644     88.85767         5     0.623     0.484  18.31   0
       233    640.6994    467.0313 300.2215201 +22.7015628     379.1675      72.3114      1.321     3.29     4.753062     20.40644     54.60375         7     0.850     0.668 -11.29   0
       234    693.0849    465.2369 300.2384244 +22.7167392     830.7278      72.3114      1.251     2.39      4.69127     20.40644     114.7698        11     0.868     0.742  45.17   0
       235   1007.5452    457.8910 300.3388634 +22.8087874     527.3141     72.38507      1.188     2.64     4.185039     20.40644     68.22002        10     0.879     0.720   8.19   0
       236    753.8356    457.4890 300.2598729 +22.7327080     808.0466      72.3114      1.245     2.29     4.569013     20.40644     117.8831        13     0.960     0.782  46.22   0
       237    911.0299    453.8511 300.3100660 +22.7787327     898.4556     72.34824      1.302     2.84     4.430006     20.40644       121.97        12     0.914     0.810  -6.11   0
       238    895.3448    450.2374 300.3063475 +22.7729977     525.2389     72.32983      1.166     2.44     4.444568     20.40644     94.59008        10     0.897     0.665  -6.79   0
       239    639.5624    447.9816 300.2273517 +22.6957484      3175.52     72.32983      1.230     2.25     4.706407     20.40644     495.4107        21     1.023     0.909  54.08   0
       240    999.8250    446.9543 300.3400059 +22.8033314     607.4537     72.34824      1.539     3.34     4.251851     20.40644     59.71323        12     0.996     0.838 -86.84   0
       241    785.9847    447.5145 300.2731329 +22.7394690     156.1162     72.29297      1.072     3.68     4.550635     20.40644     29.49153         6     0.788     0.499  -2.38   0
       242    115.5776    439.4728 300.0670639 +22.5362621     286.9826     72.36666      1.256     3.67     4.747158     20.40644     40.76319         6     0.914     0.436 -17.68   0
       243    479.3383    435.0190 300.1816633 +22.6440213     376.9888      72.3114      1.313     2.58     4.808152     20.40644     72.90067         6     0.871     0.464 -46.68   0
       244    923.0199    427.0053 300.3225228 +22.7746034     473.5243      72.3114      1.333     3.20     4.479722     20.40644     62.51237        10     0.880     0.782 -54.53   0
       245   1009.3699    425.9626 300.3498003 +22.8001516     906.9086     72.36666      1.402     2.65     4.316926     20.40644     118.0277        13     1.003     0.778  21.64   0
       246    659.2828    423.7961 300.2413482 +22.6947055     330.8053      72.2561      1.217     2.99     4.628974     20.40644     43.95383         5     0.807     0.474 -42.27   0
       247    750.2330    421.9446 300.2702912 +22.7214128     1049.193     72.34824      1.272     2.35     4.585285     20.40644      160.143        14     0.938     0.826  25.64   0
       248    546.0018    422.4187 300.2065105 +22.6603752     482.8262      72.2561      1.375     2.15     4.886693     20.40644     78.07277         6     0.714     0.606  37.72   0
       249    253.9037    420.0882 300.1163644 +22.5721694     659.0493     72.51382      1.325     3.62     4.562232     20.40644      84.9189        11     1.034     0.783  -7.76   0
       250    316.4415    415.7629 300.1372210 +22.5896730     3757.679     72.42188      1.363     2.61     4.432717     20.40644     558.9644        27     1.087     1.043  25.43   0
       251    263.7002    410.4903 300.1225271 +22.5723502     7548.135     72.49545      1.382     2.42     4.526893     20.40644     1063.978        33     1.150     1.079  55.04   0
       252    404.4506    404.7503 300.1681803 +22.6128864      4953.34     72.36666      1.302     2.20     4.496977     20.40644      781.329        30     1.098     1.018  64.83   0
       253    648.7059    401.5270 300.2452827 +22.6851378     18643.41     72.45867      1.267     2.18     4.618871     20.40644     3037.925        44     1.127     1.064 -79.50   0
       254    666.1838    401.5791 300.2507111 +22.6903876     823.6182      72.3114      1.912     6.34     4.600011     20.40644     64.36328        15     1.608     0.701 -34.09   0
       255    496.0635    403.3678 300.1971460 +22.6399402     305.4377     72.32983      1.475     2.74     4.853426     20.40644     43.53758         5     0.851     0.480   3.56   0
       256    892.1676    398.0178 300.3223114 +22.7570322     146.3139      72.3114      1.142     3.79     4.540334     20.40644     39.89232         5     0.816     0.506 -37.34   0
       257    845.8357    392.1103 300.3097809 +22.7414627     345.6544      72.3114      1.251     2.96     4.566549     20.40644     52.91247         9     0.892     0.695 -71.50   0
       258    268.8445    388.8307 300.1311582 +22.5676728     336.0717     72.36666      1.336     3.09     4.507663     20.40644     52.51798         5     0.771     0.517 -41.79   0
       259    982.3486    384.3401 300.3548825 +22.7800933     857.6526     72.38508      1.607     3.12     4.469299     20.40644     98.10316        15     1.060     0.952 -21.98   0
       260    519.2578    383.6481 300.2107690 +22.6412237     352.2387     72.38508      1.255     3.16     4.886171     20.40644     51.37128         6     0.742     0.606  40.29   0
       261    692.2871    382.8457 300.2649260 +22.6928213     341.7485      72.3114      1.157     1.94     4.580464     20.40644     56.20041         5     0.707     0.424 -73.81   0
       262    203.2929    381.5297 300.1131425 +22.5459269     2056.498     72.45867      1.448     2.60      4.68116     20.40644     294.9039        23     1.143     1.054  57.75   0
       263    216.4443    376.4831 300.1188699 +22.5484203     299.0046     72.29297      1.489     4.17     4.678277     20.40644     31.42064         5     1.182     0.419  36.22   0
       264   1003.0494    371.4783 300.3655166 +22.7825896     1161.085     72.32983      1.409     2.60     4.457901     20.40644     174.8324        17     1.024     0.954  49.26   0
       265    589.3241    370.9366 300.2367151 +22.6585604     6572.111     72.38507      1.270     2.21       4.7381     20.40644     937.3571        32     1.117     0.967  57.93   0
       266    304.2199    370.3993 300.1481445 +22.5729827     746.8078      72.2561      1.460     2.74      4.51452     20.40644     79.63281        13     0.936     0.852 -83.03   0
       267    161.9253    363.5092 300.1061297 +22.5283520     566.8666     72.49545      1.522     2.80     4.681528     20.40644     77.92992         8     0.920     0.581  46.92   0
       268      9.1208    361.0489 300.0594394 +22.4818304     1352.824     72.32983      1.546     3.39     5.108622     20.40644     152.9085        22     1.177     1.104  41.83   0
       269    703.0936    361.1996 300.2753198 +22.6898357     374.1757     72.20074      1.187     2.39     4.565609     20.40644     80.59699         9     0.836     0.670  18.14   0
       270    793.6875    359.8708 300.3039876 +22.7165805      1224.79     72.49545      1.432     2.82     4.581295     20.40644     138.7973        14     0.961     0.827  78.17   0
       271    495.9902    357.1903 300.2121125 +22.6266514     6070.486      72.2192      1.288     2.41     4.901301     20.40644      811.783        32     1.113     1.010  55.88   0
       272    888.0164    351.6808 300.3360584 +22.7424652     1485.863     72.32983      1.351     2.45     4.636865     20.40644     223.2996        19     1.145     0.877  32.63   0
       273    985.3352    352.0194 300.3663059 +22.7716912     563.2496      72.3114      1.245     2.59     4.525499     20.40644     77.84837         9     0.852     0.671  28.39   0
       274    480.6978    345.8565 300.2110300 +22.6188137     347.8337     72.42188      1.196     2.67     4.883905     20.40644     68.49427         8     0.856     0.629  68.63   0
       275    563.2206    343.7682 300.2374034 +22.6429342     527.7684     72.32983      1.383     2.80      4.80279     20.40644     62.13286         8     0.871     0.608   0.57   0
       276      7.3566    342.5010 300.0649107 +22.4759779     1119.893     72.32983      1.581     3.88     5.134363     20.40644     122.1266        17     1.261     0.985  33.59  16
       277    860.7988    339.2055 300.3316197 +22.7307303     457.0676     72.14536      1.323     3.41     4.647229     20.40644     76.48503        10     0.959     0.777 -46.32   0
       278    383.5221    336.3943 300.1838546 +22.5869803     2631.168     72.23765      1.258     2.29     4.908486     20.40644     384.2088        19     1.042     0.888  65.71   0
       279    101.8350    333.8475 300.0970773 +22.5018216     1059.229     72.36666      1.510     3.11     4.888717     20.40644     122.6688        16     1.074     0.902  30.36   0
       280    352.8545    325.8142 300.1777454 +22.5747518        30170     72.32983      1.351     2.42     4.995647     20.40644     4564.603        61     1.241     1.130  58.18   0
       281    887.5273    323.4830 300.3450579 +22.7342098     1343.971     72.45867      1.273     2.25     4.650186     20.40644     208.1361        15     0.924     0.883  84.35   0
       282    843.0397    321.6341 300.3317848 +22.7203613     254.6518     72.36666      1.463     2.74     4.636085     20.40644     43.96735         5     0.760     0.559 -84.53   0
       283     49.1959    313.5936 300.0872910 +22.4802254     5191.393     72.16383      1.585     2.78     5.037441     20.40644     680.1411        39     1.356     1.200  39.68   0
       284    926.3465    312.5070 300.3607277 +22.7426720      331.423     72.38508      1.661     4.66     4.637457     20.40644     36.64209         7     1.373     0.449 -45.32   0
       285    802.7805    312.2902 300.3222650 +22.7056225     613.9596      72.2561      1.395     2.98     4.593429     20.40644     71.40533         8     0.938     0.571  26.46   0
       286    227.2840    312.2361 300.1430913 +22.5332207     446.7468      72.3114      1.183     2.27     4.911303     20.40644     69.03645         6     0.704     0.547  28.08   0
       287    451.3041    311.0547 300.2131740 +22.6000087     619.6277     72.40348      1.313     2.90     4.774573     20.40644      77.0023         8     0.873     0.658  64.25   0
       288    763.3264    305.7097 300.3121014 +22.6919187     1885.575     72.49545      1.262     2.06     4.496505     20.40644     310.1846        16     0.909     0.885 -40.62   0
       289    571.5771    300.3565 300.2540942 +22.6329613     251.2041     72.38508      1.027     2.72     4.579698     20.40644     49.37503         7     0.796     0.628  17.17   0
       290    978.3762    298.7334 300.3814288 +22.7542813      546.342      72.3114      1.263     2.49     4.541708     20.40644     91.27547        11     0.957     0.706  23.96   0
       291    425.0881    290.1505 300.2117971 +22.5861487     2113.859     72.32983      1.422     2.98     4.711307     20.40644     262.8696        21     1.294     0.872  64.10   0
       292    637.5847    289.2956 300.2782441 +22.6495500     335.9469      72.2561      1.391     3.12      4.30657     20.40644     42.83657         6     0.826     0.520  45.93   0
       293    864.2692    282.9530 300.3509573 +22.7155922     544.3751      72.3114      1.271     2.73     4.673633     20.40644     79.24143        12     0.893     0.824  -9.74   0
       294    746.8931    280.7652 300.3150737 +22.6798267     360.3714     72.27454      1.127     1.98     4.435803     20.40644     72.23784         7     0.716     0.604 -10.86   0
       295    714.6298    280.3491 300.3051534 +22.6700476     330.3557     72.34824      1.064     3.31     4.382802     20.40644     55.35146         5     0.936     0.421 -15.55   0
       296    215.6960    270.8306 300.1529225 +22.5178567     248.8794     72.27454      1.447     4.45     5.011523     20.40644     38.68311         7     1.017     0.780  15.98   0
       297    500.8405    269.4851 300.2420840 +22.6029026     1197.317     72.29297      1.251     2.28     4.708357     20.40644     201.7129        15     1.030     0.780  52.64   0
       298    586.1569    267.3810 300.2693350 +22.6278500     402.4872     72.34824      1.115     2.96     4.448925     20.40644     50.97686         6     0.791     0.485  -2.38   0
       299    884.4500    263.1070 300.3636904 +22.7159244      214.968     72.38507      1.295     3.16      4.66226     20.40644     49.74075         6     0.967     0.456  35.06   0
       300    745.8233    261.5637 300.3209705 +22.6739854      2185.68     72.34824      1.242     2.07      4.46012     20.40644      373.172        17     0.966     0.870  58.67   0
       301   1007.1363    255.8916 300.4043039 +22.7505625     3184.049     72.44028      1.414     2.94      4.54902     20.40644     395.1631        28     1.162     1.118  61.91   0
       302    454.1963    245.3647 300.2353882 +22.5819997      714.119     72.32983      1.235     2.75     4.822316     20.40644     102.9215        11     0.943     0.730  46.31   0
       303    160.0055    239.4000 300.1458034 +22.4921396     649.3671     72.14536      1.508     2.64     5.023666     20.40644     73.55498         9     0.832     0.744 -88.14   0
       304    128.9847    239.4537 300.1361425 +22.4828575     1462.701     72.32983      1.629     3.23     5.040162     20.40644      167.072        24     1.305     1.074  -9.66   0
       305   1022.8967    236.5642 300.4154926 +22.7497172     471.2325     60.53529      1.314     3.54     4.569974     20.40644     77.41219        10     1.170     0.656  87.51  24
       306    213.2719    231.3861 300.1649650 +22.5058014     438.9047     72.32983      1.140     2.63     5.051336     20.40644     76.20151         8     0.866     0.602  -4.77   0
       307   1008.3732    229.1168 300.4133767 +22.7432291     273.2288      72.3114      1.243     4.17     4.602481     20.40644     43.79365         6     0.782     0.636 -12.23   0
       308     68.4567    228.7808 300.1207921 +22.4616502     327.3172     72.32983      1.403     3.84     5.060004     20.40644     39.00954         6     1.178     0.359 -30.68   0
       309    888.9780    225.3033 300.3773674 +22.7064059     343.6834      72.2561      1.230     3.17     4.656627     20.40644     47.51172         7     0.837     0.591  28.81   0
       310    817.4109    222.8488 300.3558469 +22.6842811     565.2009     72.34824      1.330     2.47     4.573097     20.40644     97.99685        11     0.889     0.773  32.15   0
       311    407.7260    222.4674 300.2283518 +22.5615000     372.6158     72.40348      1.348     2.60     5.088032     20.40644     73.23521         6     0.934     0.537  34.24   0
       312    907.8937    215.9536 300.3863001 +22.7093769     317.4061     72.34824      1.171     3.35     4.700323     20.40644     60.28047         7     1.066     0.491  52.19   0
       313    915.6070    212.0765 300.3899637 +22.7105697     2032.052     72.27454      1.349     2.42     4.723892     20.40644     245.9407        22     1.115     0.967  57.05   0
       314    334.0775    209.1977 300.2097383 +22.5356245     2092.427     72.23765      1.281     2.54     5.056748     20.40644     276.7804        20     1.032     0.923  54.91   0
       315    411.9825    204.3768 300.2355446 +22.5575767     965.4952      72.3114      1.308     2.91     5.008643     20.40644     122.7931        14     1.006     0.858 -26.05   0
       316    813.9495    203.6426 300.3609980 +22.6777212     597.7091     72.36666      1.340     3.01     4.669291     20.40644     81.20593        10     0.924     0.767 -40.95   0
       317    163.7031    204.4284 300.1582966 +22.4832042     315.0335     72.27454      1.463     6.00     5.115023     20.40644     38.45285         8     1.560     0.649  -7.43   0
       318    921.0426    200.8883 300.3952885 +22.7089776     302.6273     72.32983      1.190     3.86     4.776241     20.40644     43.35142         7     0.995     0.547  56.31   0
       319    228.8778    196.2981 300.1811992 +22.5003993     709.7446     72.45867      1.414     3.33     5.049849     20.40644     85.92888        12     1.073     0.719  26.48   0
       320    346.5956    196.1230 300.2178740 +22.5356180     256.9151     72.23765      1.145     3.49     4.986961     20.40644     38.85819         5     0.766     0.460 -73.68   0
       321    766.7126    193.3845 300.3495995 +22.6606327     1760.187     72.27454      1.237     2.32      4.66932     20.40644     268.2763        18     1.033     0.886  81.71   0
       322    831.6745    193.0739 300.3699527 +22.6799862     630.6544     72.38507      1.340     2.74     4.719497     20.40644     76.08422         9     0.907     0.625  34.50   0
       323    250.3282    189.5201 300.1900686 +22.5048795      565.805     72.45867      1.400     3.22      5.07386     20.40644      80.1107        14     1.068     0.885  59.00   0
       324    540.4068    185.9887 300.2814900 +22.5907540     295.4153     72.20074      1.395     2.33     4.734213     20.40644     49.19087         5     0.728     0.551  -1.70   0
       325    770.8334    184.8730 300.3536448 +22.6594182     810.5641     72.32983      1.370     2.74     4.715251     20.40644     106.0926        11     1.048     0.691  70.34   0
       326    691.2201    184.0871 300.3290868 +22.6353613     1183.322      72.2561      1.281     2.59     4.627992     20.40644     149.6619        13     0.949     0.809  67.76   0
       327    137.1570    183.0478 300.1569783 +22.4691081     1026.511     72.36666      0.441    -1.69     5.112765     20.40644     757.3632         5     0.422     0.208   7.45   0
       328    512.4965    180.0660 300.2747200 +22.5806936     293.5984     72.44028      1.230     4.24     4.724033     20.40644     51.20272         6     1.024     0.500  88.97   0
       329    617.4644    175.9983 300.3087307 +22.6109547     1009.509     72.32983      1.186     2.31     4.629405     20.40644     154.3749        12     0.901     0.780  48.74   0
       330    886.7421    175.5989 300.3927930 +22.6914386     1514.617     72.27454      1.405     2.70     4.794189     20.40644     213.6675        19     1.120     0.953  24.10   0
       331    898.9233    174.7507 300.3968673 +22.6948396     766.9717     72.32983      1.321     2.57     4.828816     20.40644     106.9139        14     0.994     0.895 -80.40   0
       332    944.9519    174.0114 300.4114645 +22.7083991     312.2958     72.34824      1.231     3.29      4.85205     20.40644     50.87449         7     1.004     0.642  12.99   0
       333   1015.4736    165.1428 300.4363440 +22.7269452     1168.275     72.36666      1.428     3.42     4.582451     20.40644     125.8135        17     1.112     0.977 -14.28   0
       334     38.9891    161.7248 300.1333831 +22.4335629     496.9944     72.34824      1.385     3.43     5.282116     20.40644     63.51991        10     1.004     0.698 -33.27   0
       335    249.5023    158.0637 300.2000133 +22.4955953     684.5271     72.44028      1.313     2.40     5.066267     20.40644     107.3808        13     0.958     0.794  47.43   0
       336    132.3211    157.3046 300.1638235 +22.4602652     398.4361     72.44028      1.452     4.11     5.134989     20.40644     38.99281         6     1.076     0.448  -6.09   0
       337    111.4362    152.7095 300.1588216 +22.4526867     2268.488      72.3114      1.528     2.44     5.169169     20.40644      325.824        26     1.238     1.023  48.91   0
       338    934.6972    150.0327 300.4160425 +22.6984318     661.0397      72.3114      1.323     2.93     4.947026     20.40644     90.70573        12     1.070     0.796   9.89   0
       339     60.8489    149.6461 300.1440927 +22.4366461      592.988     72.34824      2.039     4.03     5.296875     20.40644     58.75577        10     1.019     0.860  -3.73   0
       340    268.7724    146.0645 300.2098980 +22.4979212     5722.894     72.32983      1.386     2.64     5.043729     20.40644     737.7719        33     1.196     1.055  60.60   0
       341     14.2622    141.5615 300.1322383 +22.4203616     405.6697     72.32983      1.845     5.57      5.46287     20.40644     46.23111         8     1.237     0.930 -76.45   0
       342     52.9398    140.4114 300.1446293 +22.4316237     1280.888     72.29297      1.501     3.06     5.381316     20.40644     155.0177        21     1.136     1.065 -51.59   0
       343    814.3113    137.3676 300.3826059 +22.6587663     268.6727     72.29297      1.582     4.19     4.925723     20.40644     29.74542         5     1.054     0.476   4.63   0
       344    252.2544    136.9988 300.2077000 +22.4903680     519.9942      72.2561      1.172     2.41     5.013065     20.40644     91.15228         9     0.805     0.766 -82.03   0
       345    912.9440    127.7778 300.4164741 +22.6855202     3628.302     72.36666      1.422     2.75     4.947623     20.40644     481.8044        28     1.154     1.083  60.56   0
       346   1016.5294    126.5786 300.4491800 +22.7161631     2874.354     72.34824      1.494     2.59     4.645344     20.40644     369.8715        26     1.224     1.050  78.65  16
       347    462.3997    122.9678 300.2776393 +22.5492792      488.751     72.29297      1.254     2.58        4.773     20.40644     84.76176        10     0.881     0.715   4.75   0
       348    215.4281    123.6332 300.2005809 +22.4754950     281.9507     72.34824      1.016     3.05     5.016394     20.40644      46.1439         5     0.954     0.330  23.09   0
       349    576.5836    120.3343 300.3140483 +22.5827112     456.9776      72.3114      1.478     4.82     4.744886     20.40644     46.27045         8     0.903     0.730  14.79   0
       350    386.5835    114.9283 300.2566478 +22.5242633     826.7486     72.32983      1.499     2.08     4.813258     20.40644     89.48334         8     0.738     0.646 -14.06   0
       351    152.4197    111.6533 300.1848740 +22.4531751     557.7148      72.3114      1.434     3.75     5.173697     20.40644     72.49807        11     1.029     0.776  41.80   0
       352    513.7097    110.1886 300.2977578 +22.5609697     1700.761     72.27454      1.276     2.30     4.773875     20.40644     233.6718        21     1.114     0.907  69.56   0
       353    441.9178    110.4202 300.2753319 +22.5395390     595.4448     72.29297      1.553     2.81     4.799484     20.40644     67.48031         9     0.912     0.702  83.77   0
       354     50.7129    110.4907 300.1536386 +22.4223636     458.9896     72.49545      1.948     3.06     5.576858     20.40644      48.0511         5     0.894     0.499  -2.33   0
       355    575.3462    109.3391 300.3172280 +22.5791794     484.1537     72.38508      1.356     2.75     4.749439     20.40644     54.31302         6     0.736     0.559  40.41   0
       356    337.4894    106.2581 300.2441823 +22.5070674     295.3224     72.40348      1.136     3.21     4.821951     20.40644     45.29134         5     0.732     0.465  70.95   0
       357    257.4045    105.7281 300.2194410 +22.4829262     426.8154     72.27454      1.330     2.72     4.923897     20.40644     58.85358         6     0.835     0.486  40.17   0
       358    802.0955     99.8021 300.3909783 +22.6443045     355.2008     72.23765      1.266     3.05      4.97067     20.40644     63.61132         7     0.832     0.676  69.68   0
       359    698.8391     91.4634 300.3614972 +22.6110048     390.2126      72.3114      1.549     2.03     4.754537     20.40644     44.57039         5     0.679     0.465 -21.33   0
       360    287.7605     89.8961 300.2340160 +22.4874703     6030.732      72.3114      1.419     2.67     4.821913     20.40644     841.7458        35     1.240     1.074  54.24   0
       361    794.3075     90.7389 300.3914888 +22.6393668     385.9193     72.40348      1.296     2.95     4.959902     20.40644     44.60056         5     0.875     0.426   7.98   0
       362    139.0217     89.6364 300.1878467 +22.4428361      740.053     72.34824      1.522     2.85     5.320832     20.40644     86.91019        11     0.949     0.771  86.39   0
       363    917.0955     87.8871 300.4307036 +22.6752840     369.7967     72.51382      1.289     3.79     4.959766     20.40644     45.30848         6     0.950     0.435  40.44   0
       364    763.4998     81.1411 300.3849967 +22.6273868      196.816     72.42188      1.220     1.88     4.896919     20.40644     57.78146         5     0.677     0.478 -72.31   0
       365    303.4410     81.1149 300.2417408 +22.4896437     400.1902     72.29297      1.519     2.96     4.798069     20.40644     46.65943         8     0.850     0.664 -39.55   0
       366     50.0648     80.6010 300.1631271 +22.4135849     446.8034     72.34824      1.833     4.38     5.668015     20.40644      41.8654         6     0.906     0.664  77.49   0
       367    533.8575     75.3385 300.3153305 +22.5569825     6263.044     72.38507      1.325     2.38      4.74967     20.40644     913.7302        27     1.142     0.990  62.50   0
       368    419.1350     75.2164 300.2796537 +22.5225974     623.1567      72.3114      1.290     2.77     4.812435     20.40644     81.59151         9     0.795     0.717 -42.15   0
       369    590.9852     70.0639 300.3348325 +22.5725678     205.8526     72.29297      1.163     2.98     4.688463     20.40644     42.62257         9     0.773     0.769 -27.45   0
       370    786.5170     65.4589 300.3972560 +22.6297630     945.1295     72.42188      1.717     4.75     5.000628     20.40644     98.82245        16     1.391     0.815 -60.57   0
       371    727.3199     66.8227 300.3783618 +22.6124411     305.8812     72.27454      1.346     3.01     4.867045     20.40644     51.16483         5     1.104     0.308  12.29   0
       372    878.6378     64.1148 300.4264159 +22.6569385     413.0738      72.3114      1.387     2.94     5.086345     20.40644      60.9155         9     0.952     0.705   5.49   0
       373    585.3810     58.0492 300.3369818 +22.5674352     457.4305     72.32983      1.258     2.98     4.672859     20.40644     56.59228         7     0.857     0.663  88.38   0
       374    226.3359     58.8787 300.2249661 +22.4601580     422.6921     72.42188      1.376     4.74     4.805825     20.40644     46.33066         8     0.961     0.662  82.52   0
       375    662.2597     55.4910 300.3617609 +22.5897107     6335.874     72.40348      1.316     2.34     4.657924     20.40644     941.4363        35     1.206     1.016  58.49   0
       376    437.1364     54.4574 300.2919863 +22.5220203     1410.024     72.38507      1.308     2.30     4.804025     20.40644     204.0812        18     1.023     0.963  22.14   0
       377    703.3158     52.9350 300.3753829 +22.6012628      949.712     72.44028      1.356     2.61     4.804826     20.40644     126.4057        14     0.974     0.837 -74.78   0
       378    772.9660     50.3946 300.3979151 +22.6213745      368.992      72.3114      1.501     3.22     5.023911     20.40644     55.23264         7     0.847     0.593  32.81   0
       379    719.1893     48.9620 300.3816177 +22.6048702     642.1239     72.32983      1.341     2.90     4.896923     20.40644     89.63052         9     0.899     0.612  73.94   0
       380    989.3010     46.7500 300.4665661 +22.6850435      539.701     72.40348      1.497     2.79     4.784398     20.40644     77.61773        10     0.925     0.772 -88.29   0
       381    186.0298     47.0046 300.2162813 +22.4446720      683.078      72.3114      1.283     2.67      5.20295     20.40644     95.24625        10     0.880     0.712  18.23   0
       382    758.0037     44.6163 300.3951242 +22.6152350     523.7237     72.23765      1.396     2.19     5.029953     20.40644     67.01602         7     0.700     0.633   9.84   0
       383    706.4970     40.3174 300.3804644 +22.5985853     2701.513     72.49545      1.281     2.25     4.840791     20.40644     397.2947        23     1.150     0.943  82.00   0
       384    347.0627     41.1766 300.2682589 +22.4912301     432.1837      72.3114      1.240     3.19      4.74497     20.40644     75.06107         8     0.935     0.606  26.03   0
       385    721.5848     39.1579 300.3855423 +22.6027669     955.3234     72.34824      1.750     3.76      4.94816     20.40644     103.9772        14     1.184     0.776  35.76   0
       386      1.2511     34.7215 300.1628311 +22.3857797      189.127     55.84061      0.837     1.63     5.690248     20.40644     93.96786         5     0.668     0.417 -76.69  24
       387    793.0801     31.9711 300.4101576 +22.6220924     1612.796     72.34824      1.335     2.51     5.080891     20.40644     223.0849        18     1.101     0.912 -81.16   0
       388    953.0580     30.7126 300.4604571 +22.6695876     288.9041     72.40348      1.384     4.32     4.778058     20.40644     36.02656         7     0.764     0.695  17.83   0
       389    730.8732     25.1324 300.3929834 +22.6015116     811.7403     72.40348      1.374     2.39     5.071278     20.40644     104.5049         9     0.764     0.728 -46.23   0
       390    536.4650     24.4427 300.3326405 +22.5431286      1072.84      72.3114      1.357     3.30     4.663751     20.40644     139.3112        17     1.102     0.890  74.92   0
       391    109.3480     24.0001 300.1998981 +22.4150898     649.1366     72.27454      1.737     4.29      5.69417     20.40644     64.72514        11     1.156     0.780 -24.14   0
       392    440.1272     22.4245 300.3033002 +22.5137068     830.5868     72.36666      1.346     3.09     4.801181     20.40644     105.1672        13     1.078     0.734  68.83   0
       393    823.0009     21.4369 300.4229007 +22.6280133     417.7342     72.32983      1.405     4.24     5.192327     20.40644     48.41763         8     1.024     0.585  19.12   0
       394    646.7349   1022.3754 300.0428540 +22.8628411     2612.637     63.18488      0.752     1.00     3.503108     20.40644     1107.819         7     0.534     0.480  15.97  16
       395    241.2970    994.8640 299.9256239 +22.7333086     4694.025     72.44028      9.860    44.75      60.3251     20.40644     90.82481       531    10.933     5.084  82.78  19
       396    279.3484    983.5563 299.9411367 +22.7414862     9305.134     72.36666     11.328    36.64     28.84658     20.40644     180.9278      1004    12.561     5.574  64.65  19
       397    172.3318   1015.9785 299.8973111 +22.7186615     1783.175     72.32983      3.340    11.97     88.68431     20.40644     58.75469        39     2.511     1.589 -16.32  18
       398    188.6592   1016.6405 299.9021713 +22.7237525     332.7221     72.32983      1.553     4.68     89.82732     20.40644     38.79324         7     1.258     0.494  54.09  16
       399    259.9644    993.4017 299.9319047 +22.7384920     6187.496     72.29297      9.946    37.93     45.56395     20.40644     110.8764       466     8.525     4.683 -74.87  19
       400    219.6308   1009.2073 299.9142194 +22.7309182     1322.799     72.32983      3.622     5.90     83.67531     20.40644     44.72208        10     1.528     0.641  -0.90   3
       401    211.6614   1007.0743 299.9124357 +22.7279145     2448.871     72.36666      5.923    24.57     81.89127     20.40644     58.09085       130     4.565     3.673 -66.53  18
