#   1 NUMBER                 Running object number                                     
#   2 X_IMAGE                Object position along x                                    [pixel]
#   3 Y_IMAGE                Object position along y                                    [pixel]
#   4 ALPHA_J2000            Right ascension of barycenter (J2000)                      [deg]
#   5 DELTA_J2000            Declination of barycenter (J2000)                          [deg]
#   6 FLUX_APER              Flux vector within fixed circular aperture(s)              [count]
#   7 FLUXERR_APER           RMS error vector for aperture flux(es)                     [count]
#   8 FLUX_RADIUS            Fraction-of-light radii                                    [pixel]
#   9 FWHM_IMAGE             FWHM assuming a gaussian core                              [pixel]
#  10 BACKGROUND             Background at centroid position                            [count]
#  11 THRESHOLD              Detection threshold above background                       [count]
#  12 FLUX_MAX               Peak flux above background                                 [count]
#  13 ISOAREA_IMAGE          Isophotal area above Analysis threshold                    [pixel**2]
#  14 A_IMAGE                Profile RMS along major axis                               [pixel]
#  15 B_IMAGE                Profile RMS along minor axis                               [pixel]
#  16 THETA_IMAGE            Position angle (CCW/x)                                     [deg]
#  17 FLAGS                  Extraction flags                                          
         1    682.5253     15.6596 300.3930370 +22.6013981     798.2617     72.14478      1.661     3.98      6.30552      20.3387     63.49854        16     1.162     0.934  55.80   0
         2    488.1268     15.0532 300.3326322 +22.5430934     1160.706     72.10808      1.545     3.41      5.65366      20.3387     104.9773        16     1.093     0.941  53.27   0
         3    392.0478     13.3545 300.3032502 +22.5138662     779.1417     72.12643      1.627     3.46     5.733778      20.3387     72.50586        14     1.062     0.917 -16.95   0
         4    774.0530     11.9217 300.4227989 +22.6276829     406.1368     72.12643      1.421     5.13     6.571395      20.3387     40.32084         9     0.969     0.768 -71.98   0
         5    731.5981      4.0607 300.4121022 +22.6127286     567.9243     68.76286      1.649     3.66     6.347867      20.3387     55.99231        12     1.104     0.758  -2.38  16
         6    163.4801      3.1239 300.2354075 +22.4425347     3438.297     65.28691      1.677     3.31     6.914896      20.3387     334.3076        31     1.406     1.154   4.05  24
         7    190.7598   1003.1020 299.9191550 +22.7379846     1614.665     72.08972      4.028    13.71     85.91791      20.3387     55.85475        33     2.864     1.825   3.02   2
         8     76.2898   1008.3948 299.8818252 +22.7051715     5595.538     71.99785     17.375    93.83     69.87447      20.3387     158.0653      2509    18.454    16.171  47.05  27
         9     28.3046    987.0183 299.8738602 +22.6846453     1373.262     71.99785      9.194    10.74     15.44284      20.3387     38.82761        21     2.342     1.373  -9.90   3
        10    630.7511    983.8640 300.0624488 +22.8643466     9044.789     72.12643      2.164     5.29     4.690216      20.3387     453.4894        55     1.787     1.498  39.39   3
        11    334.6403    989.0027 299.9685248 +22.7770784     440.7758     72.10808      2.126     3.46     4.845034      20.3387     39.77448         5     1.388     0.248 -72.51   0
        12    725.9985    987.4257 300.0909891 +22.8939039     671.9474     72.03461      2.319     7.24     4.777627      20.3387     31.43676        11     1.421     1.033  70.90   0
        13    158.6519    971.2263 299.9195380 +22.7192088     1668.474     72.10808     13.358    15.18     59.25711      20.3387     53.99788        31     3.506     1.829  64.24   3
        14    159.6784    976.0479 299.9182885 +22.7209002     2084.353     72.08972      4.594    14.71     63.84314      20.3387     64.52114        36     2.984     2.018 -55.71   2
        15     68.4483    946.7916 299.8994313 +22.6851452     5348.798     72.10808     29.464   115.25     27.16191      20.3387     1275.131      4386    21.758    16.937 -58.75  27
        16    625.5303    986.4998 300.0599635 +22.8635395     8883.688     72.18147      2.222     5.79     4.675594      20.3387     412.2187        55     1.798     1.547  13.34   3
        17      7.6996   1010.7872 299.8597194 +22.6852825     1711.492     71.99785      9.148    19.36    -6.543444      20.3387     50.37196        59     4.049     2.572  41.30  19
        18    919.5475    971.8055 300.1564619 +22.9473802     694.8112     72.05299      2.304     4.15     4.790112      20.3387      39.7117        10     1.100     0.743  55.94   2
        19      5.2087   1002.3835 299.8616798 +22.6821246     1628.988     71.77689      7.855    11.29    -7.765479      20.3387     48.32861        33     2.315     1.568 -53.55  27
        20    137.6210    955.4737 299.9181210 +22.7083816     1987.299     72.08972      9.036    14.04     44.50265      20.3387     51.60729        58     2.901     1.889  55.78   3
        21    643.5811    953.2596 300.0764076 +22.8593988     6943.752     72.03461      2.129     4.70     4.796975      20.3387     319.8559        53     1.670     1.554  27.73   0
        22      4.2963    990.8591 299.8651462 +22.6785451     1223.906     69.64275      9.358    10.99    -5.930364      20.3387     40.65205        19     2.804     1.200  54.25  27
        23    224.3861    949.5272 299.9470512 +22.7326921     990.8829     72.08972      5.829     9.30     31.96952      20.3387     41.16201        18     1.629     1.482  58.15   3
        24    131.7941    948.0009 299.9187397 +22.7044898     660.1062     71.90586      5.055     4.98     38.04034      20.3387     34.53217         5     1.204     0.582   9.80   1
        25      3.7075   1022.7032 299.8546005 +22.6875028     994.3394     57.06446      6.123    13.61    -14.28877      20.3387     47.74921        39     4.350     1.185  -4.90  27
        26    523.6910    947.8591 300.0407969 +22.8219268     241.5315     72.16313      1.605     5.51     4.678683      20.3387     25.33017         7     1.031     0.829 -55.58   0
        27    552.1425    943.9989 300.0509190 +22.8293432      1432.28     72.03461      1.958     5.29      4.69576      20.3387     97.05872        25     1.349     1.276   7.64   0
        28    157.2899    942.3167 299.9285203 +22.7105041     814.1478     72.19981      6.437     8.48     32.65781      20.3387     44.49248        11     2.159     0.931 -66.75   0
        29    128.2189    959.0555 299.9140309 +22.7065898     829.5417     72.07136      5.229     5.04     48.14276      20.3387      36.0825         5     1.150     0.624  -4.17   1
        30    445.8044    940.7480 300.0188450 +22.7965442     1064.567     72.08972      2.104     5.60     4.666946      20.3387     58.66818        20     1.291     1.187 -30.69   0
        31    376.5047    938.2645 299.9980696 +22.7750612     6634.717     72.18147      2.072     4.61     4.741536      20.3387      366.028        52     1.612     1.582  57.74   0
        32    409.7881    925.7399 300.0125097 +22.7814405     494.9799     72.07136      2.388     5.84     4.723285      20.3387     29.15274         9     1.182     0.814 -66.07   0
        33      3.4660   1017.6908 299.8561567 +22.6859926     1960.403     66.73077      6.778    14.16    -14.22467      20.3387     56.61414        57     2.551     2.187  34.07  27
        34    922.7405    917.5429 300.1751153 +22.9327379     2275.853     72.16313      2.200     5.51     4.898581      20.3387      102.295        39     1.633     1.557  17.94   0
        35    538.7834    991.0155 300.0314566 +22.8388438     2335.867     72.05299      2.105     5.11     4.623276      20.3387      137.688        35     1.621     1.369  28.59   0
        36    421.3918    913.6484 300.0200575 +22.7814459     373.6663     72.10808      1.716     3.88     4.733005      20.3387     25.08663         5     1.040     0.415 -74.41   0
        37    222.2486    999.3937 299.9301600 +22.7463630      921.203     72.08972      2.194     7.58     79.30905      20.3387     57.47717        24     1.922     1.115  50.58   0
        38    712.0229    905.8739 300.1131662 +22.8662854     758.1524     72.12643      2.327     5.19      5.16212      20.3387     41.33799        13     1.221     0.940  70.74   2
        39    746.4485    900.3953 300.1256854 +22.8750214     1129.142     72.07136      2.093     6.87     5.223526      20.3387     61.37147        24     1.487     1.249  10.49   0
        40    768.7721    894.0408 300.1347160 +22.8798805     11431.11     72.10808      2.039     4.74      5.10254      20.3387     613.2122        58     1.596     1.566  38.87   0
        41    347.8636    998.2899 299.9696197 +22.7837086     571.2258     72.18147      2.412     4.58     4.495964      20.3387     37.40244         7     1.057     0.564  75.21   0
        42    138.0000   1004.5895 299.9022571 +22.7225888     67.98672     71.88745      1.104     3.81     90.45661      20.3387     34.68758         5     1.439     0.289 -90.00   2
        43    813.9160    893.6255 300.1489348 +22.8932795     535.3393     72.07136      1.950     5.46     4.918942      20.3387     38.43508         7     1.098     0.765 -63.91   0
        44    191.7011    985.0699 299.9253158 +22.7330922     3932.105     72.21814      7.468    20.55     68.92439      20.3387     83.70834       233     4.919     4.342 -80.37   3
        45     81.3844    885.4266 299.9234162 +22.6714162     978.2447     72.10808      4.478     6.27     12.36363      20.3387     52.90636        12     1.754     0.629  84.88   0
        46    474.6755    882.7354 300.0467116 +22.7885351     446.5668     72.16313      1.672     3.38     4.800173      20.3387     38.85941         5     0.764     0.434  73.68   0
        47    820.6827    882.5748 300.1546410 +22.8921294     390.0555     72.07136      1.477     3.41     4.969932      20.3387      39.0069         5     0.990     0.339 -22.75   0
        48    777.4166    876.4334 300.1431404 +22.8774087     1484.549     72.07136      2.056     5.62     5.127342      20.3387     73.67132        29     1.628     1.239  86.95   0
        49    959.6931    876.1591 300.2001144 +22.9319021     446.5194     72.10808      1.993     4.60      5.03315      20.3387     33.04604         7     1.064     0.564 -17.77   0
        50    629.1453    872.8837 300.0980561 +22.8319822      408.053     72.14478      1.885     6.52     5.210073      20.3387     31.89809         7     1.446     0.826  80.47   0
        51    814.8762    869.2214 300.1571731 +22.8865525     1036.274     72.08972      2.356     9.05     5.027007      20.3387     45.32883        26     1.768     1.451  74.56   0
        52    864.3246    861.4940 300.1751166 +22.8991362     518.7623     72.23647      1.763     4.50     5.037967      20.3387     39.11875         7     1.022     0.563  58.10   0
        53    715.1827    859.9620 300.1290866 +22.8540380     761.3299     72.08972      2.238     4.55      5.32212      20.3387     66.31341        15     1.345     1.136  22.41   0
        54    427.6644    855.9774 300.0407706 +22.7667632     4189.521     72.07136      1.930     4.34      4.83663      20.3387     275.1953        39     1.508     1.437  25.38   0
        55    725.9699    856.9978 300.1334151 +22.8564166     520.1824     72.05299      1.809     6.46     5.326824      20.3387     48.15805        11     1.129     1.038  22.19   0
        56    879.0435    853.7190 300.1822391 +22.9013075     137.2915     72.07136      1.126     5.54     5.036691      20.3387     37.68504         5     1.143     0.758  -1.23   0
        57    153.4073    842.0627 299.9599224 +22.6805656     762.4495     72.05299      1.755     4.35     8.816633      20.3387     63.92704        14     1.217     0.843 -26.40   0
        58    130.3383    838.8163 299.9538017 +22.6727174     1424.269     72.03461      2.021     4.40     8.597156      20.3387     122.3061        30     1.526     1.319  13.56   0
        59   1002.0739    828.2219 300.2289398 +22.9308023     1980.579     72.08972      2.087     5.33      5.18902      20.3387     102.2664        32     1.501     1.395  42.74   0
        60      6.8213    828.4941 299.9187461 +22.6327185     532.4713     72.01624      2.880     5.93     5.331316      20.3387     43.85829         8     1.624     0.609  23.63  16
        61    956.2062    826.5651 300.2151572 +22.9165979     2175.373     72.08972      2.111     5.27     5.116875      20.3387     114.3878        37     1.589     1.482  20.34   0
        62    661.3367    826.7979 300.1230820 +22.8283812     482.6573     72.08972      1.936     5.08     5.228341      20.3387     38.21918         8     1.174     0.622  -8.28   0
        63    739.7877    820.2079 300.1496903 +22.8499805     571.3951     71.97946      1.717     4.43     5.151465      20.3387     61.51932        12     1.196     0.896   0.50   0
        64    607.7944    814.2316 300.1104761 +22.8087341     4919.773     72.08972      1.844     4.00     5.256885      20.3387     333.3429        42     1.431     1.389  11.49   0
        65    210.8985    983.9843 299.9316425 +22.7385373     4768.054     71.99785      8.938    25.06     66.02843      20.3387     92.55112       401     6.522     4.907 -44.65  19
        66    410.3865    811.3103 300.0499153 +22.7487567     557.1602     72.03461      1.802     6.59     4.842745      20.3387     42.33149        14     1.314     0.928  10.70   0
        67    158.3489    808.0363 299.9725246 +22.6722794     1262.442     72.10808      1.854     4.19     6.329218      20.3387     103.7613        25     1.397     1.191  31.11   0
        68    628.1191    806.8992 300.1191966 +22.8127145     722.2323     72.21814      1.837     5.50     5.242162      20.3387     52.81503        16     1.189     1.101  51.45   0
        69    177.2462    805.1947 299.9793279 +22.6771285     494.5109     72.08972      2.001     4.97      6.07157      20.3387     33.01123         7     1.206     0.579  13.05   0
        70   1000.8147    794.4744 300.2395218 +22.9207197      1147.53     72.08972      1.989     6.14     5.225265      20.3387     65.41937        27     1.495     1.390  36.86   0
        71    544.4663    797.2123 300.0962721 +22.7848753     393.6032     72.05299      1.865     4.91     5.125084      20.3387     37.83508         7     1.445     0.473  24.59   0
        72    783.7863    794.0567 300.1719194 +22.8556371     4177.901     72.07136      1.873     4.22     5.048564      20.3387     251.1024        43     1.543     1.393  40.94   0
        73    192.3861    788.1099 299.9895938 +22.6767618     527.4614     72.03461      1.513     4.19     5.727057      20.3387     55.70509         8     1.133     0.724  15.19   0
        74    500.8457    786.2953 300.0862292 +22.7686721     566.6416     72.10808      1.629     5.21     4.903125      20.3387     60.77849        12     1.100     0.969  39.78   0
        75    147.5161    784.4302 299.9768298 +22.6622552     1078.578     72.10808      2.113     5.08     5.737609      20.3387     85.50413        25     1.514     1.262  51.32   0
        76    296.8178    776.3849 300.0259084 +22.7046946     54180.12     72.07136      1.902     3.99     5.212488      20.3387     4055.601       103     1.622     1.568  37.07   0
        77    562.8467    779.9526 300.1076126 +22.7854215      502.905     72.10808      1.890     4.51     5.063445      20.3387     45.35349        10     0.978     0.886 -62.69   0
        78    967.6901    775.3195 300.2354076 +22.9052976     686.6559     72.19981      1.676     6.97     5.228182      20.3387      57.1421        16     1.237     1.115 -33.65   0
        79    554.7592    775.4929 300.1065421 +22.7817177     1634.442     72.08972      1.804     4.03     5.027348      20.3387      128.892        26     1.361     1.196  -4.47   0
        80    225.4781    774.7999 300.0042189 +22.6828590     574.4483     71.96107      1.821     5.33     5.468665      20.3387     49.05937        11     1.339     0.832  42.04   0
        81    583.7239    771.5634 300.1168474 +22.7892638     900.4516     72.05299      1.890     5.75      5.03832      20.3387     62.18779        17     1.268     1.055 -63.61   0
        82    594.7865    770.1141 300.1207668 +22.7921606     498.7567     72.03461      1.731     4.98     5.035705      20.3387     50.78757        12     1.261     0.808  24.82   0
        83    699.9358    766.5072 300.1547234 +22.8226121     520.9399     72.19981      2.003     6.43     5.026151      20.3387       38.908        11     1.095     1.061  75.04   0
        84    737.9481    756.6712 300.1697767 +22.8311661     659.8217     72.08972      1.667     5.51      5.00196      20.3387     59.38753        12     0.988     0.913  58.46   0
        85    346.5580    753.6514 300.0487854 +22.7130703     31717.19     72.08972      1.832     3.87     4.907483      20.3387     2458.424        81     1.548     1.503  17.97   0
        86    360.7644    754.1530 300.0530460 +22.7174711     2119.792     72.10808      1.872     3.80     4.876322      20.3387     152.1698        32     1.436     1.330  43.60   2
        87    358.0048    748.3146 300.0540847 +22.7149673     727.9808     72.01624      2.205     4.78     4.881667      20.3387      50.0215        15     1.322     0.935  -7.51   2
        88    869.7471    749.8342 300.2131207 +22.8686552      2799.03     72.10808      1.850     4.18     5.082498      20.3387     169.9618        33     1.461     1.297  69.43   0
        89    627.7244    745.7626 300.1389519 +22.7950263     817.7858     72.03461      1.543     3.68     4.899449      20.3387     75.74557        15     1.047     0.952 -49.60   0
        90    464.1851    745.4863 300.0880753 +22.7459654     590.9456     72.03461      2.023     4.94     4.783304      20.3387     50.77494         9     1.176     0.954 -33.09   0
        91    229.5858    745.3076 300.0150852 +22.6756215     863.8489     72.01624      2.057     5.60     4.934455      20.3387     51.19929        15     1.410     0.936 -50.19   0
        92    474.8468    740.6892 300.0929564 +22.7477809     882.5452     72.05299      1.747     4.50     4.788185      20.3387      65.6392        17     1.180     1.047  -9.41   0
        93    875.7195    737.6555 300.2189442 +22.8669406     577.8942     72.12643      1.707     5.15     5.124308      20.3387      41.3269        12     1.015     0.958  -5.44   0
        94    377.1551    736.8222 300.0637841 +22.7174038     416.1004     72.14478      2.037     3.92     4.833869      20.3387      25.6724         5     0.990     0.444 -45.55   0
        95    421.1826    735.3288 300.0779818 +22.7301650     543.7458     72.10808      2.408     4.96     4.740739      20.3387     35.72649         8     1.273     0.547 -23.73   0
        96    853.7146    733.0241 300.2135825 +22.8590226     390.4029     72.05299      1.560     4.49     5.087991      20.3387     45.32789         7     1.067     0.538  22.14   0
        97    227.0694    730.2548 300.0191952 +22.6705447     649.4761     72.12643      2.073     4.93     4.786837      20.3387     49.40558        11     1.177     0.840  19.57   0
        98    549.9164    720.2975 300.1229770 +22.7644063     589.8552     72.25479      1.911     5.22       4.8707      20.3387     49.39563         9     1.001     0.769  -6.40   0
        99    519.9407    718.7660 300.1141335 +22.7549885     760.4169     72.12643      1.625     3.44     4.879252      20.3387     62.95409        13     1.048     0.840  22.53   0
       100    429.3984    717.6985 300.0862719 +22.7275612     287.6237     71.99785      1.539     4.21     4.769757      20.3387     39.51306         7     0.991     0.695  39.24   0
       101    936.1961    715.2264 300.2451128 +22.8785893     4729.777     72.05299      1.895     4.04      5.40005      20.3387     293.6593        43     1.550     1.369  45.85   0
       102    541.6365    715.9692 300.1218036 +22.7606827     1411.852     72.10808      1.718     3.52     4.886961      20.3387     122.4907        25     1.236     1.190  27.51   0
       103    461.7885    715.5205 300.0970698 +22.7366379     278.0934     72.07136      1.494     5.09      4.85178      20.3387     27.94782         9     0.906     0.808 -40.05   0
       104    622.8536    711.2393 300.1486563 +22.7836451     284.7412     72.08972      1.462     3.85     4.837984      20.3387     38.40466         6     1.039     0.500 -28.29   0
       105    924.6237    706.5432 300.2443229 +22.8726287     1685.264     72.08972      1.811     4.63     5.431004      20.3387     115.9874        24     1.370     1.168  56.36   0
       106    287.3884    699.9937 300.0478059 +22.6799292      965.313     71.96107      1.872     4.71     4.807168      20.3387     72.87659        19     1.265     1.078  50.58   0
       107    751.0576    697.7695 300.1930140 +22.8181568      2603.09     72.10808      1.752     3.73     5.022668      20.3387     188.6905        32     1.526     1.196  32.41   0
       108    955.6171    696.6720 300.2572074 +22.8790639     1629.267     72.08972      1.830     4.30     5.243714      20.3387     100.5305        28     1.406     1.240  50.08   0
       109    833.6488    684.1685 300.2232022 +22.8389674     590.8636     72.12643      1.745     5.65     5.367822      20.3387      65.0751        14     1.434     0.835  50.21   0
       110    136.1305    683.9019 300.0059654 +22.6299796     665.2595     72.21814      2.019     6.24     5.185798      20.3387     49.64096        11     1.417     0.772  15.59   0
       111    869.4575    674.7793 300.2374287 +22.8469840       148453     72.08972      1.804     3.71     5.512873      20.3387     9934.366       161     1.611     1.594  -0.38   0
       112    632.4752    678.7333 300.1622215 +22.7771825     373.8447     72.16313      1.931     4.61     4.836237      20.3387     33.31129         8     1.145     0.526 -22.85   0
       113   1016.5928    676.7085 300.2827361 +22.8915649     1222.535     71.99785      1.889     5.33     4.621926      20.3387     84.88877        26     1.582     1.210  39.64  16
       114    722.0349    675.2574 300.1912787 +22.8029961      737.843     72.10808      1.628     4.04     4.930837      20.3387      61.8299        12     1.162     0.822  27.97   0
       115    902.2671    667.4752 300.2500430 +22.8547016     455.6232     72.16313      1.772     5.45     5.488893      20.3387       39.321         9     1.101     0.926  -1.06   0
       116    555.7794    663.6142 300.1432280 +22.7498714     1509.434     72.05299      1.569     3.33     5.035099      20.3387     147.4593        20     1.134     1.032  31.59   0
       117    736.9346    660.8734 300.2006008 +22.8033206     9521.814     72.12643      1.637     3.34     4.980814      20.3387     778.4131        44     1.332     1.320 -29.68   0
       118    238.3512    655.7498 300.0469212 +22.6525279     4967.647     72.12643      1.803     3.53     4.761958      20.3387     453.7432        42     1.430     1.364   9.26   0
       119    320.4635    653.7148 300.0731431 +22.6765452      1250.92     72.19981      1.734     3.81     4.928263      20.3387     107.5105        22     1.306     1.060  11.02   0
       120    528.8594    649.6917 300.1393630 +22.7378086     761.1457     72.16313      1.620     3.94     5.152744      20.3387     65.36292        16     1.124     0.998   0.06   0
       121    195.9721    651.3067 300.0351765 +22.6385530     395.8655     71.99785      1.635     4.72     4.843771      20.3387     37.57342         7     0.983     0.642   4.55   0
       122    520.4497    641.5251 300.1393961 +22.7329430     3332.705     72.08972      1.676     3.27     5.186156      20.3387     311.6296        35     1.306     1.243  66.20   0
       123    510.6128    635.3069 300.1383515 +22.7282101     1464.461     72.01624      1.607     3.70     5.206006      20.3387     124.1764        20     1.234     1.017  21.83   0
       124    904.8345    633.7537 300.2618035 +22.8457700     274.2977     72.10808      1.700     4.46     5.516174      20.3387     31.62936         6     1.019     0.556  65.62   0
       125    173.8505    631.4830 300.0347346 +22.6262307     680.2739     72.10808      1.780     3.07     5.008241      20.3387     74.58675        11     1.007     0.893   7.50   0
       126    188.2552    629.4567 300.0398751 +22.6299651     686.0948     72.14478      1.906     6.05     4.957075      20.3387      57.6805        11     1.596     0.909  70.86   0
       127    957.8384    626.9598 300.2805580 +22.8596744      491.084     72.16313      1.745     5.00     5.200587      20.3387     50.06242        12     1.234     1.010  24.08   0
       128    719.0348    626.8116 300.2060870 +22.7881684     198.1392     72.08972      1.826     5.11     5.004666      20.3387     23.60262         6     1.368     0.539 -20.04   0
       129    245.1059    626.8270 300.0584217 +22.6462442     516.6765     72.01624      2.543     3.06      4.78267      20.3387     37.57787         5     0.887     0.742  -6.81   0
       130    213.8913    626.7130 300.0487440 +22.6368588     644.4453     72.25479      1.913     5.51     4.845853      20.3387     47.26497        11     1.162     0.753  72.41   0
       131    534.7541    625.5287 300.1490517 +22.7326288     438.6488     72.07136      1.771     5.20     5.278458      20.3387     40.57115         8     1.266     0.603  86.74   0
       132    434.9634    624.1283 300.1184150 +22.7023420     2252.736     72.07136      2.332     8.91     5.022032      20.3387     255.4694        28     2.131     1.041  56.82   0
       133   1011.3392    623.1039 300.2985167 +22.8745705       715.79     72.18147      1.605     4.89     4.626359      20.3387     68.91277        14     1.178     1.005 -36.94   0
       134    520.2640    620.5361 300.1461585 +22.7268548     1088.313     72.12643      1.758     3.99     5.274216      20.3387     107.8966        22     1.383     1.045  74.89   0
       135     89.2854    619.6872 300.0122600 +22.5975007     19876.55     72.21814      1.961     4.04     5.514873      20.3387     1605.128        72     1.649     1.536  35.44   0
       136     10.7642    621.8580 299.9871365 +22.5745892     702.0449     72.08972      1.765     4.94     5.518722      20.3387     75.14581        12     1.288     0.771 -20.96   0
       137    555.9521    619.3784 300.1576566 +22.7372083     247.2685     72.10808      1.387     4.52      5.27766      20.3387     32.32565         6     0.873     0.665  34.96   0
       138    938.5232    606.9210 300.2810393 +22.8481305     1085.036     72.19981      1.586     3.99     5.428411      20.3387     96.73068        19     1.282     1.008  33.97   0
       139     35.2575    603.8536 300.0006018 +22.5767613     1627.056     72.14478      2.310     6.43     5.493704      20.3387     75.70866        36     1.759     1.515  68.78   0
       140    805.4875    604.8668 300.2401864 +22.8077325     606.0642     72.18147      1.816     4.29     5.528793      20.3387     54.70085        11     1.091     0.918 -31.29   0
       141    101.9415    604.3002 300.0211956 +22.5968750     472.6346     72.18147      1.623     5.07     5.473711      20.3387     41.20992         9     1.000     0.728  77.08   0
       142    483.9466    601.0060 300.1411878 +22.7103662     484.6974     72.05299      1.449     5.02     5.288928      20.3387     52.54787         9     0.986     0.724  74.40   0
       143    878.5164    599.4899 300.2647228 +22.8280389     869.7263     72.21814      2.064     4.47     5.525296      20.3387     62.70582        14     1.171     0.937  37.62   0
       144    622.7696    598.0537 300.1854133 +22.7510829     306.7806     72.10808      1.566     4.20     5.132214      20.3387     37.47835         6     0.926     0.543   1.26   0
       145    440.5728    593.1105 300.1302402 +22.6951080     836.7742     72.07136      1.872     4.11     5.166597      20.3387      62.5374        15     1.196     0.930  40.67   0
       146    588.4313    591.8571 300.1767220 +22.7390213     407.3436     72.10808      1.381     4.91     5.345601      20.3387       47.881         8     0.984     0.693 -60.75   0
       147    635.9416    590.4413 300.1919932 +22.7528375     370.7744     72.08972      1.517     4.76     5.160527      20.3387     47.11977         8     0.973     0.832 -40.11   0
       148    606.3514    590.2549 300.1828287 +22.7439256     490.5063     72.12643      1.365     3.56     5.295705      20.3387     49.40551        10     0.970     0.687  -5.07   0
       149    484.6101    588.8107 300.1453566 +22.7070597     968.3234     71.97946      1.688     4.48     5.392654      20.3387     80.73748        16     1.203     0.919 -52.57   0
       150    918.5186    584.7605 300.2819946 +22.8357701     3310.862     72.05299      1.762     3.83     5.505372      20.3387     248.5587        35     1.377     1.304  86.29   0
       151    450.2321    584.5219 300.1360396 +22.6955323     1699.729     72.07136      1.625     3.34     5.252239      20.3387     162.9431        22     1.222     1.057  41.95   0
       152   1016.6978    583.4557 300.3130730 +22.8647648     753.5095     72.18147      1.765     5.26     4.948328      20.3387     58.79216        14     1.252     0.851  38.00  16
       153    815.6431    582.1636 300.2507316 +22.8042416     328.0521     72.14478      1.594     5.17     5.498563      20.3387     37.67965         6     1.019     0.740  28.38   0
       154     12.2010    577.8802 300.0018702 +22.5623930     5064.502     71.97946      2.061     3.85     5.493704      20.3387     383.9141        49     1.603     1.510  11.77   0
       155    479.9315    575.9005 300.1480932 +22.7019480     288.0831     72.18147      1.219     3.67       5.4857      20.3387     37.21811         5     0.632     0.614 -19.16   0
       156    958.1281    575.2471 300.2974512 +22.8448827     302.6367     72.07136      1.649     4.34     5.352291      20.3387     42.74935         5     0.897     0.597  33.75   0
       157    313.6028    571.1785 300.0978235 +22.6507771     9239.874     72.03461      1.673     3.32     5.153328      20.3387     831.5513        49     1.375     1.349  -7.46   0
       158    436.1093    568.2943 300.1369119 +22.6866392     9251.684     72.25479      1.635     3.11     5.251683      20.3387     874.8161        47     1.363     1.287  40.45   0
       159    847.7288    562.3577 300.2671784 +22.8081452     1975.711     72.05299      1.754     3.72     5.472233      20.3387     165.0311        27     1.287     1.195  58.57   0
       160    932.4424    559.9128 300.2944139 +22.8327867     12503.04     72.08972      1.717     3.52     5.463921      20.3387     942.5864        53     1.412     1.395  76.07   0
       161    496.6783    557.9009 300.1591583 +22.7017888     11637.21     72.21814      1.594     3.21     5.682006      20.3387     1105.681        47     1.336     1.263  59.60   0
       162    666.2166    553.9333 300.2132933 +22.7514025     519.4172     72.07136      1.682     5.53     5.098873      20.3387     42.30309         9     1.097     0.785 -27.89   0
       163    224.2559    553.1010 300.0758838 +22.6188187     1475.331     72.18147      1.927     4.21     5.556992      20.3387     102.2166        26     1.347     1.262  46.02   0
       164    382.1031    552.6238 300.1251809 +22.6659621      321.621     71.99785      1.373     4.11     5.182569      20.3387     41.09439         7     1.013     0.476   5.62   0
       165    470.7176    551.3090 300.1532109 +22.6921206      381.657     72.21814      1.407     5.02      5.61902      20.3387     44.32737         9     1.065     0.668  -4.20   0
       166    428.3855    546.0313 300.1417377 +22.6779276     4626.997     72.08972      1.616     3.20     5.275642      20.3387     399.5196        34     1.289     1.219 -89.76   0
       167    771.3393    546.4437 300.2485133 +22.7807097     728.7305     72.08972      1.520     3.75     5.355817      20.3387     93.52705        17     1.167     1.006  36.08   0
       168    406.6929    544.5007 300.1354780 +22.6709916     1341.191     72.27311      1.541     3.27     5.185773      20.3387     150.3693        19     1.129     1.010  -8.21   0
       169    160.8941    544.0560 300.0591051 +22.5972374     692.9329     72.14478      1.703     5.02     5.593683      20.3387     57.82921        13     1.098     0.982   7.21   0
       170    848.2380    541.7121 300.2740440 +22.8023584     1569.346     72.07136      1.708     3.85     5.442776      20.3387     123.0888        25     1.299     1.190  51.93   0
       171    949.7062    542.1033 300.3055891 +22.8328267     4415.229     72.27311      0.831     1.88      5.46671      20.3387      1456.75        15     0.896     0.469  14.22   0
       172    545.0002    533.6509 300.1820936 +22.7092850     206719.1     72.03461      1.578     3.00     5.898403      20.3387     20594.06       199     1.591     1.488  -6.04   0
       173    369.3188    539.8613 300.1253451 +22.6584656     326.7647     72.18147      1.443     3.22     5.224524      20.3387     44.23379         7     0.869     0.586  -9.68   0
       174    728.7445    538.5510 300.2377902 +22.7656928     891.7407     72.12643      1.694     3.73      5.23848      20.3387     83.23264        16     1.096     1.003 -61.87   0
       175     95.3635    541.2478 300.0396314 +22.5767958     404.0353     72.12643      1.460     2.60     5.493704      20.3387     36.01385         5     0.698     0.468  77.39   0
       176    231.0450    533.4283 300.0843866 +22.6152007     3510.799     72.12643      1.753     3.39     5.646904      20.3387     359.1672        38     1.443     1.293  46.48   0
       177    797.0881    530.1838 300.2618282 +22.7837375     625.2542     72.01624      2.122     5.89     5.400812      20.3387      37.6937        11     1.264     0.772 -79.93   2
       178    435.6106    513.9296 300.1544150 +22.6708641     2892.669     72.07136      1.665     3.15     5.499029      20.3387     271.9745        33     1.370     1.216  74.01   2
       179    279.7286    516.3162 300.1050977 +22.6248669     291.4347     72.21814      1.280     3.43     5.548604      20.3387     49.68853         9     0.964     0.693 -14.71   0
       180    846.9804    510.7028 300.2837239 +22.7930610     410.6546     72.01624      1.890     4.54     5.383684      20.3387     28.55283         6     1.081     0.543  49.02   0
       181    592.4929    511.3008 300.2041559 +22.7170761     398.4373     72.27311      2.743     5.03     5.904376      20.3387     29.32997         6     1.021     0.702 -24.76   0
       182    752.9274    502.5526 300.2570259 +22.7625753      464.834     72.08972      1.685     4.25     5.319183      20.3387     37.82264         8     0.869     0.702  43.08   0
       183    832.6644    500.4200 300.2825962 +22.7858196     1701.582     72.07136      1.598     3.26     5.353053      20.3387      162.472        23     1.180     1.071  14.63   0
       184    718.8331    500.9737 300.2469040 +22.7519188     327.8347     72.10808      1.478     3.98     5.356756      20.3387     30.47032         5     0.867     0.524  34.50   0
       185    703.9014    497.7563 300.2432920 +22.7465250     2562.346     72.08972      1.563     3.28     5.408713      20.3387     255.3108        30     1.287     1.151 -78.61   0
       186    947.7841    495.7288 300.3200520 +22.8189070     452.0897     72.08972      1.598     4.07     5.461781      20.3387     53.13836        10     1.156     0.791  38.21   3
       187    946.8588    491.4892 300.3211400 +22.8174102     736.7949     72.16313      1.625     3.98     5.459536      20.3387     63.91337        15     1.168     0.844  13.24   2
       188    913.7719    495.2050 300.3096040 +22.8085826     253.4253     72.05299      1.302     5.47      5.41283      20.3387     39.02367         7     1.111     0.761  25.55   0
       189    491.1269    493.8350 300.1782371 +22.6817096     666.6989     72.07136      1.396     3.36     5.769155      20.3387     78.17064        13     1.078     0.833  48.26   0
       190    608.9901    494.4392 300.2147748 +22.7171655     280.8639     72.08972      1.277     3.29     5.907145      20.3387     49.06209         6     0.811     0.634  37.73   0
       191    961.1274    491.9795 300.3254357 +22.8218190     1109.283     72.12643      1.608     4.05      5.48612      20.3387     100.2813        18     1.242     1.011  88.47   0
       192    832.9874    490.6819 300.2858596 +22.7831145     2221.874     72.07136      1.788     3.41     5.333975      20.3387     192.6263        29     1.420     1.143 -89.88   0
       193    585.9854    488.4538 300.2095474 +22.7085586     818.6948     72.10808      2.036     3.40      5.90414      20.3387     69.14734        11     0.988     0.820  81.36   2
       194    871.0837    485.3963 300.2994653 +22.7929907     4329.942     72.01624      1.653     3.38     5.357481      20.3387     391.7337        39     1.405     1.254  70.27   0
       195    424.6002    487.4790 300.1595754 +22.6599642     442.1024     71.96107      1.642     3.56      5.59975      20.3387     50.52581         6     0.939     0.408 -19.98   0
       196    609.2031    482.1896 300.2188194 +22.7137067      180.568     71.90586      1.184     3.88     5.907574      20.3387     31.41354         5     0.828     0.639  53.35   0
       197    532.1553    481.4134 300.1950560 +22.6904209     353.0604     72.10808      1.497     4.50     5.866847      20.3387     42.67287         7     1.178     0.490  -2.84   0
       198    962.9572    476.3177 300.3310934 +22.8178589     759.9733     72.05299      1.489     3.89     5.490754      20.3387     66.66932        13     1.165     0.808  35.38   0
       199    103.1213    475.3312 300.0634509 +22.5601868     939.0806     72.19981      1.689     4.00     5.539254      20.3387     96.33686        19     1.277     1.072  55.52   0
       200     95.7852    465.6620 300.0643085 +22.5552114     382.8879     72.05299      1.619     4.68     5.571598      20.3387     44.43584         7     1.003     0.684  -4.66   0
       201    959.1533    465.4796 300.3334253 +22.8136021     276.5279     72.10808      1.430     4.29     5.479864      20.3387      43.8843         6     1.137     0.462  10.54   0
       202    703.4034    459.9767 300.2554054 +22.7355094     417.4741     72.05299      1.559     5.20     5.553965      20.3387     43.72666         9     0.918     0.832  77.99   0
       203    591.9877    457.8587 300.2213536 +22.7015571     413.8083     72.05299      1.352     3.87     5.952941      20.3387     43.71472         6     0.897     0.479  28.33   0
       204    644.6862    455.9737 300.2383950 +22.7167868     789.0441     72.07136      1.560     3.43     5.843256      20.3387     86.44109        14     1.068     0.929  -9.65   0
       205    959.0381    448.6035 300.3388695 +22.8087105     569.2055     72.12643      1.507     3.66     5.475801      20.3387     56.02522        10     1.325     0.725  23.03   0
       206    705.4808    447.9477 300.2599593 +22.7326709     923.6959     72.10808      1.736     4.09     5.563436      20.3387     77.51626        13     1.054     0.955 -32.58   0
       207    862.6207    444.4679 300.3101148 +22.7786822     1028.411     72.08972      1.707     3.18      5.34175      20.3387       96.882        13     1.014     0.812 -10.52   0
       208    820.7993    442.4233 300.2977277 +22.7655834     295.1619     72.01624      1.710     3.88     5.288847      20.3387     32.79522         5     0.987     0.745 -64.19   0
       209    846.7715    440.6758 300.3063999 +22.7728500     747.8019     72.08972      1.661     4.13     5.321452      20.3387     54.12834        14     1.114     0.895  -6.99   0
       210    827.1472    440.7474 300.3002527 +22.7670002     312.1803     72.12643      1.464     4.42     5.296132      20.3387     32.99504         5     0.827     0.671  33.19   0
       211    591.0922    438.6082 300.2273250 +22.6957530      3137.09     71.99785      1.510     2.87      5.99236      20.3387     349.0016        30     1.247     1.121  58.85   0
       212    951.1307    437.7228 300.3399337 +22.8032141     627.2369     72.19981      1.955     4.37     5.461683      20.3387     45.78142        12     1.125     0.869  -6.35   0
       213     67.4051    428.9154 300.0674118 +22.5361528     379.6824     72.01624      1.634     4.26     5.769205      20.3387     37.08136         5     1.235     0.419  77.27   0
       214    431.3421    425.2650 300.1818763 +22.6440978     391.6133     72.12643      1.340     3.84     5.740411      20.3387      49.7018         5     0.986     0.429  -6.65   0
       215    979.2125    424.4525 300.3530105 +22.8077925     280.9907     72.10808      1.259     3.45      5.49328      20.3387     29.14558         5     0.756     0.455  19.52   0
       216   1002.4580    417.8968 300.3623979 +22.8128566     1433.255     72.16313      1.725     3.91     5.515026      20.3387     115.9113        23     1.360     1.035  66.73   0
       217    873.8052    417.5324 300.3223511 +22.7742764     548.9541     72.07136      1.643     4.94     5.357012      20.3387     50.79443        12     1.205     0.817  61.72   0
       218    960.7773    416.8178 300.3497332 +22.8000820     905.0609     72.07136      1.436     3.26     5.469833      20.3387     110.0549        16     1.096     0.941  32.69   0
       219    701.7084    412.6438 300.2702452 +22.7213864     1093.604     72.08972      1.539     3.11     5.649225      20.3387     124.0357        14     0.992     0.926 -21.11   0
       220    497.4901    413.2163 300.2063966 +22.6604352     426.2378     72.01624      1.397     4.59     5.826799      20.3387     42.61877         8     1.018     0.587  18.95   0
       221    205.6035    410.8033 300.1162862 +22.5723461     671.4615     71.86903      1.509     4.76     5.846197      20.3387     65.00784        11     1.127     0.818 -11.10   0
       222    268.0451    406.2828 300.1371883 +22.5897471     3825.446     72.05299      1.676     3.14     5.895251      20.3387     338.6598        34     1.322     1.244 -24.82   0
       223   1001.1692    405.1224 300.3661429 +22.8087939     4403.271     72.07136      1.731     3.29     5.666122      20.3387       415.55        37     1.381     1.280  69.44   0
       224    215.2138    400.9697 300.1224692 +22.5723984     7525.991     72.08972      1.691     3.34     5.872681      20.3387     643.1209        45     1.433     1.300  50.44   0
       225    355.9827    395.3437 300.1681185 +22.6129341     4915.068     72.05299      1.555     3.04     5.866453      20.3387     476.8104        40     1.350     1.219  65.14   0
       226    981.3638    396.2156 300.3628498 +22.8003078     1912.982     72.08972      1.732     3.41     5.684942      20.3387     174.5444        26     1.312     1.233 -20.50   0
       227    600.2915    392.1437 300.2452776 +22.6851426     18837.83     72.14478      1.534     2.89     5.951825      20.3387     1795.138        57     1.350     1.257  57.99   0
       228    617.4843    393.4470 300.2502144 +22.6906624     583.1295     72.07136      1.650     5.23     5.936186      20.3387     49.92187         9     1.015     0.760  45.66   2
       229    618.9728    391.0000 300.2514728 +22.6904040     630.7698     72.03461      2.352     4.89      5.92568      20.3387     44.30351         6     1.286     0.527   5.85   2
       230    719.9693    401.5780 300.2795330 +22.7236666     331.1744     72.08972      1.443     4.58     5.535598      20.3387     36.17698         6     1.169     0.557  25.38   0
       231    459.4598    389.3801 300.2022853 +22.6421975     329.0887     72.03461      1.586     4.23     5.800708      20.3387     33.78845         5     1.059     0.483   3.19   0
       232    797.5705    382.4332 300.3099561 +22.7413731     429.9055     72.10808      1.660     4.67     5.312721      20.3387      40.8692        10     1.102     0.758  -3.32   0
       233    934.1371    375.1056 300.3549574 +22.7801090     717.1115     72.18147      1.603     4.76     5.477909      20.3387     59.67268        14     1.060     1.002  -5.12   0
       234    470.6212    374.1613 300.2107027 +22.6411624     423.5875     72.10808      1.904     5.23     5.819417      20.3387     34.99339         8     1.021     0.756  61.55   0
       235    154.9991    372.0969 300.1131037 +22.5460671     1953.109     71.96107      1.602     3.27     5.947627      20.3387     170.1508        25     1.206     1.161 -17.10   0
       236    540.9387    361.5818 300.2366976 +22.6585905     6643.649     72.03461      1.518     2.86     5.910103      20.3387     746.0277        40     1.295     1.178  65.03   0
       237    954.6542    362.1656 300.3655634 +22.7825193     1105.986     72.10808      1.575     3.67     5.716781      20.3387     112.3872        19     1.185     1.042 -79.78   0
       238    255.6505    361.2952 300.1479327 +22.5731053      598.963     72.16313      1.535     4.18     5.978928      20.3387     61.53104        11     1.120     0.749  21.92   0
       239    113.5431    354.4027 300.1059491 +22.5285661     467.6883     72.05299      1.496     4.01     6.020184      20.3387     60.95441        10     1.207     0.627 -24.41   0
       240    800.4919    353.5065 300.3202572 +22.7339229     273.7312     72.25479      1.508     4.55     5.347724      20.3387     35.76509         7     0.911     0.646  18.95   0
       241    654.9016    352.2116 300.2752656 +22.6899967     556.4541     71.97946      1.395     2.99     5.758908      20.3387     72.64751        10     1.053     0.668  27.22   0
       242    745.0555    350.7087 300.3038704 +22.7165354     1171.707     72.14478      1.556     3.24     5.624773      20.3387     113.4217        20     1.203     1.019  45.75   0
       243    447.5909    347.7527 300.2120991 +22.6266750     6275.295     72.10808      1.558     2.82     5.877972      20.3387     719.6805        37     1.313     1.153  71.13   0
       244    936.8922    342.7428 300.3663222 +22.7716170     684.6855     72.14478      1.848     3.80     5.570549      20.3387     62.49668        14     1.167     0.876 -42.50   0
       245    839.6513    342.4889 300.3360525 +22.7424643     1506.682     72.10808      1.584     3.21     5.399928      20.3387     164.8753        21     1.200     1.077  43.94   0
       246    432.0843    336.4550 300.2109350 +22.6187849     421.3988     72.16313      1.361     3.06     5.902063      20.3387     63.37962         7     0.755     0.663  32.90   0
       247    514.8990    334.7450 300.2372926 +22.6430791     448.6709     72.18147      1.276     3.89      5.90862      20.3387     43.24366         8     1.011     0.546  49.40   0
       248    793.1253    333.8635 300.3243342 +22.7260666     424.0273     72.12643      1.500     2.58     5.460276      20.3387       41.974         6     0.740     0.553 -43.61   0
       249    495.3807    332.4608 300.2319517 +22.6365809     265.5077     72.03461      1.240     3.40     5.904819      20.3387     47.35213         5     0.765     0.438  22.31   0
       250    812.4454    329.9904 300.3316194 +22.7307305     650.7443     72.10808      1.571     3.92     5.451777      20.3387     66.69717        13     1.039     0.883  29.16   0
       251    335.1288    326.9943 300.1838086 +22.5870414     2623.279     72.05299      1.579     2.89     5.954103      20.3387     243.2809        31     1.328     1.194  69.04   0
       252     53.5499    324.2238 300.0970825 +22.5019250     1059.414     72.08972      1.713     4.41     6.044429      20.3387      99.7838        20     1.454     1.025  28.75   0
       253    304.4326    316.3386 300.1777088 +22.5747882     30132.05     72.12643      1.650     3.06     6.095039      20.3387       3130.9        76     1.462     1.361  57.20   0
       254    839.2685    314.1189 300.3451404 +22.7341845     1518.015     72.19981      1.663     3.03     5.541142      20.3387     149.5588        21     1.265     1.019 -89.35   0
       255      1.7654    304.0695 300.0875190 +22.4806226      3079.42     58.50762      1.322     3.36     5.913262      20.3387     372.8004        19     1.271     0.781  89.90  24
       256    754.3029    303.2414 300.3221601 +22.7056423     489.9366     72.08972      1.480     3.20     5.654058      20.3387     61.15075         9     0.962     0.686 -86.35   0
       257    178.7527    302.6782 300.1430227 +22.5332308     421.6612     72.08972      1.403     4.92     6.101055      20.3387     42.73884        12     0.971     0.922  66.04   0
       258    403.1109    301.8148 300.2131511 +22.6001515     401.0309     72.03461      1.233     3.91     5.921842      20.3387     62.96764         8     1.102     0.537 -18.86   0
       259    714.8830    296.2776 300.3121238 +22.6918473     2011.223     72.19981      1.555     2.89      5.75289      20.3387     202.6765        25     1.177     1.118  60.10   0
       260    523.1292    290.8617 300.2540979 +22.6329201     300.0187     72.12643      1.386     3.26     5.999794      20.3387     43.92551         8     0.834     0.652  40.50   0
       261    929.8378    289.4844 300.3814039 +22.7541755      613.729     72.07136      1.516     4.88     5.805439      20.3387     65.41747         9     1.187     0.626  35.88   0
       262    376.7267    280.7383 300.2117722 +22.5861936     2296.292     72.12643      1.762     3.65     5.909492      20.3387     185.7795        30     1.495     1.151  60.51   0
       263    588.7985    279.6977 300.2781885 +22.6493577      305.567     71.99785      1.682     5.00     5.991101      20.3387     34.80689         7     0.885     0.798 -62.16   0
       264    815.9081    273.9480 300.3508861 +22.7156361     659.5462     72.14478      1.496     4.09     5.673301      20.3387     86.60204        13     1.396     0.680  78.54   0
       265    808.0119    274.6411 300.3481973 +22.7134742     299.9232     72.07136      1.273     3.19     5.670499      20.3387     40.13682         6     0.870     0.540  89.47   0
       266    697.9719    271.9687 300.3147371 +22.6797937     414.6712     72.08972      1.413     4.43     5.826875      20.3387     47.15159         7     1.056     0.528 -29.31   0
       267    452.4644    259.9551 300.2421071 +22.6028842     1168.675     72.10808      1.649     3.54     5.959991      20.3387     107.6128        19     1.326     0.896  62.73   0
       268     24.7699    260.8242 300.1087027 +22.4750878     251.3679     72.08972      1.617     2.69     6.168984      20.3387     37.91343         5     0.826     0.629  28.50   0
       269    963.5695    256.7920 300.4025433 +22.7548474     419.2516     72.08972      1.614     3.68     5.664803      20.3387     40.39348         5     1.010     0.385   7.88   0
       270    859.0175    253.6755 300.3709167 +22.7226914     169.8092     72.08972      1.164     4.16     5.665394      20.3387     29.05932         5     0.810     0.610 -87.62   0
       271    697.5466    252.0495 300.3210672 +22.6739343      2332.91     72.12643      1.577     2.89     5.840553      20.3387     221.4494        27     1.260     1.141 -85.91   0
       272    958.7178    246.6625 300.4043149 +22.7504803     3208.372     72.18147      1.671     3.27     5.693377      20.3387     290.5421        31     1.332     1.194  89.57   0
       273   1020.1338    241.8701 300.4250484 +22.7674589     466.3033     71.16569      1.546     4.01     5.605122      20.3387     46.79846         8     0.866     0.631  39.73  16
       274    405.9454    235.7990 300.2354523 +22.5820150     675.7724     72.01624      1.507     3.54     5.930966      20.3387     83.12219        14     1.135     0.952  27.37   0
       275     80.6066    230.0550 300.1360494 +22.4829679     1444.898     72.08972      1.907     3.88     6.199361      20.3387     128.3584        24     1.345     1.097 -25.14   0
       276    111.4022    230.3753 300.1455249 +22.4922818     629.4592     72.03461      1.521     3.68     6.111767      20.3387     70.65034         8     0.944     0.658 -10.60   0
       277    974.4312    227.6175 300.4154000 +22.7496934     470.5128     72.07136      1.464     5.04     5.715629      20.3387     52.35191        10     1.211     0.724  17.62   0
       278    164.7035    221.6084 300.1649518 +22.5057215     536.5027     71.97946      1.701     4.02     6.112923      20.3387     60.77591        10     1.174     0.780 -67.76   0
       279    840.7010    215.8001 300.3774878 +22.7063111     355.2941     71.92427      1.338     4.44     5.727184      20.3387     40.82165         7     1.290     0.434  83.12   0
       280    768.9697    213.6301 300.3558097 +22.6842375     618.0177     72.07136      1.524     3.21     5.807319      20.3387     77.18565        13     1.005     0.880 -77.16   0
       281    359.4355    213.4785 300.2282070 +22.5616763     468.7618     72.03461      1.417     4.32     5.893579      20.3387     45.06522         8     0.932     0.683  35.75   0
       282    859.4791    207.1955 300.3861394 +22.7094482     308.1663     71.99785      1.276     2.92     5.740322      20.3387     38.27852         5     0.731     0.461  70.16   0
       283    867.4263    202.7580 300.3900592 +22.7105466     1927.954     72.12643      1.530     3.07     5.756245      20.3387     226.3228        28     1.326     1.151 -80.78   0
       284    285.7956    199.6521 300.2097622 +22.5356596     2087.495     72.08972      1.601     3.09     5.923155      20.3387     222.3248        29     1.318     1.168  84.75   0
       285    363.6993    194.8909 300.2355638 +22.5576067     1098.395     72.25479      1.667     3.46     5.893965      20.3387     106.9061        19     1.181     1.024  53.86   0
       286    115.0796    195.0663 300.1581214 +22.4832339     360.3194     72.19981      1.694     6.43     6.075461      20.3387     32.37821         9     1.463     0.793  82.92   0
       287    765.6031    194.3671 300.3610078 +22.6776858     627.4538     72.07136      1.466     3.59     5.827053      20.3387     69.95757        13     1.056     0.866  58.56   0
       288    181.0009    187.2959 300.1811521 +22.5007368     786.2233     71.96107      1.641     3.47      6.06596      20.3387     60.99139        10     0.962     0.720 -48.80   0
       289    298.1743    186.4361 300.2179025 +22.5355643      359.217     72.10808      1.590     4.52     5.910733      20.3387     33.44545         6     1.008     0.577  60.63   0
       290    718.3657    184.0712 300.3496119 +22.6605963     1697.997     72.08972      1.425     2.93     5.872929      20.3387     181.1416        23     1.180     1.131   7.67   0
       291    783.4169    183.9067 300.3699583 +22.6800013     548.0952     72.01624      1.440     3.43     5.821556      20.3387     62.10579         9     0.951     0.803  43.61   0
       292    202.0151    180.4674 300.1899062 +22.5050646     593.1071     72.07136      1.515     3.61      6.05511      20.3387     56.15076         9     0.941     0.701 -10.52   0
       293    989.9444    176.9606 300.4366763 +22.7397418     908.7664     72.08972      1.640     3.19     5.726998      20.3387     82.16922        13     1.022     0.873  50.76   0
       294    722.2184    175.8000 300.3534963 +22.6593678     790.9998     72.01624      1.640     3.74     5.880315      20.3387     74.38059        14     1.042     0.950  20.36   0
       295    642.8982    174.8604 300.3290641 +22.6353752     1112.819     72.16313      1.445     2.94     5.935988      20.3387      136.528        19     1.110     1.014  47.65   0
       296    464.5522    171.2636 300.2746423 +22.5809891     407.4587     72.10808      1.660     4.36     5.939111      20.3387     35.24458         5     1.081     0.501 -31.16   0
       297    850.5409    165.7620 300.3967888 +22.6948465      780.653     72.10808      1.550     3.24     5.928944      20.3387     100.8321        16     1.069     1.045  63.44   0
       298    838.4839    166.2554 300.3928661 +22.6913840      1354.51     72.18147      1.603     3.13     5.897815      20.3387     171.0718        22     1.246     1.074  59.17   0
       299    569.2739    166.6313 300.3087799 +22.6109853     845.4512     72.10808      1.464     2.72     5.997414      20.3387     104.3373        16     1.035     0.869  24.49   0
       300   1011.2586    156.4917 300.4499712 +22.7402164     1784.101     72.16313      1.774     3.34     5.697124      20.3387     174.5206        27     1.307     1.215  33.34   0
       301    967.1342    155.8108 300.4364130 +22.7268329     1178.589     72.03461      1.640     3.40      5.76264      20.3387     122.0909        20     1.389     0.982  72.17   0
       302    201.3024    148.6041 300.2000173 +22.4956899     741.0308     71.99785      1.716     2.56     6.028685      20.3387     89.03667        12     0.957     0.781  32.80   0
       303     63.1036    143.0779 300.1588132 +22.4527276     2276.764     72.21814      1.852     3.48      6.26335      20.3387     195.4731        30     1.396     1.238  70.00   0
       304    886.3646    140.7590 300.4160786 +22.6983561     610.2997     72.14478      1.419     3.61     5.963755      20.3387     69.77884        12     0.965     0.898  11.23   0
       305     13.0806    140.6318 300.1440496 +22.4370461     383.1582     72.08972      1.498     3.40     6.686461      20.3387     39.08918         5     0.790     0.422 -20.41   0
       306    220.4690    136.5710 300.2098843 +22.4979670     5733.951     72.07136      1.706     3.22      6.02705      20.3387     619.5272        43     1.434     1.283  55.96   0
       307    202.1722    137.8525 300.2037744 +22.4928588      485.017     72.10808      1.792     3.99     6.028209      20.3387     38.93293         6     0.773     0.590 -38.97   0
       308      4.6761    130.8881 300.1445955 +22.4317290      1234.79      70.7927      1.863     4.21     6.766709      20.3387     99.45639        25     1.316     1.240  -3.28  16
       309    204.1397    127.7462 300.2076636 +22.4905418     531.8009     72.14478      1.471     3.90     6.027754      20.3387     47.12214        10     1.049     0.765  17.17   0
       310   1019.4824    124.4337 300.4629358 +22.7334397     18366.91     72.05299      1.820     3.83     5.664656      20.3387     1699.532        68     1.602     1.447  89.43  24
       311    864.6261    118.4017 300.4165433 +22.6854198     3507.855     72.03461      1.598     3.12     6.060057      20.3387     398.1581        31     1.345     1.156  84.03   0
       312    968.3156    117.1412 300.4493219 +22.7160484     2882.414     72.19981      1.727     3.13      5.78524      20.3387     315.6544        37     1.496     1.247 -86.73   0
       313    167.3759    113.8325 300.2007342 +22.4755365     422.8618     72.08972      1.774     3.92     6.028276      20.3387     34.67033         6     1.029     0.427  75.91   0
       314    414.4178    113.5363 300.2777430 +22.5493820      657.859     72.07136      1.674     2.98     5.941951      20.3387     66.68383         7     0.833     0.615   9.89   0
       315    338.2812    105.2382 300.2567207 +22.5242141     833.6738     72.05299      2.517     4.86     5.920909      20.3387     64.20737        10     1.167     0.791 -27.11   2
       316    104.2722    102.7628 300.1846900 +22.4534637     598.7715     72.05299      1.605     5.30     5.883531      20.3387     50.65781        11     1.166     0.680  -1.79   0
       317    465.2897    100.6613 300.2977659 +22.5608972     1640.982     72.18147      1.562     3.18     5.786492      20.3387     168.3593        22     1.232     1.017  54.46   0
       318    393.4196    101.3282 300.2751605 +22.5395874     417.7735     72.12643      1.671     5.45     5.933008      20.3387     41.06726         9     1.256     0.666  57.38   0
       319    208.9416     96.2516 300.2193692 +22.4829226     371.7393     72.14478      1.618     3.47     6.036187      20.3387     52.34025         7     0.904     0.776 -17.44   0
       320    899.3227     85.1886 300.4381422 +22.6862256     363.2301     72.08972      1.269     4.40     6.095861      20.3387     39.89314         8     1.089     0.507  34.04   0
       321    650.6689     82.8815 300.3613125 +22.6112254     309.9529     72.19981      1.501     3.48     5.916837      20.3387     34.14079         6     0.752     0.619 -17.78   0
       322    239.4276     80.4102 300.2339934 +22.4874909      5995.04     72.08972      1.764     3.47     6.176729      20.3387     611.9677        41     1.453     1.283  56.52   0
       323     90.3226     80.2346 300.1876540 +22.4428108     836.7771     72.05299      2.174     5.22     5.871009      20.3387     54.93056        15     1.335     0.938   2.64   0
       324    485.5570     65.9040 300.3153490 +22.5569586     6247.431     72.10808      1.601     3.02      5.69496      20.3387     594.6394        40     1.363     1.253  72.52   0
       325    370.9989     65.6138 300.2797555 +22.5226048     558.5991     71.92427      1.387     3.27     5.897619      20.3387      85.3148        10     1.106     0.639  60.20   0
       326    679.9056     57.5188 300.3786519 +22.6126663     190.3201     72.23647      1.455     4.64     6.102032      20.3387     35.39864         5     0.990     0.630 -85.52   0
       327    738.0223     56.2692 300.3971837 +22.6296821     912.2695     72.10808      1.917     3.66     6.174271      20.3387     78.23313        13     1.095     0.893  11.97   0
       328    830.8132     54.5373 300.4266964 +22.6569213      390.276     72.07136      1.515     5.30     6.400533      20.3387     43.59883         8     0.973     0.814  36.25   0
       329    178.2061     49.8008 300.2248619 +22.4603656     466.4786     71.90586      1.488     3.91     6.470817      20.3387     60.32261        10     1.065     0.837 -16.71   0
       330    537.1978     48.5164 300.3370785 +22.5674003     431.0815     71.99785      1.632     4.25     5.678223      20.3387     48.96105         8     1.112     0.620  17.40   0
       331    613.9387     46.0441 300.3618018 +22.5896382     6424.801     72.10808      1.582     3.16      5.73896      20.3387     679.2565        42     1.409     1.240  59.02   0
       332    388.9016     45.0046 300.2920120 +22.5220316     1307.262     71.97946      1.467     3.09     5.819927      20.3387     138.2204        21     1.161     1.014  27.17   0
       333    655.1755     43.8266 300.3753783 +22.6013303     869.5746     72.05299      1.504     2.96     6.033353      20.3387     90.02439        13     1.016     0.794  -3.53   0
       334    724.7908     41.3659 300.3978874 +22.6214353     345.0925     72.08972      1.119     2.34     6.213732      20.3387      41.7176         5     0.725     0.432 -21.49   0
       335    671.1434     39.8126 300.3816589 +22.6049490     608.2381     72.08972      1.416     4.03     6.169236      20.3387     61.51208        10     0.975     0.761 -37.72   0
       336    941.1628     37.7154 300.4665941 +22.6850554     537.1697     72.07136      1.684     4.12     6.288886      20.3387     49.84166         9     1.043     0.697 -74.53   0
       337    137.8881     37.7953 300.2162078 +22.4448461     594.4612     71.99785      1.580     4.69     6.280418      20.3387     55.47416        12     1.241     0.720   4.79   0
       338    709.6411     35.2881 300.3951321 +22.6151562     379.7382     72.08972      1.467     3.44      6.22837      20.3387     50.22078         9     0.868     0.763 -15.10   0
       339    658.1739     30.9312 300.3804932 +22.5985143     2747.467     72.08972      1.602     3.16     6.095883      20.3387       277.11        31     1.304     1.216  71.42   0
       340    299.0282     31.6882 300.2683406 +22.4913118     215.6537     72.07136      1.280     3.56     6.533173      20.3387     44.75686         6     0.830     0.634 -35.32   0
       341    673.4296     29.9194 300.3855786 +22.6027843     824.0658     72.08972      1.942     5.61     6.235101      20.3387     72.77895        19     1.582     0.995  37.81   0
       342    111.0610     25.8762 300.2117246 +22.4333891     3780.235     72.14478      0.422     1.59     5.931077      20.3387     3139.365         6     0.385     0.217 -71.39   0
       343    744.7642     22.6447 300.4101860 +22.6220157     1423.154     72.14478      1.610     3.09      6.32975      20.3387     164.5695        23     1.297     1.132  44.87   0
       344    287.3262   1011.4998 299.9464744 +22.7693507     1209.733     72.21814      2.193     5.10     8.550866      20.3387     91.96033        27     1.577     1.276  57.50   0
       345    123.6344   1006.5730 299.8971431 +22.7188493     1438.002     72.10808      3.107    10.72     92.31564      20.3387     52.60069        32     2.446     1.309 -20.93   0
       346     60.9885     14.9885 300.1996776 +22.4152705     577.9252     71.97946      1.910     4.32     5.590373      20.3387      50.0085         9     0.955     0.748  -9.27   0
       347    229.5386    972.6818 299.9411208 +22.7408827     7153.025     72.18147      8.073    28.40     50.23262      20.3387     154.9273       616     9.269     4.620  60.17  18
       348    167.6228    997.5930 299.9137492 +22.7294652     1589.298     72.07136      5.452    14.18     83.36099      20.3387     61.96861        50     6.087     0.919  84.84  19
       349    162.3792    996.1796 299.9125779 +22.7274871     3024.411     72.08972      6.020    25.17     82.08327      20.3387     65.63416       142     4.693     3.747  45.56  19
