#   1 NUMBER                 Running object number                                     
#   2 X_IMAGE                Object position along x                                    [pixel]
#   3 Y_IMAGE                Object position along y                                    [pixel]
#   4 ALPHA_J2000            Right ascension of barycenter (J2000)                      [deg]
#   5 DELTA_J2000            Declination of barycenter (J2000)                          [deg]
#   6 FLUX_APER              Flux vector within fixed circular aperture(s)              [count]
#   7 FLUXERR_APER           RMS error vector for aperture flux(es)                     [count]
#   8 FLUX_RADIUS            Fraction-of-light radii                                    [pixel]
#   9 FWHM_IMAGE             FWHM assuming a gaussian core                              [pixel]
#  10 BACKGROUND             Background at centroid position                            [count]
#  11 THRESHOLD              Detection threshold above background                       [count]
#  12 FLUX_MAX               Peak flux above background                                 [count]
#  13 ISOAREA_IMAGE          Isophotal area above Analysis threshold                    [pixel**2]
#  14 A_IMAGE                Profile RMS along major axis                               [pixel]
#  15 B_IMAGE                Profile RMS along minor axis                               [pixel]
#  16 THETA_IMAGE            Position angle (CCW/x)                                     [deg]
#  17 FLAGS                  Extraction flags                                          
         1    689.0824     16.6025 300.3928872 +22.6016847      766.312     71.93914      1.497     3.28     6.836993     20.32211     93.68207        14     1.089     0.888 -57.62   0
         2    494.4411     15.5840 300.3325647 +22.5431607     985.3171     72.04928      1.511     3.76     6.609708     20.32211     106.8807        18     1.218     0.991  86.15   0
         3    398.3976     13.6357 300.3032864 +22.5138589     929.2814     72.01259      1.731     3.66     5.986104     20.32211     93.54037        17     1.130     1.023 -20.52   0
         4    780.6535     13.2024 300.4225407 +22.6280940     441.0375     71.99423      1.366     3.91     6.697988     20.32211     55.73615        10     1.068     0.755  49.87   0
         5    785.8901      9.5803 300.4253470 +22.6286180      671.433     71.97588      0.681     1.02      6.69707     20.32211     254.9935         5     0.495     0.415  81.33   0
         6    737.9059      4.9844 300.4118721 +22.6129455     541.7759     71.25619      1.361     3.22     7.069703     20.32211     83.86465        11     1.068     0.844  -0.87  16
         7    169.8305      3.6617 300.2353876 +22.4425709       3630.8     67.36651      1.698     3.18     6.247444     20.32211     379.0634        34     1.315     1.305  17.28  24
         8    300.5214      4.1099 300.2759042 +22.4818254     209.2792       69.033      1.130     5.01     6.183539     20.32211     27.66219         5     1.240     0.573 -38.54  16
         9    495.6411      1.5486 300.3374842 +22.5394843     292.0102     57.24924      1.347     4.69     6.723448     20.32211     35.10749         7     0.919     0.680   4.70  24
        10    632.5317    987.0135 300.0603095 +22.8635563     9166.511     72.04928      2.279     6.15     4.558316     20.32211     421.0897        38     1.632     1.458  11.56   3
        11     84.4963   1010.6896 299.8820411 +22.7059750     5165.277     72.21417     18.402   101.18     76.90162     20.32211     165.9195      2550    21.826    16.346  60.10  27
        12    637.2928    984.6735 300.0625542 +22.8643120      9644.79     72.15926      2.220    12.36     4.573159     20.32211     476.0034        68     2.565     1.658  -5.43   3
        13    731.6557    987.6713 300.0909907 +22.8934551      623.522     72.04928      1.967     6.58     4.223265     20.32211     41.81271        11     1.349     0.899 -45.03   0
        14     76.3000    952.1251 299.8985365 +22.6867294     5595.795     72.15926     24.881    89.51     31.14157     20.32211     1368.384      2775    17.560    12.660 -12.50  19
        15    161.4012    966.6147 299.9202842 +22.7164173     1196.826     71.88401      6.192     9.94     54.78516     20.32211     47.25834        18     2.117     1.555 -27.28   2
        16    166.0304    976.3658 299.9185530 +22.7206017     2226.907     72.04928      5.204    13.64     62.31866     20.32211     56.39267        41     2.845     1.819  81.55   3
        17    217.4417    984.9133 299.9317629 +22.7384765       4678.1     72.01259      8.880    35.50     67.48615     20.32211       97.911       382     7.552     4.630 -46.82  19
        18    496.5770    976.1682 300.0214837 +22.8196861      349.871     72.03094      1.734     6.28     4.372987     20.32211     28.25473         7     1.200     0.923  74.64   0
        19    926.3453    971.2156 300.1570628 +22.9470657     699.4547     72.01259      2.219     5.18      4.10231     20.32211      53.2996         9     1.196     0.707 -62.40   2
        20     75.4868    916.6360 299.9098213 +22.6763122     3841.914     72.01259     26.210    61.95     14.31811     20.32211     83.17664      1135    13.609     7.825 -16.79  19
        21    138.3960    956.2553 299.9164989 +22.7065452     1466.644     71.99423     12.318    14.48     44.71704     20.32211      115.409        29     3.368     1.731 -35.03   3
        22    142.4741    956.5492 299.9176714 +22.7078530     1475.992     72.04928      7.335    12.33     45.65674     20.32211     52.30977        29     2.881     1.468  76.97   3
        23    144.6435    954.3394 299.9190645 +22.7078704     1373.648     72.03094      8.744    10.14     43.11615     20.32211     54.22574        17     2.451     1.170  34.49   3
        24    150.5539    959.7319 299.9191490 +22.7111896     844.2615     72.01259      3.117     3.69     48.44119     20.32211     43.01797         5     1.170     0.335 -42.01   2
        25    650.0242    953.8547 300.0765436 +22.8592835     6878.526     72.04928      2.072     4.83      4.55577     20.32211     343.8551        51     1.601     1.534  20.66   0
        26    150.5456    952.4196 299.9215239 +22.7090908     728.1981     72.01259      3.905     4.04     41.48194     20.32211     31.90773         5     0.943     0.494 -85.49   1
        27    530.4390    948.8885 300.0409007 +22.8220116     425.0497     72.01259      1.881     4.41     4.439312     20.32211     36.34864         6     0.855     0.646 -59.55   0
        28    354.3100    998.5658 299.9699081 +22.7834474     559.7172     72.01259      1.965     4.93     4.335413     20.32211     34.82754         7     1.228     0.561  71.56   0
        29    802.2927    947.3392 300.1261311 +22.9030444      529.959     72.10429      1.992     6.16      4.43196     20.32211     36.28309         9     1.541     0.693   2.39   0
        30    558.5120    944.4121 300.0511008 +22.8291430     1613.694     71.97588      1.925     5.15     4.449484     20.32211     102.8426        26     1.383     1.320 -28.22   0
        31    452.6207    940.8386 300.0192837 +22.7963709     1025.646     72.04928      2.137     5.41     4.396991     20.32211     60.66724        22     1.421     1.172  54.95   0
        32    382.8973    938.9454 299.9981928 +22.7749208     6485.379     72.12261      2.059     4.30     4.557627     20.32211     460.0788        48     1.567     1.496 -13.64   0
        33    693.4037    928.2999 300.0983730 +22.8649497     358.7378     71.90239      2.500     5.27     4.521586     20.32211     31.54695         5     1.070     0.734  34.38   0
        34    117.1611    926.4271 299.9195941 +22.6916229     1105.903     72.04928      2.872     3.65     20.72336     20.32211     34.71959         5     1.064     0.361 -86.05   3
        35    125.0438    926.4799 299.9220279 +22.6940030     1267.799     72.01259      7.696     8.53     20.75644     20.32211     43.25426        13     1.625     1.252  -6.43   3
        36    416.1986    925.7717 300.0128425 +22.7811276      524.594     71.99423      1.666     5.21      4.39221     20.32211     49.06846         8     1.203     0.637 -50.47   0
        37    929.2849    918.0074 300.1752819 +22.9326659     2118.467     71.95751      2.156     5.21     4.390148     20.32211     118.1415        36     1.534     1.491  33.14   0
        38      8.7303   1006.2977 299.8599207 +22.6819775     874.4451     72.15926      4.253     4.86     1.332162     20.32211     39.79621         5     1.589     0.422 -24.26  24
        39      1.4833    991.4666 299.8624916 +22.6755523     658.9136     56.97156     11.484    11.48    -5.314102     20.32211     31.34624        13     2.574     1.427 -89.03  27
        40    427.2144    913.1513 300.0203751 +22.7808101     360.2575     72.04928      2.048     4.84     4.441274     20.32211     26.78928         5     1.296     0.512  27.63   0
        41    718.2410    907.5056 300.1128760 +22.8664234     759.6129     72.04928      1.971     7.62     4.538464     20.32211     42.40474        16     1.670     0.974  35.68   0
        42      1.7396   1022.5585 299.8524602 +22.6845389     554.6778     49.87165      5.031     5.67    -6.398245     20.32211     38.49116         8     1.398     0.648 -60.35  27
        43    752.8461    901.0974 300.1257478 +22.8749528     969.7507     72.06762      1.935     6.31      4.54851     20.32211     64.65351        23     1.429     1.243 -30.32   0
        44    211.3681    901.3171 299.9570531 +22.7126846     922.6159     72.03094      5.451     5.69     10.71423     20.32211     30.93388         8     1.288     0.708  87.69   1
        45    112.6302    897.9995 299.9274266 +22.6821135     1138.354     71.99423      3.719     3.79      14.4256     20.32211     33.20222         5     0.845     0.489 -71.52   2
        46    148.5925   1006.8262 299.9032252 +22.7241015     552.2324     72.03094      2.336     3.52     89.22751     20.32211     33.74841         5     0.843     0.424  70.12   0
        47    775.1907    894.6689 300.1348047 +22.8798020      11373.8     72.01259      1.976     4.41     4.545328     20.32211     674.7313        58     1.563     1.514 -13.73   0
        48    966.3018    894.0971 300.1946069 +22.9368854     368.7912     72.21417      1.529     4.64     4.644086     20.32211     33.15457         5     1.357     0.451  55.35   0
        49    820.5626    894.8403 300.1488981 +22.8934445     613.1125     72.10429      1.944     6.74      4.54834     20.32211     41.73864        13     1.199     1.063  29.88   0
        50    197.8445    985.7768 299.9253868 +22.7328447     3702.315     72.06762      7.482    30.82     69.46516     20.32211      82.5497       258     6.737     3.914 -79.36  19
        51    236.1145    973.4140 299.9413106 +22.7407812     7212.828     71.97588      8.435    32.55     46.72187     20.32211     151.5455       715    10.651     4.825  63.61  18
        52    228.1949   1000.0522 299.9301847 +22.7460429     922.8287     72.01259      2.121     6.53     78.24961     20.32211     53.07473        12     1.404     0.852 -75.00   2
        53     86.9800    885.5962 299.9234839 +22.6708621     923.3419     71.99423      4.234     7.05     10.45739     20.32211     47.02031        15     1.433     1.030  45.93   0
        54    166.4391    882.9756 299.9490417 +22.6939480     554.2347     72.04928      3.055     4.21     12.01733     20.32211     38.45723         5     1.163     0.555 -38.42   0
        55    827.5762    881.6957 300.1553587 +22.8917711     317.2271     71.92077      1.651     5.85     4.557575     20.32211      36.3056        11     1.136     0.847   3.05   0
        56    783.7347    876.7917 300.1432806 +22.8772288      1427.53     72.01259      1.960     4.99      4.55244     20.32211     86.64106        27     1.447     1.287  20.57   0
        57    480.4229    882.5902 300.0468777 +22.7879940     469.4442     72.03094      1.763     6.87     4.560932     20.32211     37.37056        10     1.553     0.853 -48.92   0
        58    635.9063    874.0928 300.0980759 +22.8321588     428.4759     72.19587      1.901     5.05     4.458633     20.32211     32.21064         8     1.072     0.673  13.20   0
        59    821.8026    870.1533 300.1573102 +22.8867270     908.3708     72.03094      2.125     6.22     4.557869     20.32211     50.33696        19     1.378     1.074 -87.00   0
        60    870.7253    861.7177 300.1753119 +22.8989591     511.0445     72.14094      2.221     4.52     4.588546     20.32211     33.94663         6     1.079     0.539  33.06   0
        61    721.5947    861.0130 300.1290353 +22.8540807     907.7187     71.90239      1.909     4.67      4.58037     20.32211     66.18697        20     1.391     1.054  -6.09   0
        62    733.3375    857.3401 300.1338900 +22.8565445     622.9688     72.06762      1.857     6.52     4.593915     20.32211     52.55549        13     1.238     0.965  19.16   0
        63    434.1511    856.5781 300.0409246 +22.7666584     4303.371     72.03094      1.916     4.29     4.591988     20.32211     316.3431        39     1.477     1.364  20.69   0
        64     96.7806    844.8743 299.9397659 +22.6621269     575.7822     72.03094      1.700     4.45      6.04964     20.32211     42.22481         9     1.114     0.605 -83.62   0
        65    159.8280    841.8411 299.9603550 +22.6801694     497.3008     72.04928      1.744     5.16     7.545914     20.32211     66.04192        10     1.470     0.657  36.97   0
        66     68.4805    840.6315 299.9323471 +22.6524205     477.0519     72.03094      2.304     5.80     5.718905     20.32211     31.01228         8     1.528     0.620  64.59   0
        67    136.5389    839.1827 299.9539770 +22.6724214     1739.509     71.99423      2.161     4.70     6.855548     20.32211       104.02        32     1.532     1.399 -13.88   0
        68   1008.3091    828.8506 300.2289269 +22.9307212     2024.906     72.04928      2.062     5.04     5.204195     20.32211     107.1837        33     1.517     1.404   7.41   0
        69    962.5986    827.2609 300.2151771 +22.9165770     2167.348     71.99423      2.049     5.08     4.919915     20.32211       114.63        32     1.531     1.329 -14.32   0
        70    668.4077    826.8463 300.1235614 +22.8283350     344.2522     72.04928      1.435     5.98     4.553204     20.32211     42.05468         9     1.158     0.869  62.26   0
        71    169.5087    821.2079 299.9700708 +22.6771558     540.0283     71.93914      1.727     5.02     6.288958     20.32211     48.58205         9     1.130     0.641 -85.74   0
        72    746.0137    821.0672 300.1496314 +22.8499271     623.9302     72.03094      1.624     5.29     4.605784     20.32211     48.60141        11     1.108     0.713   3.79   0
        73    614.2275    814.8691 300.1105694 +22.8086616     4916.125     72.03094      1.785     3.82     4.420471     20.32211      358.016        37     1.395     1.309  16.12   0
        74    104.8029    815.0179 299.9519622 +22.6559724     459.1047     71.93914      1.623     3.55     5.570277     20.32211     35.31321         5     1.388     0.262  77.32   0
        75    417.0299    812.2181 300.0500108 +22.7487970     527.9736     72.01259      1.526     3.18      4.48764     20.32211     55.03829         8     0.838     0.637 -34.78   0
        76    164.3939    808.3833 299.9726475 +22.6719438     1298.096     71.97588      1.952     4.67     5.686862     20.32211     100.3166        26     1.514     1.180  53.08   0
        77    634.8349    807.6514 300.1193365 +22.8127646     756.3869     72.04928      1.609     4.06     4.480433     20.32211     63.77518        13     0.996     0.977  76.21   0
        78    184.0777    805.8613 299.9795886 +22.6771240      413.002     72.08596      1.538     4.41     5.528595     20.32211     41.54123         9     1.086     0.768  75.34   0
        79   1007.2144    795.0397 300.2395737 +22.9206790     1108.364     72.04928      1.934     4.97     5.167363     20.32211     72.53019        25     1.372     1.273  26.74   0
        80    790.3447    794.6766 300.1720307 +22.8556283     4307.192     72.06762      1.845     3.94     4.628652     20.32211     325.6247        35     1.367     1.338  44.79   0
        81    199.3309    788.3413 299.9900254 +22.6766734     395.8358     72.04928      1.734     4.88     5.307407     20.32211     49.11212         7     1.040     0.651  80.71   0
        82    507.3466    786.9824 300.0863351 +22.7686264     584.1338     72.01259      1.607     4.56     4.591641     20.32211       51.187        14     1.083     0.956  77.78   0
        83    153.5163    785.0536 299.9768452 +22.6619904      1049.37     72.06762      2.002     4.87      5.27566     20.32211      78.0058        23     1.464     1.214 -14.97   0
        84    303.2362    777.0098 300.0260326 +22.7045795     53801.11     72.03094      1.835     3.70     4.935366     20.32211     4389.152       106     1.622     1.544  23.44   0
        85    569.0884    780.5977 300.1076421 +22.7852969     447.1982     71.95751      1.487     5.55     4.520424     20.32211     46.20446        10     0.991     0.876  17.36   0
        86    561.2545    776.1958 300.1066318 +22.7816857     1640.849     72.01259      1.741     3.72     4.560019     20.32211     129.9698        22     1.223     1.084 -39.45   0
        87    974.0081    775.9165 300.2354238 +22.9052421     908.7729     71.97588      1.858     5.54     5.076425     20.32211     60.88211        21     1.394     1.132  47.71   0
        88    231.5838    775.3234 300.0042875 +22.6826112     467.9291     72.03094      1.799     5.12     5.226469     20.32211     46.24766        10     1.322     0.683 -18.90   0
        89    590.0347    772.1986 300.1168971 +22.7891624     977.3483     71.99423      1.790     5.42     4.537262     20.32211      82.3759        19     1.465     0.970  41.79   0
        90    601.0049    771.0573 300.1206860 +22.7921219     612.2221     71.99423      1.746     5.39     4.523217     20.32211     61.75657        12     1.324     0.860  -9.27   0
        91    707.7617    769.4996 300.1544636 +22.8236597     2508.558     72.04928      0.693    -0.11     4.692867     20.32211     1962.152        14     1.277     0.449  62.09   0
        92    501.9892    764.5110 300.0919679 +22.7605709     452.0634     71.97588      2.098     4.70     4.701979     20.32211     31.24103         7     1.002     0.625  62.97   0
        93    352.9763    754.2757 300.0488985 +22.7129687      31250.3     72.06762      1.760     3.54     4.765292     20.32211     2733.664        78     1.506     1.457  35.36   0
        94    744.1218    757.3392 300.1697501 +22.8310596     742.2366     72.08596      1.520     3.76     4.690118     20.32211     73.57747        14     1.120     0.949  21.37   0
        95    367.3297    754.8765 300.0531709 +22.7174438     1906.608     72.14094      1.692     3.68     4.751722     20.32211     179.3228        25     1.356     1.089  -9.93   0
        96    876.2180    750.6000 300.2131367 +22.8686868     2916.102     71.93914      1.866     3.91      5.06183     20.32211     200.9645        35     1.382     1.352 -22.38   0
        97    364.3098    748.8491 300.0541891 +22.7148090     610.3853     72.03094      1.986     4.29     4.776498     20.32211     54.55803        12     1.127     0.893 -52.40   0
        98    634.1428    746.3354 300.1390442 +22.7949529     963.5484     72.08596      1.650     3.95      4.68298     20.32211       73.069        19     1.241     0.976 -25.29   0
        99    235.4874    745.7884 300.0150972 +22.6753090     840.2687     71.97588      1.820     4.73     5.078986     20.32211      76.3475        16     1.240     1.132 -64.27   0
       100    481.3450    741.2294 300.0931025 +22.7477013     786.6327     72.03094      1.595     3.71     4.801038     20.32211     90.63136        15     1.194     0.876  17.54   0
       101     41.3523    741.3050 299.9561868 +22.6158021     472.6519     72.04928      1.956     5.00     5.154641     20.32211     42.84032         9     1.124     0.630 -59.50   0
       102    882.4338    738.1194 300.2191308 +22.8669627     528.7936     71.99423      1.702     4.80     5.187912     20.32211      57.5689        12     1.221     0.952  70.61   0
       103    382.3431    737.3522 300.0635373 +22.7169154     411.2437     72.08596      1.980     5.88     4.819118     20.32211     40.92859         8     1.400     0.696   0.74   0
       104    339.7790    737.1713 300.0503476 +22.7041043     293.1935     72.03094      1.559     4.98     4.841628     20.32211     38.86508         5     1.183     0.595 -22.54   0
       105     69.7459    735.2375 299.9669836 +22.6225787     424.5359     72.03094      1.360     6.61     5.169755     20.32211     47.83817        10     1.698     0.723 -83.31   0
       106    427.4966    736.1130 300.0779970 +22.7300939      391.709     72.21417      1.583     3.91     4.816826     20.32211     44.11663         5     0.774     0.610  15.06   0
       107    859.5801    733.1750 300.2136078 +22.8586986     532.2926     72.04928      1.873     6.17      5.15779     20.32211     33.31509         9     1.084     0.989 -10.48   0
       108    233.3715    730.5756 300.0193809 +22.6703103     593.7521     72.03094      2.026     3.87      5.02843     20.32211     61.67095        10     1.236     0.664 -28.24   0
       109    564.2628    719.4255 300.1260129 +22.7662893     286.8647     72.03094      1.300     4.81     4.844659     20.32211     29.38144         7     0.919     0.712 -73.53   0
       110    526.1078    719.4258 300.1141271 +22.7548565     627.8432     71.97588      1.441     3.81      4.88966     20.32211     66.03011        11     0.981     0.814  41.37   0
       111    547.9713    716.5899 300.1218588 +22.7605937     1347.608     72.03094      1.625     3.53     4.904006     20.32211     129.4711        23     1.194     1.159  76.33   0
       112    435.6362    718.3121 300.0863139 +22.7274244     290.6328     72.01259      1.060     3.45     4.862732     20.32211     41.49961         5     0.766     0.449 -73.76   0
       113    942.6185    715.8170 300.2451546 +22.8785754     4574.191     72.01259      1.816     3.92       5.3174     20.32211     292.9203        38     1.430     1.341  -0.67   0
       114    467.7205    716.4268 300.0969168 +22.7364987     423.4267     72.03094      1.637     5.31     4.855916     20.32211     46.33164        11     1.167     0.844   3.68   0
       115    931.0682    707.1800 300.2443562 +22.8726355     1814.604     72.01259      1.838     4.06      5.36066     20.32211      117.392        27     1.362     1.210  37.17   0
       116    293.9499    700.7490 300.0479168 +22.6799144     902.4548     72.06762      1.691     4.13     4.859719     20.32211     92.52617        19     1.325     1.021  15.01   0
       117    159.8639    701.3673 300.0060049 +22.6398901     228.6389     72.03094      1.553     4.49      5.06124     20.32211     31.45554         5     1.153     0.498 -54.91   0
       118    757.4110    698.3284 300.1930644 +22.8180912     2610.336     72.04928      1.777     3.60     4.891097     20.32211     192.6706        33     1.378     1.277  42.55   0
       119    962.1631    697.2496 300.2572855 +22.8790913     1600.999     72.03094      1.852     4.16     5.310346     20.32211     119.1951        26     1.385     1.318 -66.66   0
       120    839.9570    684.6207 300.2232596 +22.8388734     443.3338     72.06762      1.516     3.90     5.466807     20.32211     62.65994        11     1.199     0.694  23.97   0
       121    142.7015    684.6833 300.0060865 +22.6299578     534.1166     72.19587      1.659     4.34     5.054888     20.32211     67.92292        11     1.330     0.701  21.53   0
       122    875.8653    675.3801 300.2374623 +22.8469703       148303     72.01259      1.763     3.62     5.696889     20.32211        11336       163     1.589     1.564 -64.42   0
       123    638.3984    678.9199 300.1622698 +22.7768691     316.7931     71.93914      1.366     3.89     4.855133     20.32211     38.58478         6     1.015     0.427  74.92   0
       124   1022.4144    677.2510 300.2825873 +22.8913799     1097.228     62.69233      1.642     3.82     5.281307     20.32211     106.5498        19     1.215     1.017  70.10  24
       125    728.3914    675.8434 300.1913200 +22.8029413     733.9064     72.04928      1.596     3.92     4.861879     20.32211     72.04353        14     1.130     0.858  35.49   0
       126    908.8154    668.6784 300.2499190 +22.8549099     345.5316     72.04928      1.448     4.22     5.528805     20.32211     47.35365         7     0.899     0.571 -29.81   0
       127    562.0916    664.0773 300.1433140 +22.7497472     1577.131     72.17757      1.536     3.31     5.090755     20.32211     142.0977        23     1.188     1.066 -37.14   0
       128    743.3538    661.4749 300.2006516 +22.8032952     9514.302     72.03094      1.649     3.20     4.954202     20.32211     890.6132        45     1.315     1.292 -82.42   0
       129    244.6959    656.3748 300.0470036 +22.6524160     5019.053     71.93914      1.762     3.65     4.861482     20.32211     411.4582        41     1.429     1.334  69.00   0
       130    326.7527    654.5018 300.0731446 +22.6764756     1126.377     72.06762      1.612     3.52     4.796396     20.32211     100.6151        19     1.153     1.054 -23.89   0
       131    202.9428    651.9242 300.0354605 +22.6386217     522.8903     72.06762      1.759     3.20     4.910574     20.32211     63.40205         8     1.052     0.595  59.93   0
       132    535.1793    650.2269 300.1394284 +22.7377073     841.6121     72.03094      1.540     3.23     5.287881     20.32211     83.45363        12     1.071     0.706  11.97   0
       133    526.7392    642.2133 300.1394017 +22.7328776       3297.3     71.99423      1.554     3.00     5.333339     20.32211     296.0576        28     1.205     1.110   6.06   0
       134    517.1314    635.9460 300.1384443 +22.7281996     1360.123     72.06762      1.534     3.38     5.329986     20.32211     130.4695        22     1.223     1.051  29.81   0
       135    910.7859    634.5233 300.2616265 +22.8456848     317.9276     72.04928      1.258     4.08     5.595266     20.32211     36.84637         7     0.982     0.484  -8.21   0
       136    180.1760    632.0356 300.0348375 +22.6260896     738.2084     72.04928      1.607     3.80     4.929984     20.32211     79.00104        13     1.231     0.690 -15.61   0
       137    194.4600    630.7655 300.0396925 +22.6300076     599.0783     72.04928      1.523     3.62      4.90616     20.32211     72.87284        11     1.159     0.707 -28.57   0
       138    220.1085    627.0143 300.0488887 +22.6366203     552.1288     71.95751      1.800     6.43     4.857488     20.32211     44.14565        11     1.396     0.831  45.17   0
       139    963.7458    627.0760 300.2805711 +22.8593978     634.0847     72.06762      1.718     4.42     5.474158     20.32211      47.0256        10     1.088     0.690  21.05   0
       140    441.7257    625.5956 300.1183219 +22.7026344     1781.135     71.95751      1.612     3.29     5.071455     20.32211     175.9751        21     1.199     1.005  47.95   0
       141    541.0564    626.1031 300.1490930 +22.7325411     344.3203     72.12261      1.364     3.14     5.611809     20.32211      47.9386         8     0.840     0.727 -80.10   0
       142    476.8405    625.0294 300.1294405 +22.7129934     1047.334     72.04928      0.427   -12.09     5.133912     20.32211     821.6495         5     0.469     0.273 -24.58   0
       143   1017.6016    623.1798 300.2986460 +22.8743975     973.9973     71.95751      1.788     4.40     5.304992     20.32211     66.67083        17     1.255     1.020  24.98  16
       144     95.7089    620.3061 300.0123800 +22.5973991     19892.42     72.19587      1.855     3.82     5.194616     20.32211     1699.508        67     1.583     1.484  49.14   0
       145     17.2474    622.3427 299.9873291 +22.5744550     694.7181     72.08596      2.078     5.15     5.272578     20.32211     54.31484        12     1.289     0.807  10.36   0
       146    526.6879    621.0693 300.1462518 +22.7267910       1040.2     72.19587      1.670     3.09      5.55322     20.32211     102.8519        16     1.059     0.945  17.67   0
       147    561.4336    620.1301 300.1573805 +22.7369304     350.5258     72.01259      1.595     6.12     5.568671     20.32211     42.16589        10     1.202     0.877  30.34   0
       148    944.9291    607.1924 300.2811557 +22.8480506     1051.942     72.01259      1.725     4.04     5.593903     20.32211     90.98692        23     1.296     1.172  51.74   0
       149     41.9722    604.7393 300.0007291 +22.5768201     1550.442     72.03094      2.142     5.37      5.29417     20.32211     93.83734        28     1.590     1.247 -82.49   0
       150    811.4974    605.7994 300.2399812 +22.8077053     405.9942     71.90239      1.489     4.56     5.445923     20.32211     46.65818        10     0.971     0.747  -0.37   0
       151    107.9631    605.2648 300.0210735 +22.5967583     339.0578     72.03094      1.691     3.67     5.170334     20.32211     48.44635         5     1.081     0.441   0.56   0
       152    490.2624    601.7398 300.1411826 +22.7103278     448.3678     72.06762      1.342     3.18     5.357784     20.32211     62.74116        10     0.926     0.808  16.48   0
       153    885.2114    600.2679 300.2647709 +22.8281845     890.0553     72.04928      1.857     3.67     5.644698     20.32211     65.95578        12     1.074     0.814   7.48   0
       154    629.2718    597.8624 300.1857482 +22.7508556     325.3108     72.06762      1.538     3.44     5.193901     20.32211     27.56842         5     0.984     0.348  45.37   0
       155    446.9617    593.9810 300.1302173 +22.6951267     664.8253     72.03094      1.532     3.73     5.205186     20.32211     83.44401        16     1.168     1.016  35.61   0
       156    594.4658    592.2756 300.1767163 +22.7388258      520.183     72.12261      1.511     4.59     5.480906     20.32211     63.86398        14     1.219     1.016  21.05   0
       157    642.1588    591.1779 300.1919347 +22.7527954     529.3587     72.06762      1.568     2.93     5.206146     20.32211     48.40827         8     0.800     0.667 -52.87   0
       158    612.5435    590.5453 300.1829110 +22.7437436     517.5264     72.08596      1.400     2.66     5.352307     20.32211     80.94666        10     0.900     0.740 -30.94   0
       159    491.1730    589.8777 300.1453175 +22.7071946     976.3682     72.03094      1.544     3.08      5.45859     20.32211     99.17859        16     1.045     0.956   5.40   0
       160    924.9926    585.4153 300.2820055 +22.8358240     3253.927     71.93914      1.661     3.29     5.652111     20.32211     294.6227        29     1.244     1.233  47.45   0
       161    456.5882    585.1458 300.1360834 +22.6954742      1744.49     72.03094      1.555     3.13     5.305786     20.32211     173.3413        25     1.328     1.038  22.16   0
       162   1022.8593    583.6725 300.3131158 +22.8646140     518.1734     60.48211      1.556     5.02     5.447378     20.32211     48.22206         9     1.006     0.823  67.26  24
       163     18.5262    578.4801 300.0019665 +22.5622570     5048.167     72.14094      1.911     3.97     5.570373     20.32211     421.4784        41     1.502     1.414  25.95   0
       164    964.1534    575.5964 300.2974141 +22.8447229     236.9626     72.01259      1.351     4.29     5.596641     20.32211     34.57988         5     1.098     0.487   3.67   0
       165    319.9698    571.7862 300.0978904 +22.6507015     9124.505     72.04928      1.579     3.13     4.844488     20.32211     933.9955        44     1.343     1.271  31.47   0
       166    442.4331    568.8439 300.1369680 +22.6865524     9033.368     72.06762      1.571     3.00     5.312364     20.32211     1014.228        43     1.291     1.239  58.28   0
       167    938.8840    560.5333 300.2944186 +22.8328301     12518.06     72.14094      1.707     3.43     5.648281     20.32211     1067.486        56     1.435     1.384 -86.22   0
       168    854.2525    563.2432 300.2671340 +22.8082764     1784.324     72.06762      1.570     3.13     5.564815     20.32211     167.6254        23     1.160     1.086 -29.54   0
       169    503.0662    558.4954 300.1592098 +22.7017458     11667.75     72.15925      1.523     2.91      5.74565     20.32211       1228.5        45     1.299     1.231  49.44   0
       170    672.8469    554.5630 300.2133864 +22.7514680     552.8085     72.06762      1.425     3.11     5.413654     20.32211     59.76345         9     0.891     0.746   8.44   0
       171    230.3562    553.9581 300.0757943 +22.6187267     1330.746     72.12261      1.630     3.21     4.788786     20.32211     150.3241        23     1.255     1.091 -12.74   0
       172    477.3297    551.6287 300.1534234 +22.6920640     368.6133     72.03094      1.172     3.04     5.687579     20.32211     62.13521         7     0.881     0.610  45.12   0
       173    434.7792    546.6412 300.1417921 +22.6778842     4317.165     72.06762      1.550     2.98      5.36383     20.32211     481.1685        34     1.258     1.177  31.86   0
       174    777.7519    547.1215 300.2485080 +22.7807412     735.8065     72.03094      1.389     2.92     5.469425     20.32211     92.01302        13     1.071     0.734   6.48   0
       175    412.9757    545.1121 300.1354999 +22.6709127     1210.864     71.99423      1.438     3.33     5.207422     20.32211     132.4889        21     1.174     0.991  36.12   0
       176    167.3502    544.5333 300.0592556 +22.5971364     719.0455     72.01259      1.658     3.47      4.94513     20.32211     85.40662        16     1.215     0.974   4.69   0
       177    854.5860    542.4407 300.2739912 +22.8023977     1555.286     72.04928      1.697     3.41     5.540821     20.32211     130.2526        21     1.168     1.063  -4.72   0
       178    101.6155    542.1962 300.0395732 +22.5767601     279.8315     71.88401      1.153     3.47      5.46462     20.32211     36.02712         5     0.801     0.434 -70.88   1
       179    955.1339    541.3613 300.3057137 +22.8321824     279.1164     71.99423      1.700     5.22     5.668624     20.32211     27.89155         6     1.054     0.730  13.56   0
       180    551.3954    534.2532 300.1821334 +22.7092603     207057.7     72.01259      1.535     2.82      5.91047     20.32211     22183.19       205     1.561     1.471  -7.56   0
       181    734.9548    539.2108 300.2377314 +22.7656546     836.7339     72.04928      1.480     3.67     5.407677     20.32211     83.04745        17     1.196     0.959 -70.55   0
       182    375.7486    540.2460 300.1254900 +22.6583616     271.2585     72.06762      1.217     2.35     5.210123     20.32211     42.26255         6     0.698     0.567 -42.88   0
       183    939.0631    535.7845 300.3025088 +22.8257696     166.0955     71.99423      1.294     3.96     5.660708     20.32211     34.26446         5     0.878     0.511 -51.91   0
       184    237.3959    534.0612 300.0844426 +22.6151260     3513.477     72.01259      1.671     3.32     4.830316     20.32211      334.444        32     1.307     1.204 -20.52   0
       185    803.3612    531.0128 300.2617235 +22.7837790     620.7011     72.03094      2.260     4.69     5.500981     20.32211     50.55621         9     1.056     0.724  38.35   0
       186    773.6650    530.0378 300.2527791 +22.7746086     1202.852     72.01259      0.541     0.80     5.458667     20.32211     710.3082         5     0.472     0.280  -1.68   0
       187    583.4351    521.1588 300.1963657 +22.7150953     248.0339     72.08596      1.288     3.54     5.917504     20.32211     37.60585         5     1.008     0.358  -4.47   0
       188    441.9653    514.8879 300.1543363 +22.6709192     2813.461     72.01259      1.629     3.32     5.591417     20.32211     263.1603        32     1.641     1.091 -89.09   0
       189    286.5449    517.2015 300.1052067 +22.6250160     404.4512     71.95751      1.647     4.65     4.910028     20.32211     44.15046         8     0.998     0.725 -61.51   0
       190    854.2178    511.2390 300.2840045 +22.7933197     559.4034     72.04928      2.001     4.49      5.47452     20.32211     38.38988         8     1.096     0.667 -25.17   0
       191    759.3447    503.4239 300.2569521 +22.7626735     574.0779     72.06762      1.728     2.86     5.426569     20.32211     50.29012         8     0.877     0.624  15.91   0
       192    839.0377    500.8169 300.2826520 +22.7857804     1780.771     72.03094      1.582     3.26     5.457926     20.32211     162.9565        28     1.306     1.193  64.84   0
       193    710.3035    498.3881 300.2432964 +22.7465440     2629.411     71.93914      1.534     2.88     5.581588     20.32211     285.2097        26     1.296     1.036 -68.58   0
       194    953.0606    492.0242 300.3210810 +22.8173784     927.5872     72.03094      2.304     4.61     5.686039     20.32211     71.40611        11     1.107     0.799  44.02   2
       195    615.3693    495.4451 300.2146620 +22.7172722     576.5949     72.06762      1.743     2.82     5.923576     20.32211     53.48941         8     0.844     0.695 -52.34   0
       196    497.6811    494.4784 300.1783113 +22.6817476     653.1091     72.15926      1.526     4.07     5.822574     20.32211     71.27834        14     1.143     0.913  25.46   0
       197    967.5086    492.5123 300.3254316 +22.8218423     1227.515     72.19587      1.745     3.88     5.705149     20.32211     112.7572        20     1.179     1.140  42.56   0
       198    839.3041    491.0661 300.2858998 +22.7830575     2187.023     72.15926      1.699     3.34     5.439818     20.32211     208.5486        27     1.464     1.066  78.47   0
       199    592.7149    489.2277 300.2096206 +22.7087020     793.9255     72.03094      2.400     4.29     5.934817     20.32211     68.63066        11     1.159     0.858  57.58   2
       200    378.4989    488.8532 300.1430260 +22.6444296     249.8306     72.12261      1.100     3.67     5.684815     20.32211     40.32233         6     0.788     0.498  85.93   0
       201    877.4758    486.0608 300.2994319 +22.7930438     4366.388     72.08596      1.579     3.10     5.459648     20.32211     385.5128        33     1.247     1.210 -86.13   0
       202    431.4966    487.9530 300.1598181 +22.6600483     445.8106     72.06762      1.460     4.92     5.717732     20.32211     50.83379         9     1.276     0.538  40.77   0
       203    615.4796    482.2023 300.2189942 +22.7135008     432.0009     71.93914      1.670     4.51     5.938033     20.32211     36.93288         7     0.922     0.628  10.37   0
       204    538.0983    481.9887 300.1949540 +22.6902658     372.3671     71.92077      1.605     4.89      5.92158     20.32211     43.75681         7     1.069     0.634  63.38   0
       205    969.2129    476.6779 300.3311026 +22.8177997     864.3185     72.04928      1.836     3.97     5.708021     20.32211     88.57272        16     1.179     1.023  20.55   0
       206    109.3492    475.8697 300.0635029 +22.5600458     998.1744     72.03094      1.880     5.14     5.700226     20.32211     97.26292        17     1.521     0.884  39.01   0
       207    908.8402    474.4412 300.3129885 +22.7990902     197.9959     72.12261      1.003     3.31     5.557985     20.32211     36.42914         5     0.738     0.461 -18.56   0
       208    769.9340    470.1225 300.2710617 +22.7562733     263.9951     72.12261      1.456     6.04     5.448507     20.32211     40.62931         7     1.341     0.765 -30.45   0
       209    966.0754    466.0137 300.3335842 +22.8137947     249.6837     72.04928      1.431     3.09     5.686198     20.32211     42.66229         5     0.801     0.483  26.72   0
       210    101.8184    466.1188 300.0643254 +22.5549902     439.2918     72.01259      1.622     4.67     5.776053     20.32211     50.02119         8     1.018     0.822  54.52   0
       211    709.3191    460.7603 300.2552008 +22.7354368     508.0618     71.99423      1.513     3.89     5.652569     20.32211     59.78073        11     1.062     0.809  18.91   0
       212    598.8723    458.3012 300.2215753 +22.7016611     321.7901     72.15926      1.289     3.92     5.908796     20.32211     33.89695         6     1.052     0.419  11.19   0
       213    650.9057    456.5916 300.2383455 +22.7167502     727.3209     71.92077      1.375     2.95     5.907913     20.32211     86.94162        14     0.952     0.916 -48.96   0
       214      9.7761    450.8161 300.0406783 +22.5230076     292.4951     72.03094      2.082     5.12     5.958579     20.32211     30.63585         7     1.557     0.476 -37.37  16
       215    965.4819    449.4348 300.3387790 +22.8088502     452.0345     71.99423      1.484     4.02     5.657609     20.32211     52.63018        10     1.007     0.710  24.22   0
       216    711.7287    448.6916 300.2598682 +22.7326900     910.1707     72.19587      1.550     3.20     5.641934     20.32211     100.8344        15     1.142     0.869  21.16   0
       217    868.9115    444.9120 300.3101136 +22.7786518     946.4171     72.19587      1.568     4.61     5.308811     20.32211     97.89574        18     1.251     1.062  50.26   0
       218    853.4363    441.5274 300.3063842 +22.7730475     659.6417     71.97588      1.739     3.94      5.32524     20.32211     52.69145        12     0.993     0.870  59.04   0
       219    834.3710    441.7541 300.3003636 +22.7674067     380.9529     72.06762      1.973     3.44     5.393697     20.32211     28.81889         5     0.773     0.443 -72.39   0
       220    597.4485    439.1682 300.2273399 +22.6957378     3296.248     72.06762      1.437     2.65     5.883574     20.32211     346.7991        28     1.168     1.087 -81.89   0
       221    958.0435    438.5063 300.3400037 +22.8034822     484.2661     72.03094      1.492     4.12     5.625454     20.32211     41.86343         9     0.991     0.688  27.94   0
       222     73.9203    430.8030 300.0671100 +22.5364929      275.921     71.93914      1.417     4.55     6.009994     20.32211     35.03094         6     1.088     0.540 -21.54   0
       223    437.4288    425.9923 300.1817704 +22.6440304     423.3148     72.03094      1.346     3.70       5.6735     20.32211     44.95736         6     0.904     0.542 -22.77   0
       224   1008.8641    418.5675 300.3623356 +22.8129537     1240.644     72.03094      1.648     3.26     5.731254     20.32211     138.9967        21     1.128     1.118 -36.95   0
       225    880.7978    418.3580 300.3224378 +22.7745750     489.6837     72.03094      1.503     3.65     5.282952     20.32211     57.79758        10     0.972     0.808 -68.84   0
       226    966.9128    417.2976 300.3496534 +22.8000375     776.6949     72.19587      1.524     3.61     5.612749     20.32211     89.84455        13     1.117     0.803  38.80   0
       227    708.1622    413.2056 300.2702701 +22.7214242      979.705     72.04928      1.363     3.11      5.70036     20.32211     114.3579        15     1.027     0.925 -41.48   0
       228    504.0115    413.5772 300.2065339 +22.6604057     495.8233     72.03094      1.507     3.08     5.731156     20.32211     61.63483         7     0.925     0.566  61.59   0
       229    212.1073    411.0105 300.1165044 +22.5722255     647.8234     71.97588      1.604     5.32     5.780716     20.32211     54.13486        14     1.275     0.870  58.72   0
       230    274.4294    406.8937 300.1372295 +22.5897170     3659.379     71.95751      1.550     2.99     5.772038     20.32211     418.6288        29     1.219     1.118  52.99   0
       231   1007.5814    405.8171 300.3660720 +22.8089032      4328.64     72.01259      1.675     3.30     5.704605     20.32211     372.5809        33     1.292     1.238  49.83   0
       232    221.5764    401.6271 300.1224941 +22.5723690     7481.767     72.01259      1.659     3.18     5.778775     20.32211     819.9763        42     1.345     1.276  60.78   0
       233    987.5283    396.6992 300.3627707 +22.8002818     1952.602     72.17757      1.744     3.95     5.629654     20.32211     163.1351        29     1.332     1.263 -15.13   0
       234    362.3896    395.9276 300.1681619 +22.6129189     4716.871     72.03094      1.512     2.94     5.734275     20.32211     534.8635        36     1.314     1.150  56.40   0
       235    606.5862    392.7691 300.2452408 +22.6851421     18567.28     72.03094      1.495     2.78     5.890054     20.32211     2246.658        57     1.340     1.255  28.84   0
       236    624.0652    392.9868 300.2506171 +22.6904378     859.3729     71.97588      1.998     6.51     5.882227     20.32211     61.94916        18     1.653     0.803 -41.57   0
       237    454.0995    394.4034 300.1972096 +22.6399501     314.8898     71.92077      1.160     4.19     5.690803     20.32211     38.10758         6     0.789     0.635 -39.23   0
       238    803.7744    383.3717 300.3097622 +22.7414668     400.8855     72.01259      1.340     3.74     5.479971     20.32211     56.65727         8     0.990     0.637  -9.37   0
       239    226.3905    379.9314 300.1310294 +22.5675824     370.7941     72.01259      1.548     5.01     5.797686     20.32211     35.33575         7     1.012     0.701 -11.73   0
       240    940.6365    375.6689 300.3549584 +22.7802052     824.4086     72.01259      1.907     4.36     5.451148     20.32211      61.9374        16     1.351     0.821 -28.58   0
       241    477.0505    373.7993 300.2110407 +22.6409046     418.2591     71.99423      1.994     6.79      5.72511     20.32211     41.44831        10     1.562     0.827  74.87   0
       242    161.3182    372.5271 300.1131901 +22.5459587     2124.473     72.15926      1.758     3.42     5.948133     20.32211     217.2682        26     1.292     1.198  77.13   0
       243    816.8926    364.6167 300.3199375 +22.7400008     288.3983     71.95751      1.169     3.43     5.397534     20.32211     32.42502         5     0.811     0.420  20.68   0
       244    547.3120    362.1573 300.2367024 +22.6585990     6741.883     72.03094      1.442     2.73      5.92665     20.32211     697.4367        36     1.230     1.108  80.82   0
       245    961.1775    362.6645 300.3655873 +22.7826107      1178.94     72.01259      1.604     3.57      5.48074     20.32211      121.344        19     1.191     1.004 -54.73   0
       246    262.2441    361.8338 300.1480543 +22.5731279     565.3005     72.08596      1.308     2.81      5.82824     20.32211     69.82545        10     0.914     0.696 -26.60   0
       247    806.9537    354.0295 300.3202718 +22.7339828     467.3772     72.06762      1.934     5.46     5.420233     20.32211     35.19519         8     1.110     0.922  14.32   0
       248    119.9369    354.6145 300.1061311 +22.5284163     468.8271     71.99423      1.644     3.07     6.054638     20.32211     62.85025         7     0.794     0.783  83.73   0
       249    751.6558    351.4135 300.3038757 +22.7166818     1123.579     72.01259      1.642     3.71     5.753599     20.32211     108.9308        21     1.333     1.036 -46.96   0
       250    661.0907    352.6547 300.2752394 +22.6899312     470.8552     72.08596      1.345     3.68     5.873079     20.32211     50.59292         9     0.949     0.672  50.26   0
       251    453.9198    348.3462 300.2120931 +22.6266657     6276.107     72.06762      1.490     2.86     5.758401     20.32211     705.3491        38     1.273     1.166  73.83   0
       252    943.2631    343.4838 300.3662181 +22.7717353     625.4883     72.12261      1.426     3.39     5.429738     20.32211     65.60841        11     1.030     0.790  53.89   0
       253    845.8998    342.9414 300.3360161 +22.7424490     1424.365     72.12261      1.586     3.31     5.310318     20.32211     143.8416        22     1.210     1.029  80.87   0
       254    438.7026    337.2409 300.2109562 +22.6189184     539.0089     72.03094      1.543     2.63     5.761215     20.32211     59.17759         6     0.707     0.613  -1.42   0
       255    521.1041    335.0304 300.2373366 +22.6429577     471.4497     71.97588      1.575     2.88     5.899588     20.32211     56.15649         7     0.851     0.636  37.65   0
       256    818.6917    330.6098 300.3315289 +22.7307620     635.0184     71.97588      1.552     3.28     5.489131     20.32211     73.34935        12     0.987     0.891 -41.00   0
       257    341.4120    327.4527 300.1838419 +22.5869691     2621.968     72.03094      1.549     2.87     5.766242     20.32211     315.7996        24     1.217     1.041  50.45   0
       258     60.1845    324.8292 300.0972127 +22.5019601     1107.965     72.03094      1.781     3.78     6.098259     20.32211     102.1338        19     1.279     1.046  30.68   0
       259    689.1053    322.5531 300.2937348 +22.6896648     339.1892     72.04928      1.561     4.21     5.858475     20.32211      32.6005         6     1.017     0.496  -1.91   0
       260    310.8392    316.9643 300.1777279 +22.5747994     30009.47     72.10429      1.545     3.03     5.805001     20.32211      2955.74        78     1.447     1.331  64.10   0
       261    845.6650    314.7626 300.3450820 +22.7342763     1472.798     72.01259      1.587     3.41     5.410231     20.32211     141.0805        19     1.151     1.005 -22.66   0
       262    801.0614    312.4848 300.3319084 +22.7202752     448.5877     72.15925      2.358     4.57     5.699837     20.32211     43.16242         7     1.396     0.424 -32.30   0
       263      7.1474    304.5765 300.0872940 +22.4802522     5087.997     72.04928      1.904     3.72       6.1068     20.32211     497.0557        47     1.556     1.444  64.26  16
       264    409.4068    302.7638 300.2130152 +22.6002409     624.8754     72.03094      1.493     4.50     5.735151     20.32211     73.92091        13     1.326     0.960  62.17   0
       265    760.9155    303.8921 300.3221754 +22.7057914     563.9257     72.19587      1.503     3.87     5.814736     20.32211     54.63257        11     0.976     0.820 -34.91   0
       266    185.1402    303.3230 300.1430427 +22.5332274      638.392     72.08596      1.763     3.12     5.985945     20.32211      47.7783         6     0.860     0.480  37.33   0
       267    721.3253    296.9437 300.3120844 +22.6919461     1961.979     72.06762      1.519     2.86     5.857368     20.32211     202.0453        25     1.291     1.013  49.76   0
       268    530.6216    291.8380 300.2543083 +22.6333961     701.4274     72.04928      0.593     2.21     5.967432     20.32211     407.0174         5     0.839     0.177  23.18   0
       269    936.5556    289.6424 300.3815865 +22.7542438     547.5484     72.12261      1.513     4.98     5.549997     20.32211     61.05675        12     1.139     0.871 -81.94   0
       270    383.0468    281.4013 300.2117354 +22.5862101     2243.829     72.03094      1.699     3.37     5.760622     20.32211     199.1761        24     1.271     1.084  51.21   0
       271    595.1955    280.2310 300.2781905 +22.6493911     348.1775     72.01259      1.460     4.80     5.955617     20.32211     34.88842         7     0.822     0.795 -28.48   0
       272    814.3956    275.7766 300.3479709 +22.7137101     305.8177     71.99423      1.209     2.97     5.767961     20.32211     39.16511         6     0.705     0.635   4.48   0
       273    822.3611    274.4001 300.3509018 +22.7156975     670.4647     72.01259      1.452     3.19     5.725839     20.32211     81.98443        11     1.067     0.789 -41.19   0
       274    704.8912    272.3715 300.3149287 +22.6799639     397.0279     71.99423      1.377     4.11     5.874273     20.32211      64.5611         9     1.141     0.616 -45.18   0
       275    458.7948    260.7303 300.2420229 +22.6029528     1232.238     71.99423      1.523     3.09     5.921248     20.32211     138.0414        17     1.189     0.903  77.65   0
       276    266.6674    261.1400 300.1820830 +22.5455355     350.0972     72.06762      1.543     4.71     5.923587     20.32211     42.79112         5     1.109     0.567 -30.92   0
       277     31.7909    260.3573 300.1092905 +22.4749443     255.1756     72.04928      1.552     5.05     6.242465     20.32211     34.89692         6     1.531     0.471  57.01   0
       278    842.3093    254.5555 300.3635585 +22.7159589     308.3365     72.01259      1.669     4.89     5.712003     20.32211     29.53188         7     1.361     0.497  -0.78   0
       279    703.8626    252.7810 300.3209599 +22.6740240     2238.823     72.01259      1.470     2.83     5.888969     20.32211     263.1756        26     1.229     1.063  80.41   0
       280    965.2077    247.2888 300.4042616 +22.7506313      3146.66     71.93914      1.642     3.12     5.879899     20.32211     329.8728        32     1.350     1.186 -77.94   0
       281    412.4572    236.3872 300.2354860 +22.5820842      664.101     71.99423      1.761     3.23     5.907717     20.32211     67.36074        12     0.994     0.867  73.12   0
       282    815.3918    235.7993 300.3612433 +22.7025121     143.7631     71.84723      1.791     3.67     5.833764     20.32211     23.21389         5     1.504     0.258 -48.99   0
       283     87.2124    230.7466 300.1361188 +22.4830493     1365.806     72.04928      1.705     3.60      6.08991     20.32211      126.839        21     1.325     0.958 -27.48   0
       284    117.6634    230.4326 300.1456889 +22.4920822     587.1882     72.03094      1.720     4.07     6.028757     20.32211     62.28802         9     1.086     0.861   4.44   0
       285    980.9545    228.0654 300.4154088 +22.7498107     429.8285     72.03094      1.414     3.60     6.038168     20.32211     53.10876         9     0.967     0.816 -25.20   0
       286    825.5876    224.4218 300.3681120 +22.7022903     207.8088     72.01259      1.208     4.87     5.859344     20.32211     35.27885         8     0.984     0.683 -86.70   0
       287    171.0509    223.0856 300.1646737 +22.5059657      435.065     72.03094      1.365     3.10     6.012506     20.32211     49.85549         8     0.826     0.704 -22.12   0
       288     26.9397    219.8582 300.1209110 +22.4618643     427.0177     72.10429      1.870     3.94     6.444248     20.32211     49.53081         6     1.094     0.406 -27.34   0
       289    847.4019    216.8240 300.3773796 +22.7066310     339.6641     71.97588      1.369     3.34     5.869274     20.32211     53.46017         6     0.854     0.506  50.77   0
       290    775.3705    214.4173 300.3556933 +22.6843897     606.9147     72.01259      1.336     3.02     5.843912     20.32211      73.2608        12     0.985     0.795  -4.04   0
       291    365.9537    214.1281 300.2282238 +22.5617646     322.0438     72.01259      1.351     2.22     5.947845     20.32211     58.80882         6     0.737     0.640 -14.29   0
       292    873.7165    203.3824 300.3899462 +22.7106364     2084.747     71.99423      1.561     2.86      5.90049     20.32211     213.0315        26     1.273     1.097  88.20   0
       293    292.1783    200.3312 300.2097336 +22.5357089     2189.115     72.03094      1.553     2.93      5.99074     20.32211     224.9384        26     1.284     1.065  58.52   0
       294    369.9715    195.6567 300.2354618 +22.5576605     1115.393     72.03094      1.706     3.69     5.954671     20.32211     89.80995        17     1.176     0.933 -28.38   0
       295    121.5816    196.0143 300.1580635 +22.4833727     383.2635     71.99423      1.802     3.98     6.164042     20.32211     30.06688         5     1.058     0.429 -24.47   0
       296    771.9361    195.0540 300.3608990 +22.6777939      562.453     72.06762      1.433     2.84     5.815161     20.32211     69.69679         9     0.870     0.754 -75.92   0
       297    878.9577    192.5481 300.3950934 +22.7090877     446.0481     72.03094      1.414     3.31     5.910763     20.32211     41.47658         6     0.784     0.489  -8.72   0
       298    186.9234    187.6424 300.1810988 +22.5005410     751.2958     72.01259      1.686     3.41     6.085507     20.32211     105.8988        16     1.310     1.004 -79.43   0
       299    789.7239    184.5350 300.3698559 +22.6800902     501.3911     72.12261      1.326     2.91     5.801825     20.32211     71.25373         9     0.930     0.668  36.04   0
       300    724.6158    184.6474 300.3495170 +22.6606437     1656.937     72.06762      1.478     4.41     5.813102     20.32211     192.6509        19     1.243     0.922  47.29   0
       301    208.4023    181.0160 300.1899278 +22.5050709     505.4622     71.90239      1.362     3.24     6.046445     20.32211     59.52782         9     0.859     0.775 -10.96   0
       302    498.4760    177.8461 300.2812494 +22.5910131     316.3977     72.03094      1.440     4.66     5.972518     20.32211      47.0635         8     1.241     0.599  39.33   0
       303    996.1132    177.6150 300.4364945 +22.7398289     835.9756     71.97588      1.442     2.92     6.072065     20.32211     104.5067        14     1.081     0.858  12.29   0
       304    728.8206    176.4664 300.3534796 +22.6595493     739.3354     72.01259      1.554     3.14     5.788335     20.32211     69.38882        14     1.057     0.833 -89.87   0
       305    649.3234    175.3425 300.3290618 +22.6354395     1363.927     72.06762      1.539     3.34     5.905031     20.32211      140.074        17     1.096     1.007 -60.81   0
       306    470.8493    171.8335 300.2745936 +22.5810154      427.201     72.06762      1.447     4.85     5.967757     20.32211     35.28528         8     0.985     0.677 -60.39   0
       307    844.8981    166.8622 300.3927932 +22.6915117     1286.636     72.12261      1.502     3.28     5.845978     20.32211     133.6687        23     1.165     1.091  87.35   0
       308    575.5433    167.1064 300.3087389 +22.6109925     946.1711     72.08596      1.506     3.07     5.961418     20.32211     102.5978        16     1.046     0.976  22.58   0
       309    856.8737    165.9513 300.3968243 +22.6948317     907.2253     72.03094      1.664     4.13     5.862482     20.32211      85.6654        20     1.298     1.178  78.65   0
       310    903.4050    165.3389 300.4115403 +22.7085726     394.1419     72.01259      1.492     3.96     5.964886     20.32211      36.4469         6     0.948     0.473  -1.32   0
       311   1017.6785    157.0504 300.4498917 +22.7403599     1636.744     72.03094      1.658     3.25      6.12956     20.32211     155.6693        26     1.300     1.207 -87.61  16
       312    973.7249    156.5581 300.4363311 +22.7270755       1086.8     72.01259      1.598     3.76     6.082526     20.32211     122.5324        18     1.232     0.985  52.85   0
       313    207.7030    149.5514 300.1999071 +22.4958236     734.3668     72.06762      1.537     3.74     6.098798     20.32211     65.94543        12     1.135     0.726  -5.86   0
       314     69.4550    143.7803 300.1587833 +22.4527576     2088.409     72.01259      1.759     3.73     6.478443     20.32211     201.7298        24     1.269     1.203 -12.52   0
       315    892.8286    141.1984 300.4160639 +22.6984647     746.3184     71.99423      1.600     3.95     5.983077     20.32211     80.96222        15     1.203     0.925  85.66   0
       316     18.9449    141.2274 300.1439088 +22.4368930     449.7954     72.03094      1.447     2.77     6.605138     20.32211     64.99691         8     0.953     0.575  -9.12   0
       317    226.8441    137.1820 300.2098701 +22.4980026     5709.533     72.04928      1.653     3.11     6.072105     20.32211     567.9684        39     1.403     1.224  60.68   0
       318     11.0244    131.6990 300.1445344 +22.4317842     1249.933     71.97588      1.763     3.38     6.584527     20.32211     124.3362        19     1.166     1.072 -18.95   0
       319    210.3535    128.1059 300.2076808 +22.4904570     602.7256     72.04928      1.482     2.99     6.144114     20.32211     61.46798        10     0.890     0.757 -29.26   0
       320   1023.7879    124.8488 300.4622348 +22.7329199     3359.504      55.3717      1.246     3.93     6.497699     20.32211     740.0001        18     1.575     0.444 -88.54  24
       321    871.0570    119.0864 300.4164368 +22.6855922     3599.167     72.12261      1.573     3.01     5.985996     20.32211     380.4998        30     1.257     1.185  79.66   0
       322    974.7231    117.8658 300.4491817 +22.7162407     2847.328     72.12261      1.670     3.36     6.332706     20.32211     248.7779        28     1.263     1.182  88.93   0
       323    173.7331    114.7224 300.2006259 +22.4756456     314.8683     72.12261      1.272     4.43     6.299511     20.32211     41.50108         7     0.963     0.697 -75.59   0
       324    420.5029    113.9208 300.2776822 +22.5493004     687.7549     72.14094      1.691     3.09     5.920833     20.32211     79.08888        12     0.984     0.926 -29.19   0
       325    344.3059    105.7584 300.2566050 +22.5241446     693.1889     72.04928      2.059     6.84      6.01908     20.32211     54.05753        15     1.467     1.152 -29.12   2
       326    879.7827    104.5787 300.4238601 +22.6840279     190.7958     72.01259      1.095     3.45     6.035563     20.32211     31.90208         5     0.737     0.466  16.49   0
       327    110.6665    102.9122 300.1848387 +22.4533650     657.1237     72.12261      1.556     3.37     6.409587     20.32211      72.6912        11     0.923     0.900 -13.88   0
       328    471.8616    101.3558 300.2977470 +22.5610613     1710.835     72.04928      1.452     2.74     5.907802     20.32211     230.6533        21     1.224     0.967 -61.41   0
       329    400.1716    102.1237 300.2751742 +22.5398239     415.9522     72.01259      1.292     2.59     5.924513     20.32211     57.01734         8     0.801     0.650 -44.28   0
       330    533.5684    100.7333 300.3171695 +22.5793499     441.6144     72.03094      1.519     5.09     5.987784     20.32211      49.7058         9     1.237     0.632  10.72   0
       331    741.3007    100.8791 300.3818659 +22.6415447     812.5347     72.15926      0.587     0.57     5.777821     20.32211     491.2234         5     0.553     0.323  -5.29   0
       332    760.4255     90.5907 300.3911630 +22.6443062     468.2843     72.03094      1.667     4.90     5.882003     20.32211     53.33941        10     1.221     0.732 -77.77   0
       333    607.7258     87.8838 300.3444385 +22.5978459     150.3118     72.12261      1.238     5.30     6.189944     20.32211     36.24165         6     1.015     0.782  73.70   0
       334    245.8127     81.1051 300.2339405 +22.4875721     5998.488     71.95751      1.647     3.15     6.239641     20.32211     557.3144        44     1.379     1.314  60.29   0
       335    751.4893     81.9502 300.3911758 +22.6391479     393.3801     72.03094      1.755     4.13     5.989002     20.32211     36.53364         5     1.116     0.436  76.24   0
       336     96.9416     80.7258 300.1877587 +22.4428819     860.5842     72.06762      1.894     4.24     6.423349     20.32211     87.18353        15     1.315     0.945  28.41   0
       337    874.9279     78.6940 300.4307322 +22.6751288     319.6564     72.14094      1.279     3.41     6.151792     20.32211     38.89033         5     0.802     0.419  16.36   0
       338    217.1336     74.9759 300.2270035 +22.4772239     291.5033     72.01259      1.553     4.97     6.223987     20.32211     39.90472         8     1.166     0.786  69.01   0
       339    491.9718     66.5425 300.3152892 +22.5570723     6310.843     72.03094      1.537     2.84      6.17759     20.32211     761.1819        40     1.333     1.197  85.14   0
       340    377.4776     66.5578 300.2796312 +22.5228089     522.1922     72.01259      1.437     3.29      6.06322     20.32211     70.47144        13     1.076     0.867 -65.79   0
       341    549.0751     61.8363 300.3346022 +22.5728072     308.3694     71.97588      1.248     2.92     6.234146     20.32211     43.35942         6     0.748     0.560 -45.60   0
       342    744.2387     56.9313 300.3970203 +22.6297827       898.03     71.99423      2.075     6.00     6.325809     20.32211     77.62534        22     1.847     1.094  87.43   0
       343    685.8628     58.0172 300.3784684 +22.6126335     279.2415     72.01259      1.188     2.01     6.441545     20.32211     62.70748         5     0.741     0.464  35.71   0
       344    837.2717     55.2691 300.4265737 +22.6571284     542.4407     72.10429      1.630     3.70     6.254981     20.32211     66.45596        11     1.092     0.836  84.76   0
       345     56.1293     53.6018 300.1838561 +22.4228677     232.6381     71.97588      1.488     3.49     6.423349     20.32211     27.98685         5     0.794     0.443 -18.37   0
       346    185.0805     50.2980 300.2250264 +22.4605361     584.3251     72.15926      1.965     3.68     6.286433     20.32211     50.49229         7     0.881     0.568 -28.06   0
       347    543.6198     49.0761 300.3370361 +22.5675059     391.6519     72.03094      1.280     3.26      6.31077     20.32211     57.38424         9     1.058     0.569 -25.60   0
       348    620.3395     46.6429 300.3617299 +22.5897606     6375.425     72.03094      1.593     3.05     6.433338     20.32211      644.707        41     1.381     1.224  86.73   0
       349    395.1450     45.4430 300.2919714 +22.5220282     1565.538     72.03094      1.636     3.37     5.989367     20.32211      169.863        22     1.279     1.076 -89.58   0
       350    661.3500     44.1733 300.3753118 +22.6013191     859.5564     72.04928      1.426     3.13     6.556934     20.32211     115.5442        15     1.135     0.861  21.42   0
       351    731.2986     42.5300 300.3976507 +22.6217698     476.0782     72.15926      2.024     4.94     6.543873     20.32211     40.19157         7     1.337     0.587  72.52   0
       352    677.3301     40.0418 300.3816314 +22.6049111     566.8013     71.99423      1.512     3.34     6.618954     20.32211     60.03857         9     0.945     0.713 -77.81   0
       353    947.2283     38.0116 300.4664722 +22.6850405     546.7593     72.03094      1.665     5.01     6.513052     20.32211     56.18015        10     1.231     0.603  52.09   0
       354    144.4036     37.7541 300.2164376 +22.4447520     717.0963     72.01259      1.878     4.70     6.324406     20.32211      55.9501        14     1.123     1.028  38.29   0
       355    715.8285     35.7165 300.3950344 +22.6151827     586.5048     72.03094      1.645     4.00     6.643252     20.32211     58.26122        13     1.076     0.879 -25.56   0
       356    664.5085     31.5288 300.3803922 +22.5986272     2730.636     72.19587      1.649     3.13     6.662947     20.32211     286.3926        30     1.326     1.201  75.95   0
       357    679.6636     30.7530 300.3853676 +22.6029375     917.1236     72.04928      1.864     3.98     6.698012     20.32211     81.09398        16     1.342     0.871  40.13   0
       358    306.1968     32.1640 300.2685844 +22.4915869     406.0346     72.04928      1.606     4.39     6.243967     20.32211     49.64986         6     1.077     0.508 -42.22   0
       359    751.0117     23.3047 300.4100249 +22.6221354     1401.851     71.95751      1.437     2.69     6.749847     20.32211     188.0558        22     1.126     1.042  79.12   0
       360    545.0573    991.4741 300.0316059 +22.8386129     2328.589     72.08596      2.079     5.44     4.449484     20.32211     134.5581        34     1.577     1.408  46.84   0
       361    293.7880   1011.9977 299.9467060 +22.7691454     1453.885     71.84723      2.877     6.64     5.639014     20.32211     83.00884        30     1.576     1.489  14.38   0
       362     67.2951     15.7978 300.1995717 +22.4153534     562.5408     71.93914      2.043     4.35     6.423349     20.32211     44.95441         7     1.132     0.476 -57.96   0
       363      3.2218   1012.7673 299.8561050 +22.6821781     1021.957     65.59732      5.692     6.87    -4.777679     20.32211     36.93757        10     1.368     0.966 -33.46  25
       364    129.4337   1007.2747 299.8971222 +22.7184812     1584.516     72.03094      3.630    13.69     88.23447     20.32211      49.1838        44     2.761     1.888 -26.38  18
       365    160.4785    997.3681 299.9099970 +22.7249567     1165.119     72.01259      2.470     5.20     81.02019     20.32211     46.00655         9     1.570     0.486  14.15   3
       366    174.2521   1001.9133 299.9128021 +22.7303924     1897.425     72.06762      4.325    15.19     85.10658     20.32211     68.94308        53     3.253     2.130 -29.33   3
       367    169.4469    996.8693 299.9129481 +22.7275046     2974.935     72.01259      5.617    24.84     80.78858     20.32211     66.82117        98     4.821     3.553  75.70  19
       368    170.7604    992.1658 299.9148861 +22.7265503     2271.517     72.06762      5.701    15.49      76.2552     20.32211     65.91189        50     3.833     1.740 -58.36   3
