#   1 NUMBER                 Running object number                                     
#   2 X_IMAGE                Object position along x                                    [pixel]
#   3 Y_IMAGE                Object position along y                                    [pixel]
#   4 ALPHA_J2000            Right ascension of barycenter (J2000)                      [deg]
#   5 DELTA_J2000            Declination of barycenter (J2000)                          [deg]
#   6 FLUX_APER              Flux vector within fixed circular aperture(s)              [count]
#   7 FLUXERR_APER           RMS error vector for aperture flux(es)                     [count]
#   8 FLUX_RADIUS            Fraction-of-light radii                                    [pixel]
#   9 FWHM_IMAGE             FWHM assuming a gaussian core                              [pixel]
#  10 BACKGROUND             Background at centroid position                            [count]
#  11 THRESHOLD              Detection threshold above background                       [count]
#  12 FLUX_MAX               Peak flux above background                                 [count]
#  13 ISOAREA_IMAGE          Isophotal area above Analysis threshold                    [pixel**2]
#  14 A_IMAGE                Profile RMS along major axis                               [pixel]
#  15 B_IMAGE                Profile RMS along minor axis                               [pixel]
#  16 THETA_IMAGE            Position angle (CCW/x)                                     [deg]
#  17 FLAGS                  Extraction flags                                          
         1    499.1899     15.7253 300.3326501 +22.5431751     981.6825     72.39431      1.557     3.67     5.374312     20.42463     110.7741        14     1.167     0.813 -80.04   0
         2    402.8412     13.6810 300.3033067 +22.5137530     849.7145     72.35742      1.580     3.74     5.218656     20.42463     105.3469        13     1.114     0.831  75.46   0
         3    742.3223      4.6058 300.4120268 +22.6127129     639.3492     70.71526      1.513     3.55     5.792239     20.42463     80.00389        11     1.037     0.820  40.56  16
         4    174.3223      3.7125 300.2354193 +22.4424773     3696.979     67.96219      1.681     3.20     6.019536     20.42463     381.2768        35     1.359     1.228  27.35  24
         5    597.1821      1.3091 300.3678513 +22.5683484     256.9113     56.10495      1.118     2.45     5.585102     20.42463     46.18831         5     0.725     0.438  14.89  24
         6    298.1328   1012.4063 299.9464567 +22.7692029     1391.101     72.35742      3.100     5.51     6.906578     20.42463     82.23447        26     1.470     1.400  48.69   0
         7     89.0221   1010.4390 299.8820598 +22.7058951     5101.255     72.43118     18.287   115.03     79.30754     20.42463     152.9185      2512    20.335    18.847 -67.15  27
         8    201.8898   1005.7224 299.9186906 +22.7384116     884.3603     72.54168      1.552     3.39     86.66901     20.42463     53.19403         5     1.361     0.244 -17.99   3
         9    201.6479   1001.9897 299.9198297 +22.7372686     1541.411     72.41275      3.535    11.33     82.97762     20.42463      54.0543        31     2.633     1.359  82.30   3
        10    179.4786   1000.2764 299.9134921 +22.7301255     1938.134     72.50487      4.365    12.93     82.65626     20.42463     67.51768        45     2.684     2.036  89.86   3
        11    173.9889    995.8193 299.9132348 +22.7272001      2935.64     72.35742      5.902    24.74     79.44954     20.42463     66.35815       141     4.652     3.652  75.17  19
        12     79.9991    952.7615 299.8980167 +22.6866503     6769.335     72.41275     25.979     1.20     30.46839     20.42463     1413.682      3128    20.909    12.252 -25.71  19
        13    233.1881   1000.2127 299.9302184 +22.7462220     1596.095     72.30206      3.030    11.27     70.53342     20.42463     52.66254        38     2.103     1.932 -22.42   1
        14    203.4342    986.2248 299.9255138 +22.7332835     3819.596     72.41275      7.674    23.51     68.12663     20.42463     85.20717       254     5.503     4.363  35.64   3
        15    223.2519    984.2706 299.9323137 +22.7386687     5032.688     72.39431      8.241    25.89     64.51469     20.42463     116.7233       372     5.848     5.066 -63.31   3
        16    735.1286   1015.5067 300.0815547 +22.9011293     491.1982     72.50487      1.893     4.22     3.572328     20.42463     29.97644         6     1.030     0.493  -5.14   0
        17    549.7742    991.5781 300.0315774 +22.8386959     2383.685     72.37587      2.000     4.92     3.922435     20.42463     135.9012        33     1.453     1.387   3.20   0
        18    737.6003    988.3057 300.0911754 +22.8940604     772.6831     72.26512      2.697     4.77     3.833116     20.42463     40.44516        10     1.158     0.853 -51.31   2
        19    636.3083    986.9430 300.0600465 +22.8633081     9105.161     72.44961      2.185     4.97     3.887115     20.42463     482.4071        53     1.702     1.525  15.05   3
        20    641.9554    984.7065 300.0625339 +22.8643590     9331.501     72.41275      2.102     5.10     3.901674     20.42463     507.8376        53     1.691     1.480  47.80   3
        21     78.1208    918.3112 299.9086369 +22.6762083     4252.514     72.52328     23.686    65.84     12.40958     20.42463     85.10093      1357    16.776     7.171 -34.36  19
        22    167.6933    968.2900 299.9202321 +22.7174166     1234.412     72.56008      4.430    11.52      55.3434     20.42463     44.26184        24     2.638     1.402 -79.61   3
        23    169.2042    978.5087 299.9173780 +22.7208004     1429.992     72.30206      6.070    11.32     64.88777     20.42463      64.5344        32     2.788     1.280  69.77   3
        24    171.7922    976.5080 299.9188336 +22.7210031     1586.133     72.30206      6.184    11.46     62.83915     20.42463     63.01535        31     2.432     1.522  56.28   3
        25      2.5600   1010.7875 299.8550729 +22.6800445     1080.556     62.83887      5.488     8.17    -13.07282     20.42463     44.26532        15     1.900     0.981   9.84  27
        26    929.2634    970.7772 300.1566572 +22.9464570     800.1845     72.37587      2.092     8.22     4.225476     20.42463     47.40189        17     1.529     1.235  12.86   0
        27    134.1689   1009.4556 299.8964161 +22.7191616     1280.808     72.41275      3.607     8.42     89.68991     20.42463     52.87035        21     2.181     0.907 -12.67   2
        28    240.8317    973.9412 299.9411424 +22.7409802     7635.292     72.41275      9.691    35.55     42.69871     20.42463     165.0096       813    11.524     4.985  66.40  18
        29    358.3503    998.3381 299.9697734 +22.7832306     527.9279     72.44961      1.882     6.59     4.509736     20.42463     40.62072        11     1.451     0.840 -35.63   0
        30    654.5790    953.9628 300.0764692 +22.8593171     6917.409     72.41275      2.017     4.53     4.208512     20.42463     378.0824        54     1.585     1.567  26.56   0
        31    246.6330    948.0015 299.9513846 +22.7352803    -7.738769     72.35742      1.088     2.47     21.67156     20.42463     47.34303         5     0.840     0.480 -86.64   0
        32    134.7776   1005.6038 299.8978585 +22.7182398     1034.839     72.35742      2.648     5.86     87.14638     20.42463     54.79954        11     1.232     0.783 -47.16   3
        33    562.9679    944.6390 300.0509569 +22.8291790     1587.169     72.43118      2.040     5.14     4.454786     20.42463     91.78287        27     1.444     1.277  74.46   0
        34    209.9202   1008.3394 299.9203369 +22.7415715     586.8641     72.44961      2.879     3.85     88.07211     20.42463     37.83276         5     0.898     0.473  -0.32   2
        35    456.9431    941.1265 300.0190774 +22.7963828     984.3369     72.43118      1.912     5.71     4.300308     20.42463     66.75944        23     1.345     1.305 -37.90   0
        36    387.4839    939.1071 299.9981091 +22.7749746     6552.829     72.57848      1.986     4.43     4.420619     20.42463     391.0992        48     1.565     1.477   6.82   0
        37    208.8858   1000.6949 299.9225021 +22.7390689     1182.254     72.57848      5.417    15.53     81.60043     20.42463     43.03072        23     3.371     1.990 -64.35   3
        38    698.8788    928.9725 300.0984055 +22.8654194       371.58     72.41275      2.071     3.99     4.385618     20.42463     38.30447         5     0.813     0.560 -59.62   0
        39    420.4298    926.5757 300.0124413 +22.7812584     656.8695     72.39431      1.751     4.19     4.368658     20.42463     52.28168         9     1.149     0.590 -13.30   2
        40    933.8621    918.2946 300.1751644 +22.9327579     2013.904     72.48645      2.043     5.05      4.43494     20.42463     116.5323        33     1.545     1.331  45.40   0
        41      3.6181    992.6605 299.8612986 +22.6751660     1366.997     67.52868     11.992    15.05    -8.894768     20.42463     43.57786        35     2.897     2.173  73.49  27
        42    722.4425    906.6562 300.1130094 +22.8660728     794.0322     72.37587      2.117     7.98     4.403005     20.42463     43.80806        17     1.729     1.030  48.68   0
        43    757.8165    901.1461 300.1258301 +22.8750904      1074.68     72.37587      1.921     5.34     4.387541     20.42463     73.16317        21     1.450     1.143  35.99   0
        44    534.2014    901.7781 300.0559360 +22.8082523      371.599     72.32052      2.051     6.79     4.671839     20.42463     31.58741         9     1.304     0.990 -28.32   0
        45    208.7996    900.6093 299.9550287 +22.7103371     663.3577     72.20968      4.206     4.18     11.02816     20.42463     25.02905         5     1.507     0.331 -40.83   1
        46      6.3067   1006.8120 299.8575305 +22.6800296      1456.85     72.33897     11.800    20.07    -9.225478     20.42463     36.46205        55     4.989     2.244  74.79  19
        47      1.9329   1002.4987 299.8575745 +22.6774803     940.5606      59.7685      8.819     9.40    -12.40528     20.42463     39.42986        19     2.569     0.961 -84.84  27
        48    779.7975    894.7121 300.1347765 +22.8798288     11428.62     72.32052      1.943     4.28     4.400893     20.42463     601.8361        62     1.617     1.514 -69.35   0
        49    211.9484    895.8655 299.9575507 +22.7099209     1005.878     72.43118      7.938     8.70     10.09169     20.42463      33.8531        10     1.687     1.254  34.89   1
        50      5.0929   1021.9327 299.8522342 +22.6839995     1305.016     64.80502      6.432    13.23    -12.67288     20.42463     44.50209        28     2.445     1.992   8.98  27
        51    825.0071    894.7817 300.1488529 +22.8933940     569.0599     72.35742      1.782     5.86     4.409336     20.42463     42.22707        10     1.209     0.838  20.10   0
        52      1.5700   1019.4998 299.8519309 +22.6822447     1049.998     57.67709      4.459     9.49    -15.71255     20.42463     45.67756        28     3.190     0.788  86.65  27
        53     91.6925    886.3841 299.9232381 +22.6711247     1127.373     72.32052      7.370     6.83     9.614501     20.42463     61.21315        20     1.788     1.254 -82.03   0
        54    485.0737    883.2980 300.0466445 +22.7882199     540.1804     72.54168      2.023     5.56     4.560558     20.42463     35.03581        10     1.232     0.709 -29.41   0
        55    831.6496    882.7791 300.1548280 +22.8919363     434.2516     72.39431      1.804     5.13     4.424453     20.42463     36.06535         6     1.089     0.684   9.46   0
        56    788.3176    876.9225 300.1432186 +22.8772720     1362.667     72.50487      1.817     4.59     4.424018     20.42463     102.5838        25     1.378     1.280 -61.06   0
        57     81.1712    875.4402 299.9235257 +22.6648295     1323.345     72.41275      0.656    -0.26     7.644151     20.42463     738.0468         6     1.057     0.354  74.56   0
        58    640.8666    873.9489 300.0982192 +22.8322342     371.7645     72.41275      1.427     2.81     4.705484     20.42463     41.72855         5     0.779     0.499 -37.09   0
        59    826.6367    870.4978 300.1572584 +22.8869067     981.7568     72.39431      2.419     5.46     4.440829     20.42463      51.6359        19     1.306     1.073  37.31   0
        60    873.6356    861.8270 300.1747382 +22.8984949      645.906     72.41275      2.163     3.80     4.470651     20.42463     48.28912         7     0.785     0.699 -12.23   2
        61    725.9150    860.7284 300.1290276 +22.8539237     714.5712     72.50487      1.856     5.18     4.454922     20.42463     47.07862        17     1.263     1.037 -89.93   0
        62    737.6073    857.9418 300.1335790 +22.8566268     637.4215     72.37587      1.715     4.72     4.425842     20.42463     51.19296        12     1.031     0.959 -62.24   0
        63    438.7029    856.8143 300.0408164 +22.7667164     4337.255     72.28359      1.792     3.78     4.541011     20.42463     320.8636        38     1.397     1.347  60.88   0
        64    483.1439    845.2788 300.0584057 +22.7767282     397.5668     72.43118      1.849     4.49     4.643734     20.42463     34.88428         6     0.957     0.600  63.79   0
        65    217.8166    845.1984 299.9758504 +22.6971461     394.2057     72.28359      2.227     5.83     5.894561     20.42463     39.58231         7     1.295     0.738  75.32   0
        66    164.0555    842.6747 299.9599498 +22.6802966      765.514     72.43118      1.971     6.15      7.84558     20.42463     59.54422        14     1.354     1.000 -50.63   0
        67    141.0114    839.3463 299.9538658 +22.6724294     1573.485     72.39431      1.974     5.17     7.234268     20.42463     121.3931        27     1.438     1.317  20.97   0
        68   1012.9257    828.8726 300.2289197 +22.9307418     2147.233     72.44961      2.035     4.80     4.413439     20.42463     123.3443        34     1.462     1.435  36.95   0
        69     15.8187    828.9694 299.9183204 +22.6318945     479.8983     72.39431      2.177     5.37     5.363163     20.42463     27.27503         6     1.324     0.614  74.71   0
        70    967.1456    827.4016 300.2151092 +22.9166101       2124.5     72.32052      2.019     4.80     4.534898     20.42463     121.2258        36     1.547     1.417  58.12   0
        71    672.6729    826.7029 300.1234941 +22.8281984     482.7839     72.52328      1.981     6.72     4.652941     20.42463     32.67878         8     1.453     0.872  67.33   0
        72    750.5016    821.0173 300.1496048 +22.8498845     600.7844     72.30206      1.696     5.38     4.568398     20.42463     54.66992        15     1.147     1.043 -51.55   0
        73    152.0004   1008.4197 299.9022978 +22.7242154     829.0645     72.32052      2.526     7.68     90.12791     20.42463     37.07943        10     1.804     0.915 -80.33   0
        74    618.7350    814.9587 300.1105025 +22.8086628     4947.284     72.35742      1.759     3.71      4.79122     20.42463     363.4305        38     1.368     1.323  86.77   0
        75    109.3052    814.8613 299.9519669 +22.6558949      395.886     72.48645      1.729     5.02     5.842138     20.42463     38.74029         7     1.072     0.666  80.77   0
        76    420.9886    811.8374 300.0499236 +22.7484959     609.6371     72.37587      1.603     6.05     4.609411     20.42463     46.65475        14     1.280     0.998  36.43   0
        77    169.0541    808.7943 299.9725183 +22.6720766     1337.753     72.39431      1.762     4.29     5.890408     20.42463     114.2589        23     1.306     1.186   8.18   0
        78    639.3416    807.4397 300.1193684 +22.8126786     729.6891     72.39431      1.752     3.99     4.740005     20.42463     85.55039        15     1.125     1.046  -4.75   0
        79    188.3311    805.8000 299.9794870 +22.6769994     481.6237     72.33897      1.806     3.34     5.630793     20.42463     58.54184         5     0.757     0.676  23.25   0
        80    794.8518    794.7740 300.1719659 +22.8556319      4170.13     72.41275      1.800     3.89     4.640719     20.42463     276.4834        41     1.412     1.383 -42.93   0
        81   1011.8641    795.2554 300.2395179 +22.9207620     1194.169     72.44961      2.183     5.18     4.395188     20.42463     68.43351        23     1.515     1.074  15.14   0
        82    203.3763    789.0231 299.9896198 +22.6766982     509.4164     72.35742      1.666     5.99     5.394968     20.42463     35.41755        11     1.313     0.768 -33.15   0
        83    511.6517    787.1999 300.0861655 +22.7685998     657.0387     72.33897      1.838     4.83     4.840631     20.42463     55.87889         9     1.188     0.556 -14.47   0
        84    158.4024    784.8063 299.9770029 +22.6620000     998.4255     72.20968      1.807     4.15     5.425595     20.42463     86.53909        16     1.205     0.955  68.78   0
        85    307.7964    777.1601 300.0259627 +22.7046065     53693.38     72.41275      1.808     3.66     4.990402     20.42463     4138.625       105     1.588     1.527  23.23   0
        86    565.7451    776.3723 300.1065353 +22.7817025     1645.839     72.39431      1.759     3.65     4.972022     20.42463     124.8674        25     1.231     1.201  35.14   0
        87    978.6613    775.7333 300.2355006 +22.9052094     922.9639     72.43118      1.831     5.62     4.699111     20.42463     69.10593        18     1.322     1.074  47.48   0
        88    236.8080    775.1740 300.0045208 +22.6827503     409.9774     72.39431      1.608     3.37     5.301264     20.42463      40.5856         5     0.971     0.338  47.74   0
        89    594.5611    772.4775 300.1167793 +22.7892194     865.9583     72.37587      1.721     4.28     4.923308     20.42463      80.5858        17     1.162     1.060  25.28   0
        90    605.5068    770.5621 300.1208124 +22.7919493     645.2897     72.39431      1.770     6.25     4.905297     20.42463      54.2705        12     1.337     0.820  83.91   0
        91    925.3011    767.8822 300.2214005 +22.8869749      434.011     72.56008      1.930     7.08     4.869703     20.42463     27.75687         9     1.492     0.941  88.37   0
        92    710.7875    767.0625 300.1547627 +22.8224882     317.3755     72.37587      1.403     5.23     4.701905     20.42463     45.50762         7     1.010     0.765  -9.60   0
        93    505.9024    764.8013 300.0916551 +22.7604456     291.2794     72.30206      1.343     4.59      4.86562     20.42463     35.76569         6     0.933     0.642 -41.88   0
        94    748.3802    757.4579 300.1696047 +22.8309909     805.1022     72.39431      1.807     4.00     4.640719     20.42463     62.40671        17     1.180     1.004  47.10   0
        95    357.5266    754.4384 300.0488249 +22.7129948     31648.94     72.35742      1.753     3.55     4.459002     20.42463     2823.694        80     1.490     1.454  39.82   0
        96    371.9086    755.0217 300.0531119 +22.7174738      2126.57     72.32052      1.786     3.61     4.519819     20.42463     170.7195        24     1.199     1.191  38.70   0
        97    247.9336    753.5712 300.0150030 +22.6798873     268.4336     72.39431      1.408     4.69     5.235277     20.42463     32.74719         5     1.041     0.600  70.61   0
        98    880.6407    750.5561 300.2130980 +22.8686217     2766.692     72.46803      1.799     3.82     4.751637     20.42463     192.9591        33     1.359     1.303 -89.17   0
        99    368.5481    748.6436 300.0541388 +22.7146356      699.293     72.43118      2.086     4.71     4.482846     20.42463       49.406        13     1.145     0.829  38.25   0
       100    638.6098    746.5356 300.1389372 +22.7949677      913.168     72.37587      1.640     4.06     4.922327     20.42463     78.46281        20     1.205     1.113  17.57   0
       101    475.2953    746.5219 300.0880639 +22.7460238     414.9516     72.52328      1.469     4.70     4.817739     20.42463     40.00982         9     0.987     0.702 -33.57   0
       102    240.0287    746.1202 300.0149653 +22.6753788     705.0974     72.41275      1.625     4.80     5.232119     20.42463     59.62299        18     1.242     1.115  22.06   0
       103     45.3373    741.9296 299.9557847 +22.6157861      538.447     72.43118      1.390     4.59     5.210189     20.42463      53.6539         9     1.278     0.650  51.20   0
       104    485.9330    741.4419 300.0930277 +22.7477535      771.609     72.37587      1.379     3.26     4.865482     20.42463     81.56969        12     1.072     0.748  25.37   0
       105    887.0425    738.2477 300.2190956 +22.8670017     550.8228     72.43118      1.785     4.30     4.794307     20.42463     57.97851        13     1.233     0.901  -6.52   0
       106    634.7791    738.2953 300.1404215 +22.7914531     420.1125     72.30206      1.756     4.13     4.957814     20.42463     34.38486         6     0.753     0.647  75.88   0
       107    387.5844    737.8292 300.0635791 +22.7172378     355.2301     72.39431      1.554     4.78     4.549136     20.42463     43.39133         7     1.315     0.492 -16.07   0
       108    432.0333    736.4509 300.0778654 +22.7301656     388.6516     72.41275      1.365     3.69     4.756917     20.42463     43.96407         8     0.950     0.624 -41.95   0
       109     73.3576    735.4750 299.9665923 +22.6223395     377.7261     72.37587      1.561     6.07     5.231278     20.42463     37.83592         8     1.289     0.804 -32.36   0
       110    864.1132    733.5082 300.2134828 +22.8587731     426.9786     72.56008      1.676     3.82      4.69177     20.42463     38.27728         6     0.841     0.498  -3.50   0
       111    237.8145    730.2971 300.0194185 +22.6701740     508.5911     72.28359      1.733     5.75     5.201326     20.42463      48.8391        10     1.327     0.781 -36.38   0
       112    561.6903    721.2635 300.1231828 +22.7646618     284.5728     72.48645      1.284     3.81     5.100613     20.42463     42.24018         6     1.041     0.401  76.13   0
       113    530.8795    719.3159 300.1142175 +22.7548699     516.3613     72.54168      1.586     4.27     5.078347     20.42463      48.0825        11     0.963     0.850 -35.78   0
       114    552.5737    716.7355 300.1218141 +22.7606297     1217.331     72.37587      1.509     3.19     5.125607     20.42463     120.0756        19     1.108     1.061  65.20   0
       115    343.9786    736.7821 300.0503461 +22.7038652     355.9443     72.39431      1.610     2.90     4.452723     20.42463     39.89837         5     0.793     0.482  56.70   0
       116    947.1957    715.9158 300.2451228 +22.8785952     4588.553     72.32052      1.802     3.80     5.045838     20.42463      291.634        36     1.362     1.345 -16.78   0
       117    472.7775    715.9432 300.0972171 +22.7364893     342.4215     72.41275      1.432     3.70     4.901821     20.42463     50.23538         8     1.014     0.747 -54.61   0
       118    935.5618    707.2958 300.2442936 +22.8726342     1657.574     72.37587      1.752     3.76     5.075029     20.42463     128.6947        24     1.287     1.128  31.10   0
       119    298.6692    700.8281 300.0479285 +22.6799617     978.2986     72.37587      1.798     4.13     4.892961     20.42463     79.17608        19     1.317     1.001 -26.84   0
       120    762.0712    698.5142 300.1930297 +22.8181569     2512.582     72.50487      1.675     3.46     4.769628     20.42463     207.5678        29     1.493     1.093   8.21   0
       121    966.8132    697.4349 300.2572507 +22.8791563     1782.973     72.37587      1.848     4.04     4.994875     20.42463     136.2796        26     1.444     1.207  14.90   0
       122    981.4036    687.5992 300.2650006 +22.8806969     306.1341      72.1727      2.087     3.44     4.934096     20.42463     23.99703         5     1.081     0.316  68.70   0
       123    844.2726    684.1963 300.2233185 +22.8386604     511.0541     72.33897      1.617     6.03     4.988298     20.42463     39.69436        12     1.132     0.903  70.55   0
       124    147.1391    684.7113 300.0060271 +22.6299026     658.5177     72.46803      1.858     5.41     5.197952     20.42463     57.63805        14     1.316     1.013  -3.57   0
       125    880.4257    675.4885 300.2374260 +22.8469833     147934.3     72.33897      1.735     3.53     5.140927     20.42463     12048.88       166     1.581     1.549 -52.97   0
       126    642.7659    679.3815 300.1620549 +22.7769232      303.455     72.39431      1.382     4.71     5.187519     20.42463      34.3719         8     0.983     0.641 -19.16   0
       127    732.8680    675.6776 300.1913446 +22.8028486     704.1372     72.50487      1.509     3.24     4.867034     20.42463     78.09394        14     1.087     0.810  26.95   0
       128    913.4207    668.4919 300.2499938 +22.8548514     439.4841     72.32052      1.658     4.84      5.15336     20.42463     48.48068         7     1.012     0.655  36.41   0
       129    566.6680    664.2069 300.1432730 +22.7497661     1620.676     72.35742      1.522     3.08     5.306941     20.42463     166.3731        20     1.128     1.053  86.69   0
       130    747.8936    661.5828 300.2006089 +22.8032990     9441.209     72.32052      1.617     3.10     4.857828     20.42463     902.6711        47     1.323     1.292  60.19   0
       131    249.3837    656.3745 300.0470359 +22.6524264     5035.655     72.41275      1.712     3.26     4.980241     20.42463     519.2405        38     1.362     1.269  55.10   0
       132    331.5778    654.5963 300.0731903 +22.6765552     1250.235     72.35742      1.682     3.53     4.756244     20.42463     120.4983        21     1.267     1.063   8.43   0
       133    206.9824    652.3388 300.0351564 +22.6385559     512.6277     72.33897      1.600     5.44     5.095336     20.42463     52.37505        11     1.090     0.784 -21.86   0
       134    539.7701    650.4423 300.1393652 +22.7377536     746.9055     72.43118      1.634     3.31     5.315105     20.42463     71.48344        11     1.007     0.745  43.25   0
       135    531.3931    642.3131 300.1393966 +22.7329088     3173.853     72.30206      1.527     2.91     5.299615     20.42463     319.7599        25     1.139     1.117 -21.97   0
       136    521.6520    636.0292 300.1384036 +22.7281854     1428.355     72.41275      1.539     3.24     5.290286     20.42463     139.8666        23     1.236     1.112 -58.03   0
       137    450.2284    635.5983 300.1162992 +22.7066602     289.8049     72.35742      1.370     3.49     5.106609     20.42463     34.76406         5     0.814     0.676  62.39   0
       138    915.0637    634.3586 300.2615961 +22.8455315     351.4444     72.37587      1.443     3.16      5.15336     20.42463     47.98655         7     0.769     0.640 -12.00   0
       139    432.8105    633.1780 300.1116619 +22.7007456     201.8416     72.37587      1.061     3.96     5.062482     20.42463      35.3362         6     0.781     0.574 -53.85   0
       140    184.5386    632.0875 300.0347537 +22.6260145     734.7509     72.48645      1.815     6.24     5.057466     20.42463      60.6026        12     1.156     1.086 -14.67   0
       141    199.1275    630.5182 300.0398012 +22.6299381     711.2453     72.52328      1.573     4.44     5.034489     20.42463     76.23791        15     1.150     1.037 -80.51   0
       142    968.4603    627.7579 300.2804036 +22.8596186     506.7616     72.37587      1.503     4.80     4.966535     20.42463     53.61096        10     1.314     0.642  37.41   0
       143    225.0115    627.3240 300.0488904 +22.6367812     584.8691     72.41275      1.692     4.68     4.980986     20.42463     45.86868        10     0.995     0.911 -63.30   0
       144    545.2490    626.4160 300.1488771 +22.7324940     478.3439     72.43118      1.398     4.24     5.334794     20.42463     50.00718         9     0.957     0.759  54.85   0
       145    446.3107    625.7350 300.1182833 +22.7026537     2021.584     72.52328      1.693     3.09     5.142546     20.42463     205.8105        26     1.261     1.147  37.38   0
       146    255.9384    627.5123 300.0584509 +22.6461066     416.0378     72.48645      1.495     4.05     4.882495     20.42463     39.18694         5     1.179     0.398 -15.81   0
       147   1022.2944    623.5468 300.2985752 +22.8745215      710.918     63.62003      1.616     3.33     4.708053     20.42463     72.10616        14     0.990     0.920  22.42  24
       148    100.2553    620.4564 300.0123218 +22.5974052     20020.79     72.44961      1.862     3.58      5.17766     20.42463     1921.637        73     1.608     1.470  28.91   0
       149     21.7273    621.9751 299.9874171 +22.5742918      777.497     72.43118      1.954     4.85      5.37991     20.42463     65.02776        13     1.341     0.950 -55.97   0
       150    531.4370    620.9927 300.1463361 +22.7267982       1116.4     72.39431      1.646     3.75     5.324613     20.42463     98.52246        17     1.168     0.943 -62.20   0
       151    566.8631    620.6147 300.1574951 +22.7373030     279.2694     72.35742      1.377     5.03      5.33263     20.42463     40.27749         7     1.091     0.688  36.79   0
       152    949.2132    607.4836 300.2809829 +22.8480282      1046.16     72.33897      1.616     3.67     5.060017     20.42463     102.1445        17     1.193     0.930  53.73   0
       153    815.8631    605.9636 300.2398735 +22.8076690     466.2991     72.39431      1.542     4.95     4.931369     20.42463     46.52754         9     1.042     0.666 -59.19   0
       154     46.2854    604.8134 300.0006243 +22.5767324     1622.723     72.33897      2.211     5.46     5.365582     20.42463     107.3904        31     1.672     1.352 -59.35   0
       155    111.9940    604.7616 300.0210692 +22.5964210     509.4467     72.43118      1.956     6.30     5.142491     20.42463     44.52601         8     1.633     0.683  35.57   0
       156    494.7774    601.9099 300.1411157 +22.7103335     411.0161     72.32052      1.381     2.92     5.377236     20.42463      52.2679         8     0.920     0.589  22.16   0
       157    888.1554    599.9599 300.2643747 +22.8275872     1081.405     72.46803      2.447     9.67      5.16568     20.42463     65.78854        28     2.217     1.176   4.97   0
       158    451.3565    593.9896 300.1301657 +22.6950487     773.1036     72.39431      1.528     2.89     5.282397     20.42463     94.88016        13     1.058     0.751   6.82   0
       159    599.5700    592.7755 300.1767284 +22.7391032     458.7824     72.39431      1.669     3.73      5.43154     20.42463     62.71775         7     1.048     0.466  39.96   0
       160    646.6603    591.1309 300.1919374 +22.7527356     591.4343     72.43118      1.668     4.79     5.300584     20.42463     54.42294         9     0.971     0.670  22.28   0
       161    616.9899    590.7708 300.1828078 +22.7437452      652.558     72.39431      1.714     3.13     5.408751     20.42463     70.49204        11     1.032     0.835  47.72   0
       162    495.7157    589.6444 300.1453917 +22.7070916     985.3893     72.35742      1.631     3.55     5.443748     20.42463     102.3778        18     1.262     0.931 -70.89   0
       163    929.4915    585.5494 300.2819532 +22.8358185     3522.363     72.43118      1.714     3.18     5.191187     20.42463     309.8975        38     1.418     1.282 -55.68   0
       164    461.1348    585.2540 300.1360479 +22.6954696     1624.328     72.43118      1.434     2.86     5.355996     20.42463      162.315        22     1.096     1.028  60.24   0
       165    810.8721    581.6632 300.2462098 +22.7991899     327.3609     72.43118      1.590     3.47     4.943066     20.42463     32.35405         5     0.794     0.437  15.68   0
       166     23.1692    578.6730 300.0019284 +22.5622995      5064.86     72.39431      1.897     3.62     5.675671     20.42463     528.1344        41     1.493     1.384  29.38   0
       167    968.9848    575.7432 300.2974631 +22.8448202     315.0078     72.37587      1.478     4.83     4.982504     20.42463     36.68879         8     0.877     0.753  -1.45   0
       168    490.0369    576.1944 300.1479913 +22.7015269     324.5773     72.43118      1.272     3.84      5.51278     20.42463     39.68381         6     0.946     0.447 -33.72   0
       169    324.5633    571.8695 300.0978774 +22.6507009     9102.285     72.37587      1.585     3.02     4.892619     20.42463     1008.535        42     1.327     1.225  54.03   0
       170    446.9916    569.0255 300.1369142 +22.6865709     9072.634     72.39431      1.485     2.98     5.322439     20.42463     902.7227        40     1.273     1.167  62.50   0
       171    943.4081    560.5641 300.2944108 +22.8328003     12590.18     72.39431      1.690     3.40     5.148112     20.42463     1120.636        53     1.425     1.310  65.40   0
       172    858.7760    563.2479 300.2671330 +22.8082381     1823.568     72.41275      1.575     2.96     5.182694     20.42463     186.7141        25     1.220     1.127  63.69   0
       173    507.6125    558.5871 300.1591835 +22.7017346     11658.76     72.32052      1.528     2.83     5.639751     20.42463     1387.532        54     1.324     1.261  54.21   0
       174    234.9903    554.0255 300.0758000 +22.6187310     1433.992     72.39431      1.617     3.00     4.879171     20.42463     146.8989        22     1.245     1.118 -31.53   0
       175    677.0018    554.5906 300.2132617 +22.7513229     460.2742     72.20968      1.266     3.38     5.288869     20.42463     63.19639         8     0.954     0.590  41.28   0
       176    393.2710    553.7986 300.1251327 +22.6661012     216.8324     72.32052      1.358     4.21     5.110531     20.42463     30.91284         6     0.766     0.661  30.16   0
       177    482.0420    551.6431 300.1534743 +22.6920794     276.9341     72.50487      1.324     1.85     5.620291     20.42463     63.13735         6     0.740     0.479   1.85   0
       178    439.2490    546.7513 300.1417365 +22.6778535     4224.079     72.43118      1.473     2.82     5.309514     20.42463     492.9705        28     1.155     1.117  83.60   0
       179    782.4083    546.9857 300.2485949 +22.7807000     850.5932     72.30206      1.468     3.46     4.950193     20.42463     79.65137        14     1.153     0.793 -16.97   0
       180    417.6499    545.3068 300.1354803 +22.6709671      1339.18     72.44961      1.568     3.18     5.143224     20.42463     131.5972        19     1.066     1.036 -57.91   0
       181    171.6380    544.1677 300.0592945 +22.5969110     743.5656     72.43118      1.632     4.70     4.907161     20.42463      68.8269        15     1.243     0.976 -13.86   0
       182    859.2369    542.5220 300.2740076 +22.8024177     1653.583     72.35742      1.695     3.56     5.193944     20.42463     148.8916        23     1.349     1.061 -40.04   0
       183    106.0272    542.3806 300.0394715 +22.5767287     388.4506     72.39431      1.432     4.22     5.135394     20.42463     36.94802         7     0.750     0.676   8.07   0
       184    555.9485    534.3822 300.1821007 +22.7092603     206765.3     72.37587      1.495     2.75      5.72621     20.42463     23182.57       200     1.522     1.464 -10.70   0
       185    739.6342    539.4683 300.2376982 +22.7657321     747.2625     72.39431      1.339     2.95     4.966012     20.42463     105.2094        16     1.093     0.914  14.25   0
       186    379.6710    540.3113 300.1252785 +22.6581526     363.2697     72.56008      1.340     3.61     5.132144     20.42463     52.41496         9     0.903     0.735  -4.13   0
       187    832.9631    538.1699 300.2672251 +22.7933012     129.1567     72.41275      1.249     4.26     5.070743     20.42463     29.99798         5     1.028     0.516  32.83   0
       188    241.9742    534.1189 300.0844366 +22.6151091     3505.987     72.37587      1.606     3.19     4.891594     20.42463     306.6392        35     1.301     1.264 -75.85   0
       189    808.0667    530.5665 300.2619288 +22.7836621     493.9546     72.39431      1.528     3.32     4.974216     20.42463     61.32845         9     0.998     0.732  14.28   0
       190    587.8911    521.2283 300.1963240 +22.7150483     261.6548     72.37587      1.353     3.88     5.597315     20.42463     34.54139         6     0.926     0.467 -35.24   0
       191    446.5491    514.8569 300.1543659 +22.6708792     2747.771     72.44961      1.584     2.69     5.263902     20.42463     331.1531        34     1.624     1.042 -86.62   0
       192    290.6786    516.9330 300.1051710 +22.6247713     376.0922     72.50487      1.483     3.80     5.034392     20.42463     41.94131         5     0.981     0.445 -24.60   0
       193    603.0454    512.3562 300.2039268 +22.7170377      342.587     72.43118      1.722     4.28     5.532193     20.42463     31.09794         5     0.818     0.638  83.57   0
       194    858.0711    511.3870 300.2837541 +22.7931173     357.2259     72.39431      1.558     3.47     5.015725     20.42463       35.233         5     0.780     0.445  18.08   0
       195    677.6614    511.1008 300.2275892 +22.7390221     258.5815     72.46803      1.445     3.48     5.317144     20.42463     37.73913         5     0.817     0.428 -73.09   0
       196    764.1838    503.9594 300.2568830 +22.7628757     339.7187     72.41275      1.733     3.86     5.006385     20.42463     34.92627         6     0.952     0.450  54.94   0
       197    843.5897    501.1447 300.2825622 +22.7858377     1573.275     72.39431      1.486     3.08     4.959326     20.42463     174.4593        21     1.156     0.988  50.15   0
       198    714.8141    498.5399 300.2432494 +22.7465365     2678.692     72.35742      1.483     2.77     5.154437     20.42463      326.357        26     1.189     1.046  67.11   0
       199    958.6721    496.2254 300.3200669 +22.8188674     379.2069     72.41275      1.456     4.13     5.439436     20.42463     40.05267         6     0.730     0.666   5.97   3
       200    957.7931    491.9901 300.3211677 +22.8173864     821.5652     72.26512      1.506     3.68     5.462887     20.42463     77.28848        16     1.299     0.815  22.41   2
       201    924.0463    496.0497 300.3093182 +22.8084543     324.8835     72.41275      1.385     2.70     5.233085     20.42463     39.19535         5     0.616     0.596 -84.41   0
       202    619.8264    495.4153 300.2146564 +22.7171951     514.4543     72.41275      1.551     3.93       5.4271     20.42463     58.91431         9     0.955     0.751 -22.47   0
       203    502.2084    494.4015 300.1783413 +22.6816765     807.3997     72.20968      1.696     3.18     5.315053     20.42463     95.44884        14     1.136     0.878  35.96   0
       204    972.0750    492.7303 300.3253848 +22.8218732     1244.884     72.46803      1.590     3.33     5.550573     20.42463     119.8943        20     1.254     0.983  52.25   0
       205    843.8728    491.1194 300.2859055 +22.7830400      2362.22     72.52328      1.817     4.43      4.91829     20.42463     215.2619        31     1.606     1.117  76.35   0
       206    597.1425    487.8588 300.2100410 +22.7082303      855.644     72.46803      2.125     7.17     5.414362     20.42463     72.99993        16     2.019     0.714  87.57   0
       207    383.2839    489.2440 300.1429835 +22.6445680     341.6026     72.35742      1.337     2.66     5.215085     20.42463     63.09674         6     0.849     0.500 -44.67   0
       208    435.4542    487.9165 300.1596576 +22.6598166     374.2891     72.43118      1.503     3.15     5.151051     20.42463     50.76532         5     0.768     0.569  -9.99   0
       209    882.0310    486.1544 300.2994215 +22.7930339     4367.415     72.44961      1.533     2.99     4.973752     20.42463     437.1724        30     1.263     1.143 -86.80   0
       210    542.7933    482.1390 300.1949645 +22.6903094     350.2713     72.35742      1.432     5.02     5.377533     20.42463      39.4879         8     0.935     0.763   4.95   0
       211    973.6126    477.0865 300.3309437 +22.8178341     617.9185     72.33897      1.437     3.45     5.700403     20.42463     70.79598        15     1.097     0.895  19.64   0
       212    114.2037    476.1366 300.0635201 +22.5601649     1006.879     72.35742      1.653     3.44     5.085213     20.42463     101.8819        19     1.160     1.091  -9.12   0
       213    774.9078    470.6345 300.2710465 +22.7565062     337.1895     72.33897      1.495     3.39     5.011542     20.42463     36.41481         5     0.817     0.407  21.33   0
       214    106.8277    466.4633 300.0643665 +22.5551769     338.1766     72.39431      1.393     3.82     5.130358     20.42463     44.56194         7     0.886     0.576 -80.26   0
       215    969.9532    465.8946 300.3334350 +22.8135202     177.8199     72.41275      1.357     3.42     5.657588     20.42463     45.22047         7     0.976     0.622  62.40   0
       216    714.4686    460.5383 300.2554788 +22.7355098     471.5319     72.44961      1.429     3.78     5.184268     20.42463     57.10435         8     0.857     0.798  80.50   0
       217    603.5538    458.3572 300.2216160 +22.7016722      383.551     72.43118      1.218     3.04     5.356033     20.42463     60.23869         6     0.690     0.670 -83.01   0
       218    655.4417    456.4702 300.2383993 +22.7166673      794.503     72.35742      1.520     3.18     5.346022     20.42463      81.6947        16     1.139     0.863  42.10   0
       219    443.1673    454.8870 300.1727814 +22.6526385     166.4565     72.37587      1.477     5.18     5.163905     20.42463     33.80835         5     1.187     0.638 -22.23   0
       220    970.0324    449.4790 300.3387887 +22.8088225     528.6887     72.37587      1.403     3.35     5.652561     20.42463     60.70956        11     1.008     0.776 -16.19   0
       221    716.2744    448.7719 300.2598613 +22.7326680      839.637     72.41275      1.390     2.64     5.176386     20.42463     99.79837        14     0.940     0.857 -26.11   0
       222    873.3480    445.3086 300.3099726 +22.7786897     1030.153     72.44961      1.583     3.15      4.88878     20.42463     99.88678        16     1.067     0.917 -85.53   0
       223    857.8401    441.7589 300.3062868 +22.7730276     629.7036     72.46803      1.434     3.43     4.852536     20.42463     74.08148        10     0.948     0.688  60.97   0
       224    837.5828    441.3087 300.3001138 +22.7668352     388.3656     72.32052      1.415     3.53     4.887847     20.42463     38.64711         5     0.792     0.454 -72.83   0
       225    601.9968    439.2181 300.2273433 +22.6957055     3319.595     72.30206      1.423     2.81     5.332417     20.42463     357.7672        30     1.303     1.047  67.56   0
       226    962.5660    438.7493 300.3399414 +22.8035022     509.9189     72.41275      1.514     4.36      5.57695     20.42463     56.28157        10     1.079     0.700   8.76   0
       227     78.1796    430.3170 300.0671914 +22.5362129     273.0316     72.35742      1.228     2.31     5.398144     20.42463     52.21221         5     0.679     0.634  83.48   0
       228    442.0618    426.2951 300.1817175 +22.6440930     462.3482     72.48645      1.849     3.80     5.198915     20.42463     51.30394         7     0.998     0.651 -12.72   0
       229   1013.4503    418.5393 300.3623842 +22.8129135     1250.931     72.44961      1.655     3.70     6.101048     20.42463     111.6334        19     1.159     1.069  63.19   0
       230    971.7017    417.1900 300.3497906 +22.8000345     1049.047     72.28359      1.576     3.43     5.664423     20.42463     100.5816        16     1.100     0.922  47.21   0
       231    885.1731    418.4103 300.3223927 +22.7744933     532.6393     72.39431      1.347     2.46     4.954741     20.42463     69.47501         7     0.714     0.637 -12.49   0
       232    621.6879    415.2236 300.2412675 +22.6947054     274.3785     72.32052      1.383     2.88     5.333135     20.42463     49.65397         6     0.721     0.637 -14.87   0
       233    712.7210    413.3160 300.2702618 +22.7214115     1062.491     72.52328      1.403     2.93     5.190258     20.42463      123.981        16     1.025     0.927 -73.58   0
       234    508.3683    413.7491 300.2064399 +22.6603477     453.0237     72.43118      1.387     3.40     5.074845     20.42463     47.63733         8     0.902     0.627 -89.97   0
       235    216.5330    411.4695 300.1163351 +22.5722667     678.7393     72.44961      1.706     4.38     5.278764     20.42463     70.13705        13     1.279     0.974  22.86   0
       236    278.9404    407.0905 300.1371731 +22.5897088     3768.478     72.48645      1.542     3.01     5.359483     20.42463     355.3014        34     1.335     1.164  83.01   0
       237   1012.1367    405.7711 300.3661183 +22.8088475     4220.167     72.41275      1.616     3.46     5.957751     20.42463     350.6661        35     1.392     1.208  83.02   0
       238    226.1595    401.7723 300.1224768 +22.5723665     7465.632     72.43118      1.564     3.00     5.300716     20.42463     822.3926        42     1.341     1.222  32.61   0
       239    731.0388    402.3388 300.2795355 +22.7237392     223.9901     72.39431      1.140     4.62     5.137642     20.42463     27.57463         6     0.802     0.756  30.87   0
       240    604.6201    401.7609 300.2403180 +22.6857254     276.1794     72.43118      1.112     2.47     5.285749     20.42463     41.07058         5     0.694     0.467  75.12   0
       241    992.1972    396.7526 300.3628210 +22.8002876     1870.783     72.39431      1.651     3.52     5.665941     20.42463     165.0623        29     1.396     1.231 -85.09   0
       242    367.0411    396.0128 300.1681880 +22.6129209     4890.471     72.39431      1.482     3.01      5.30272     20.42463      499.281        34     1.302     1.150  38.40   0
       243    611.1818    392.8324 300.2452603 +22.6851238     18658.95     72.37587      1.447     2.76     5.281007     20.42463     2178.591        53     1.306     1.179  81.67   0
       244    628.6342    393.1081 300.2506096 +22.6904284     887.0821     72.33897      2.000     6.05     5.297255     20.42463     75.15107        18     1.652     0.917 -35.02   0
       245    238.5168    391.1406 300.1297714 +22.5730158     362.3365     72.48645      1.677     4.24     5.309655     20.42463     32.57663         5     0.891     0.574 -46.54   0
       246    855.1412    389.5690 300.3223840 +22.7572114     317.8566     72.41275      1.461     4.98     4.804451     20.42463     39.45067         6     1.118     0.629 -49.77   0
       247    808.6482    383.6111 300.3098151 +22.7415840     361.5218     72.41275      1.279     3.89     4.879751     20.42463     54.70641         7     1.028     0.588 -20.31   0
       248    231.3160    380.1160 300.1311085 +22.5676919     329.5853     72.52328      1.185     4.16      5.29759     20.42463     41.04698         6     0.761     0.650 -16.70   0
       249    944.7784    376.1188 300.3547174 +22.7801649     610.2302     72.35742      1.287     3.34     5.088828     20.42463     74.78239        12     1.211     0.657 -28.77   0
       250    481.9343    374.1021 300.2110727 +22.6410381     492.5089     72.48645      2.503     5.08      5.07553     20.42463     42.28423         7     1.110     0.658  71.30   0
       251    165.9145    372.8105 300.1131347 +22.5459965     2057.208     72.33897      1.567     3.02     5.138535     20.42463     208.6749        26     1.261     1.097  45.25   0
       252    551.8666    362.2621 300.2366985 +22.6585769     6805.186     72.43118      1.448     2.58      5.03385     20.42463     796.6568        40     1.290     1.128  88.40   0
       253    965.4685    362.9899 300.3654351 +22.7825783      1219.15     72.39431      1.509     3.27      5.12884     20.42463     120.8129        16     1.130     0.872  58.76   0
       254    266.6872    361.5997 300.1481217 +22.5729714     694.7049     72.28359      1.544     2.94     5.320337     20.42463     85.33432        12     0.898     0.888  71.51   0
       255    124.1874    355.0092 300.1059336 +22.5283802     485.2278     72.28359      1.545     4.30     5.333942     20.42463      54.5052        11     1.156     0.788 -32.08   0
       256    811.2834    354.1979 300.3201816 +22.7339141     356.7592     72.30206      1.539     3.70     4.821819     20.42463     41.15958         5     0.887     0.444  42.84   0
       257    665.7620    352.6155 300.2753213 +22.6899032     523.5164     72.41275      1.486     3.03     5.320122     20.42463     73.71664        12     1.031     0.813  71.16   0
       258    756.0645    351.1915 300.3039364 +22.7165236     1225.648     72.37587      1.635     3.30     5.085985     20.42463     131.8682        19     1.256     0.984  73.37   0
       259    458.5327    348.5051 300.2120901 +22.6266741     6259.931     72.54168      1.464     2.55       5.1616     20.42463     776.8982        33     1.184     1.112  79.53   0
       260    850.4747    343.2245 300.3359670 +22.7424861     1419.858     72.41275      1.590     3.09     4.778723     20.42463     137.5432        22     1.336     0.942  83.09   0
       261    948.0728    343.3552 300.3663771 +22.7717255     610.5767     72.37587      1.504     3.56     4.961643     20.42463     74.64619        11     0.958     0.899  36.93   0
       262    443.1948    337.4962 300.2108856 +22.6189172     508.7188     72.30206      1.405     4.17      5.23702     20.42463     54.05695         9     0.906     0.699  75.60   0
       263    525.8838    335.1532 300.2373998 +22.6430053     420.7035     72.37587      1.397     3.28     5.057238     20.42463     50.17175         8     0.920     0.714  26.69   0
       264    804.0504    333.3763 300.3246816 +22.7257615     265.7495     72.39431      1.437     4.24     4.883989     20.42463     31.70886         5     0.840     0.612  84.52   0
       265    823.3378    330.7833 300.3315387 +22.7307875     462.1053     72.37587      1.391     3.29     4.861945     20.42463     62.09945         8     0.918     0.593  81.69   0
       266    346.0100    327.6824 300.1838124 +22.5869901     2574.384     72.33897      1.510     2.80     5.292467     20.42463     277.8197        27     1.204     1.120  52.54   0
       267     64.6223    324.9497 300.0971652 +22.5018980     776.4323     72.39431      1.511     3.47     5.586667     20.42463      90.7448        14     1.039     0.938  55.06   0
       268    315.3572    317.0697 300.1777146 +22.5747594     29886.46     72.35742      1.527     2.83     5.297642     20.42463     3125.022        67     1.385     1.292  67.41   0
       269    850.2631    314.9016 300.3450903 +22.7342764     1316.656     72.48645      1.457     2.83     4.883284     20.42463     149.1741        16     1.030     0.888  35.11   0
       270     11.6287    304.7708 300.0872378 +22.4802218     4958.881     72.35742      1.802     3.78     5.708052     20.42463     450.2556        40     1.430     1.387  24.56   0
       271    765.2190    304.0875 300.3220736 +22.7057175     488.0582     72.33897      1.370     3.19     5.151023     20.42463      63.9325         8     0.977     0.673  30.80   0
       272    889.9862    303.8004 300.3610847 +22.7429683     371.8716     72.22816      1.815     4.28     4.928712     20.42463     37.14502         5     1.107     0.471 -38.74   0
       273    189.7147    303.5443 300.1430093 +22.5332348     385.9782     72.48645      1.396     3.38     5.347746     20.42463      52.4198         7     0.952     0.462 -12.89   0
       274    413.8975    302.2151 300.2132086 +22.6000047     615.1591     72.28359      1.609     4.16     5.339764     20.42463     68.50474         8     0.950     0.696  59.54   0
       275    725.8156    296.9902 300.3120895 +22.6918842     1852.851     72.32052      1.424     2.78     5.321024     20.42463     210.5948        23     1.186     0.992  75.04   0
       276    534.3685    291.4242 300.2542292 +22.6329764     303.9681     72.39431      1.361     4.39     5.110747     20.42463     44.87363         9     0.971     0.881 -65.95   0
       277    940.9382    290.0372 300.3814488 +22.7542519     619.6201     72.41275      1.346     3.39     5.026605     20.42463     83.67322        10     0.999     0.736 -44.53   0
       278    387.6871    281.5442 300.2117532 +22.5862152      2180.75     72.46803      1.672     3.51     5.323111     20.42463     207.6699        27     1.359     1.033  63.37   0
       279    600.2233    280.6772 300.2782338 +22.6496019     297.4786     72.39431      1.429     1.84     5.290108     20.42463     51.24439         5     0.672     0.450 -14.85   0
       280    826.7388    274.8111 300.3507575 +22.7157059     632.5303     72.33897      1.456     3.02     5.090212     20.42463     84.26522        13     0.982     0.865 -57.55   0
       281    819.1276    275.7069 300.3480928 +22.7136863     243.3514     72.52328      1.414     3.34     5.084686     20.42463     48.10262         6     0.985     0.408  12.97   0
       282    726.3101    272.2698 300.3202625 +22.6849231     442.1946     72.56008      1.834     3.42     5.369203     20.42463     43.07222         5     0.761     0.445  78.16   0
       283    709.2023    272.4397 300.3148736 +22.6798521     289.1185     72.41275      1.208     4.00     5.369203     20.42463     47.36851         7     0.985     0.464  11.65   0
       284     36.8690    262.1073 300.1089209 +22.4755359     297.5752     72.52328      1.497     4.31     5.885253     20.42463     32.27785         6     1.137     0.466 -61.03   0
       285    463.5419    260.8790 300.2420757 +22.6029906     1180.473     72.43118      1.495     2.96     5.342099     20.42463     147.6945        19     1.199     0.939 -83.98   0
       286    548.7364    258.7156 300.2693146 +22.6278752     244.8956     72.48645      1.135     4.40     5.246833     20.42463     35.52614         6     0.971     0.567 -63.28   0
       287    846.9735    255.1923 300.3634330 +22.7161165     189.8832     72.37587      1.017     3.75     5.234904     20.42463     32.00843         5     0.805     0.501  52.22   0
       288    708.4263    252.7659 300.3210128 +22.6739621       2153.4     72.41275      1.470     2.95     5.405227     20.42463     241.1401        24     1.232     1.007 -85.58   0
       289    969.7168    247.3331 300.4042825 +22.7505729     3106.814     72.50487      1.603     2.79     5.365141     20.42463     348.5965        27     1.263     1.120 -79.60   0
       290    416.8039    236.9057 300.2352963 +22.5821057     684.0186     72.30206      1.427     2.87     5.354639     20.42463     80.10311        11     0.904     0.803  36.70   0
       291    122.4739    231.1939 300.1455616 +22.4923080     605.6432     72.33897      1.554     3.65     5.403008     20.42463     75.61218        11     1.047     0.786  33.59   0
       292     91.4323    230.5223 300.1361270 +22.4828147     1535.157     72.37587      1.913     4.12      5.55722     20.42463     129.3323        28     1.510     1.233 -33.16   0
       293    985.6530    227.9080 300.4155567 +22.7497493     612.1906     72.44961      1.991     4.58     5.474489     20.42463       59.725         9     1.332     0.729 -18.27   0
       294    828.7879    224.6609 300.3676623 +22.7018926     252.9227     72.35742      1.309     3.97     5.458722     20.42463     43.93437         5     1.091     0.461   6.37   0
       295    175.3804    222.8521 300.1647209 +22.5057617     542.2366     72.37587      1.673     5.42     5.248259     20.42463      63.0597        12     1.243     0.962  48.99   0
       296    970.1572    220.6380 300.4130777 +22.7430227      383.701     72.48645      1.558     3.80     5.492683     20.42463     51.76242         6     0.872     0.583  82.15   0
       297    780.0374    214.1320 300.3558717 +22.6842783     718.8394     72.37587      1.602     3.76     5.442387     20.42463      67.7454        15     1.194     0.831 -13.41   0
       298    369.9344    214.1174 300.2280939 +22.5615217     404.0942     72.50487      1.268     4.07     5.330011     20.42463     60.94226         6     0.798     0.593   6.87   0
       299    870.9673    207.5376 300.3863735 +22.7095844     311.2574     72.39431      1.417     3.36     5.473096     20.42463     38.70386         6     0.792     0.498   2.51   0
       300    878.1707    203.5273 300.3899213 +22.7105853     2029.787     72.39431      1.503     2.97     5.483054     20.42463     231.2531        26     1.233     1.089 -78.17   0
       301    296.8295    200.4498 300.2097711 +22.5357018     2169.074     72.41275      1.515     2.97     5.359787     20.42463     241.6086        23     1.127     1.085 -88.34   0
       302    126.2845    195.9352 300.1581793 +22.4833218     256.2019     72.48645      1.269     4.11     5.491727     20.42463     45.04476         7     0.899     0.712  80.93   0
       303    776.5818    194.7592 300.3610761 +22.6776716     437.9728     72.41275      1.467     3.94     5.414392     20.42463     55.29973        10     1.008     0.805  62.95   0
       304    883.2180    192.1844 300.3951743 +22.7088314     417.3295     72.37587      1.555     4.01     5.499873     20.42463     37.26484         6     0.771     0.596  45.28   0
       305    191.5654    187.4132 300.1812462 +22.5004287     807.2937     72.37587      1.515     3.95     5.399177     20.42463     97.81434        15     1.284     0.858  87.64   0
       306    374.6134    195.7661 300.2355011 +22.5576485     1128.457     72.37587      1.664     3.06     5.351414     20.42463     118.0399        15     1.056     0.915 -35.55   0
       307    729.2470    184.7088 300.3495746 +22.6606181     1674.662     72.39431      1.525     2.82     5.406914     20.42463     193.2697        20     1.162     0.943  76.96   0
       308    794.3995    184.0981 300.3700898 +22.6799354     626.3466     72.26512      1.476     3.92     5.398232     20.42463     89.27663        14     1.132     0.934 -31.37   0
       309    213.1077    180.9112 300.1900558 +22.5050131     560.9481     72.56008      1.499     2.93     5.415069     20.42463     87.41353         8     1.003     0.503 -51.84   0
       310   1000.7939    177.6222 300.4365897 +22.7398052     815.8273     72.37587      1.531     3.65     5.475663     20.42463     84.22853        14     1.109     0.901  24.80   0
       311    733.4163    176.2191 300.3536273 +22.6594236     763.0946     72.37587      1.439     2.86     5.390851     20.42463     89.67288        14     0.984     0.887  51.34   0
       312    653.9874    175.4293 300.3291215 +22.6354293     1247.446     72.39431      1.432     2.65     5.475593     20.42463     157.6111        19     1.185     0.981  85.77   0
       313    849.3438    167.1014 300.3927391 +22.6914816     1399.056     72.48645      1.463     2.88     5.459657     20.42463     149.1962        22     1.223     1.029  87.42   0
       314    580.1776    167.0777 300.3088268 +22.6109385     980.9371     72.37587      1.582     3.51     5.517428     20.42463     92.47768        18     1.132     1.045  78.42   0
       315    861.3818    166.3606 300.3967348 +22.6948693     694.2376     72.41275      1.334     3.12     5.481667     20.42463     78.98751        11     0.932     0.831  15.34   0
       316   1022.2369    157.0641 300.4499493 +22.7402999     1596.316     63.85043      1.636     3.64     5.424135     20.42463      169.445        23     1.279     1.066  75.02  24
       317    978.2108    156.4321 300.4364109 +22.7269530     1117.532     72.39431      1.556     3.47     5.522025     20.42463     134.9375        18     1.240     0.959 -58.73   0
       318      2.3425    153.2491 300.1334850 +22.4339281      328.368     61.85394      1.193     2.86     6.463518     20.42463     52.28799         5     0.831     0.559 -34.98  24
       319    212.2298    149.3150 300.2000259 +22.4956716       672.65     72.39431      1.442     3.60     5.507316     20.42463     74.09938        13     1.041     0.905  16.67   0
       320     73.9476    143.7972 300.1588082 +22.4526659      2294.92     72.39431      1.841     3.51     5.935746     20.42463     187.9593        30     1.433     1.205  73.64   0
       321    897.0452    141.3870 300.4159584 +22.6983498     657.3665     72.39431      1.466     3.46     5.595747     20.42463     84.11759        10     0.932     0.787  20.55   0
       322     24.2684    140.7387 300.1443555 +22.4369042     500.4331     72.44961      1.679     3.05     6.291761     20.42463     53.16552         8     0.872     0.643  82.93   0
       323    231.3796    137.2954 300.2098799 +22.4979529     5562.856     72.30206      1.634     2.99     5.490941     20.42463     615.6905        41     1.404     1.230  58.58   0
       324    212.8245    138.9328 300.2035764 +22.4928664     297.7903     72.37587      1.427     4.00     5.515639     20.42463     38.93553         5     0.843     0.543 -32.32   0
       325     15.6809    131.6753 300.1446240 +22.4317281     1294.729     72.50487      1.682     3.41     6.340507     20.42463     147.8511        21     1.216     1.141   2.87   0
       326    214.4818    128.3547 300.2075209 +22.4903231     707.8223     72.37587      1.818     5.13     5.524079     20.42463     61.20245        13     1.215     0.935 -35.20   0
       327    875.5843    119.2203 300.4164483 +22.6855522     3443.774     72.37587      1.572     2.80     5.620115     20.42463     372.1382        32     1.318     1.142  86.85   0
       328    979.2356    117.9057 300.4492206 +22.7161704      2945.86     72.39431      1.688     3.28     5.525961     20.42463     268.2307        34     1.430     1.219  88.78   0
       329    424.8700    114.2597 300.2775719 +22.5492653      565.273     72.43118      1.496     3.47     5.330995     20.42463      68.7685        10     1.074     0.620  43.38   0
       330    178.1473    114.8848 300.2005841 +22.4755708     257.6211     72.43118      1.243     2.26     5.624358     20.42463     53.50507         6     0.731     0.537 -34.94   0
       331    349.0163    105.9232 300.2566579 +22.5241606     650.5498     72.39431      1.599     3.85     5.318084     20.42463     57.06171        12     1.108     0.750  80.29   0
       332    353.1703    104.7047 300.2583460 +22.5250540     572.5912     72.32052      1.844     3.43     5.315845     20.42463     54.04264         7     1.002     0.522 -44.89   1
       333    476.3950    101.4113 300.2977825 +22.5609941     1809.023     72.26512      1.523     2.81     5.389901     20.42463     199.0754        24     1.253     1.031  82.44   0
       334    115.2250    103.0261 300.1848581 +22.4533177     681.7208     72.35742      2.037     3.95     5.840877     20.42463     60.44218         9     1.010     0.689  10.18   0
       335    404.3795    101.7810 300.2752364 +22.5395439     446.8948     72.39431      1.444     3.41     5.309804     20.42463     62.47318        10     0.997     0.785  36.24   0
       336    538.0847    100.7455 300.3172147 +22.5792658      377.065     72.46803      1.897     3.83     5.517005     20.42463     45.93911         6     1.040     0.489  49.00   0
       337    300.6269     96.9892 300.2444922 +22.5071048     117.6599     72.39431      0.932     4.21     5.304278     20.42463     25.63901         5     1.113     0.454  23.79   0
       338    219.8717     97.1362 300.2193163 +22.4829661     401.4575     72.43118      1.480     4.77     5.533117     20.42463      38.9842         8     0.981     0.659  28.56   0
       339    764.9443     91.5102 300.3909191 +22.6444858     334.5217     72.43118      1.285     3.77     5.593248     20.42463     33.39168         6     0.817     0.499   2.09   0
       340    911.5624     87.4537 300.4379711 +22.6871693     704.7773     72.41275      1.051     1.05     5.749002     20.42463     273.7483         6     1.034     0.421  48.17   0
       341    647.3772     86.6100 300.3558535 +22.6079043     280.3643     72.39431      1.534     3.46     5.634378     20.42463     25.06965         5     1.072     0.323  20.94   0
       342    250.4061     81.1440 300.2339995 +22.4875134     6093.668     72.37587      1.631     3.12      5.49367     20.42463     627.7769        41     1.372     1.253  75.21   0
       343    756.7035     82.0785 300.3914062 +22.6393070     352.2176     72.50487      1.437     2.61     5.644477     20.42463     42.97401         7     0.723     0.650 -83.82   0
       344    101.6951     80.8088 300.1878512 +22.4428819     744.7175     72.30206      1.610     3.07     5.901981     20.42463     83.51405        11     1.019     0.717 -45.68   0
       345    879.6490     79.4215 300.4306167 +22.6753141     332.6612     72.39431      1.261     4.19     5.805654     20.42463     37.82952         6     1.261     0.398 -45.32   0
       346    222.6534     75.4475 300.2272107 +22.4775660     373.8395     72.43118      1.367     4.21     5.657568     20.42463     49.01281         6     0.918     0.609  63.92   0
       347    265.6651     72.6335 300.2415056 +22.4896363     402.1846     72.39431      1.544     3.94     5.432384     20.42463     44.88093         6     0.922     0.785 -53.57   0
       348    496.4375     66.6687 300.3152852 +22.5570022     6290.504     72.37587      1.556     2.74     5.407366     20.42463     735.2189        41     1.369     1.159  74.67   0
       349    382.1483     66.5595 300.2797298 +22.5227630     587.4743     72.41275      1.483     3.68      5.27333     20.42463      75.1321        13     1.097     0.934 -58.00   0
       350    553.0657     61.6637 300.3345482 +22.5725092     310.3136     72.44961      1.229     4.55     5.503174     20.42463      43.8465         9     1.070     0.625  -0.92   0
       351    748.6671     57.5005 300.3968656 +22.6298312     863.9254     72.48645      1.892     5.32     5.713883     20.42463     77.46791        16     1.632     0.818 -70.21   0
       352    690.2748     58.4400 300.3783551 +22.6126343      228.342     72.35742      0.997     2.55     5.674696     20.42463     40.98417         5     0.702     0.454  22.00   0
       353    842.0341     55.2557 300.4267134 +22.6571102     415.1889     72.41275      1.602     4.47     5.954293     20.42463      49.7726        11     1.028     0.983 -64.89   0
       354     60.5735     53.0107 300.1840735 +22.4225785     249.0539     72.39431      1.534     4.40     6.077973     20.42463     36.61712         5     1.022     0.539  13.98   0
       355    547.9868     49.2516 300.3369881 +22.5674196     470.8557     72.43118      1.448     3.25     5.475346     20.42463     59.48132         9     0.990     0.703 -66.01   0
       356    189.6507     50.0247 300.2251821 +22.4603772      450.043     72.41275      1.677     5.36     5.837565     20.42463      58.1797        10     1.263     0.967 -80.87   0
       357    624.9054     46.8147 300.3617464 +22.5897334     6086.621     72.32052      1.518     2.97     5.642381     20.42463     683.0593        40     1.344     1.175  83.36   0
       358    399.6648     45.8746 300.2918865 +22.5220591     1454.822     72.43118      1.502     2.69     5.251667     20.42463     167.7887        20     1.162     0.996  64.71   0
       359    666.1076     44.2942 300.3754054 +22.6013349     672.6702     72.56008      1.292     2.71       5.6847     20.42463     108.5117        11     0.923     0.752 -47.78   0
       360    681.9583     40.2072 300.3816709 +22.6049008     689.8172     72.41275      1.869     4.24     5.696647     20.42463     70.28134        10     1.153     0.743 -52.22   0
       361    148.6882     38.4014 300.2162071 +22.4447705     669.4791     72.32052      1.519     3.34     5.901037     20.42463     61.85204        11     1.045     0.709 -24.96   0
       362    951.7115     38.3684 300.4664085 +22.6850451     513.1059     72.35742      1.378     3.36     6.137186     20.42463     65.44066         6     0.842     0.523  44.41   0
       363    990.8939     37.4785 300.4789268 +22.6965032      221.076     72.52328      1.484     4.38     6.186637     20.42463     34.35769         5     0.952     0.573  42.53   0
       364    720.9602     35.8095 300.3952554 +22.6153023     550.6779     72.39431      1.604     5.61     5.701525     20.42463     61.80196        10     1.221     0.750 -67.71   0
       365    669.1225     31.6696 300.3804361 +22.5986047     2807.212     72.50487      1.549     3.00     5.701448     20.42463     330.2693        31     1.349     1.113 -89.30   0
       366    310.0642     32.7366 300.2682511 +22.4914606     428.3385     72.43118      1.335     2.96     5.277549     20.42463     49.27963         7     0.720     0.673   1.43   0
       367    684.4828     30.6206 300.3855643 +22.6028978     957.1505     72.35742      1.914     5.37     5.707622     20.42463     77.52885        16     1.318     0.932  43.53   0
       368    755.6723     23.3604 300.4101131 +22.6221027     1636.643     72.37587      1.572     2.88     5.871225     20.42463     194.1225        21     1.204     1.038 -48.67   0
       369    693.7219     16.7861 300.3929273 +22.6016811     774.3152     72.41275      1.705     3.32     5.724694     20.42463     76.82725        15     1.107     0.902 -17.61   0
       370    160.9557   1016.3009 299.9025185 +22.7291625     160.6591     72.39431      1.171     5.16     97.71684     20.42463     30.01322         5     1.360     0.554   0.58  18
       371     72.1778     15.6010 300.1998023 +22.4153055     565.9048     72.32052      1.697     4.00     6.020299     20.42463     60.64017        10     1.123     0.780  28.59   0
       372    157.2915   1016.0027 299.9014761 +22.7279774      696.887     72.30206      3.235     6.26     97.43221     20.42463     32.05431         5     1.863     0.591  67.44  19
       373    784.9144     12.8872 300.4226260 +22.6278344     417.8595     72.52328      1.325     2.85     6.184503     20.42463     53.99319         8     0.798     0.674 -39.18   0
       374    253.7395   1017.6168 299.9309494 +22.7573792     317.0044     72.35742      1.145     3.04      56.2975     20.42463     55.46716         5     0.918     0.477 -48.86  18
       375     13.1416   1014.5854 299.8571257 +22.6843094     960.9848     72.37587      6.870     7.31    -2.519718     20.42463     38.36207        10     1.401     1.070 -74.56  17
