#   1 NUMBER                 Running object number                                     
#   2 X_IMAGE                Object position along x                                    [pixel]
#   3 Y_IMAGE                Object position along y                                    [pixel]
#   4 ALPHA_J2000            Right ascension of barycenter (J2000)                      [deg]
#   5 DELTA_J2000            Declination of barycenter (J2000)                          [deg]
#   6 FLUX_APER              Flux vector within fixed circular aperture(s)              [count]
#   7 FLUXERR_APER           RMS error vector for aperture flux(es)                     [count]
#   8 FLUX_RADIUS            Fraction-of-light radii                                    [pixel]
#   9 FWHM_IMAGE             FWHM assuming a gaussian core                              [pixel]
#  10 BACKGROUND             Background at centroid position                            [count]
#  11 THRESHOLD              Detection threshold above background                       [count]
#  12 FLUX_MAX               Peak flux above background                                 [count]
#  13 ISOAREA_IMAGE          Isophotal area above Analysis threshold                    [pixel**2]
#  14 A_IMAGE                Profile RMS along major axis                               [pixel]
#  15 B_IMAGE                Profile RMS along minor axis                               [pixel]
#  16 THETA_IMAGE            Position angle (CCW/x)                                     [deg]
#  17 FLAGS                  Extraction flags                                          
         1    213.3817     13.0583 300.2354408 +22.4424148     3865.852     72.31396      1.566     2.88      5.05721     20.41237     408.9259        34     1.431     1.115  44.92   0
         2    781.3940     13.9394 300.4120222 +22.6126713     673.6923     72.29552      1.281     2.61     4.905807     20.41237     94.47057        10     0.900     0.685  55.91   0
         3    636.1267     10.6918 300.3678002 +22.5682778     367.5929      72.5165      1.473     4.31     4.971316     20.41237     44.56913         7     0.890     0.595  34.21   0
         4    774.8928      5.7699 300.4126432 +22.6083759     878.6984     72.27708      1.405     2.52     4.890986     20.41237     127.5999        13     0.934     0.858  37.94  16
         5    329.4212      5.2052 300.2740827 +22.4749030     1114.606     72.07388      1.357     2.77     5.090593     20.41237     133.8271        16     1.075     0.875  60.74  16
         6    740.0357      4.8035 300.4020904 +22.5976709     345.1508     71.29266      1.095     2.34     4.804536     20.41237     47.30637         5     0.755     0.479  59.87  16
         7    812.3871      1.5432 300.4257030 +22.6183746     385.8566      57.4571      1.137     2.46     4.968924     20.41237     68.28909         6     0.820     0.481  43.81  24
         8    736.0964      1.2255 300.4020221 +22.5954630     373.5479     55.64159      1.139     2.09     4.803826     20.41237     78.20479         5     0.725     0.399  11.73  24
         9    589.0803   1000.9499 300.0315366 +22.8387058     2534.174     72.36926      1.975     4.45     2.558526     20.41237     160.1769        32     1.403     1.357  59.60   0
        10    337.5136   1021.4648 299.9465537 +22.7691359     934.0181     67.19112      1.841     5.54     12.53244     20.41237     70.86765        22     1.500     1.171  43.90  24
        11    291.3234   1021.5011 299.9321735 +22.7552875     1334.223     67.09183      2.751    10.83     41.54113     20.41237     48.42039        29     1.990     1.641 -10.11  24
        12    145.2922   1021.3482 299.8868167 +22.7114204     4351.104     67.68539      5.969    25.09     89.07783     20.41237     105.2696       201     5.985     2.922  12.66  27
        13    125.6586   1016.7961 299.8821956 +22.7042225     4607.469     72.31396     10.274    47.75     81.75427     20.41237     98.26913       645     9.704     6.521  59.72  27
        14    121.4866    958.3322 299.8999226 +22.6862091     5415.316     72.46132     23.854    84.87     33.67622     20.41237     104.5451      3442    19.105    17.010 -20.53  19
        15      5.5342   1013.8765 299.8458196 +22.6673265     2765.404     72.44292     17.650    50.70    -25.22947     20.41237     61.76054       409    14.146     5.043  83.20  27
        16    540.9708    984.9232 300.0217702 +22.8196801     433.7482     72.33241      1.654     6.14     2.475112     20.41237     35.39777         8     1.210     0.876  -7.19   0
        17     23.4453    982.1039 299.8617226 +22.6635968     1113.889     72.36926      7.398     9.99    -2.940438     20.41237     49.52662        22     1.703     1.635  73.98   0
        18    968.2763    979.9528 300.1565685 +22.9463366     649.6298     72.35084      1.835     6.79     3.464118     20.41237     47.14474        14     1.374     0.941  29.13   0
        19    187.0474    965.3529 299.9180182 +22.7078966     1628.927     72.36926      5.303    13.57     46.07538     20.41237     43.27519        38     2.594     2.096  33.98   2
        20    675.6314    996.2499 300.0600275 +22.8633077      8604.87     72.38768      1.935     4.34     3.473581     20.41237     493.0592        46     1.556     1.375  24.20   3
        21    693.8813    963.2632 300.0764484 +22.8593100     6901.256     72.46132      1.902     4.31     3.460617     20.41237     408.0024        50     1.594     1.392  23.55   0
        22      6.2169    966.4234 299.8614724 +22.6539305     809.4217     72.35084      4.615     6.18    -9.430614     20.41237     33.84501         8     1.655     0.648  -6.07  17
        23    147.4033    991.4883 299.8971899 +22.7034933     877.4777     72.27708      3.634     3.58     65.07259     20.41237     36.23442         5     0.796     0.464 -16.35   3
        24    211.7592    988.4949 299.9181714 +22.7219481     1229.269     72.36926      4.037     7.02     65.23817     20.41237      39.7383        11     1.475     0.936 -58.15   2
        25    173.2585   1016.2208 299.8971789 +22.7183439     1248.605     72.33241      2.904    12.25     88.54742     20.41237     53.74844        35     2.683     1.556  -6.13  18
        26    602.5642    954.0872 300.0509860 +22.8292994     1622.554     72.33241      1.890     4.56     3.000524     20.41237     102.4957        31     1.463     1.351  52.66   0
        27    215.2748   1007.9293 299.9129403 +22.7285757     2645.792     72.42451      5.657    19.30     82.18362     20.41237     60.93996       105     3.759     2.833  37.07  18
        28    215.6444    999.6337 299.9157548 +22.7263079       1499.1      72.4061      5.712    12.34     75.40588     20.41237     46.67085        39     2.703     1.569 -56.02   3
        29    496.4942    950.4180 300.0191501 +22.7964409     902.7419     72.27708      1.661     4.23     2.665909     20.41237     77.19975        16     1.092     0.989  36.25   0
        30    426.8789    948.4416 299.9981235 +22.7749959     6443.541     72.33241      1.809     3.98     3.046722     20.41237     503.2473        46     1.498     1.364  11.64   0
        31     11.1166   1001.3408 299.8516331 +22.6654096     2075.923     72.46132     12.751    18.85    -16.33473     20.41237     44.91491        79     3.830     2.577  76.98  19
        32    776.3801    996.7601 300.0912584 +22.8936560     707.8713     72.38768      2.314     5.40     3.367585     20.41237     49.68714        13     1.199     0.983 -15.80   0
        33    973.2997    927.2252 300.1752934 +22.9326958     2227.659     72.29552      2.031     5.32     3.453061     20.41237     115.8998        34     1.492     1.466 -72.07   0
        34    459.5635    935.2756 300.0125803 +22.7810207     674.5629     72.31396      2.145     6.44     2.866145     20.41237     38.87895        12     1.230     0.948  80.35   0
        35    623.7664    924.1712 300.0673237 +22.8270691     413.0973     72.36926      1.777     5.08     3.306696     20.41237     29.37323         8     1.069     0.759   3.09   0
        36    471.7395    923.3425 300.0202527 +22.7812480     252.8649     72.42451      1.549     3.86     2.857555     20.41237      38.3876         5     1.073     0.397 -15.08   0
        37    528.8570   1010.1560 300.0097866 +22.8232877     509.3716     72.35084      2.119     5.54     2.333128     20.41237     33.49664         9     1.350     0.641  52.66   0
        38    836.2338    917.5236 300.1357011 +22.8888420     5824.046     72.35084      0.737     1.04     3.497057     20.41237     2051.007        10     0.558     0.477  57.76   0
        39    761.8179    915.9115 300.1130271 +22.8660782      771.165     72.27708      1.871     6.42     3.486538     20.41237     48.01602        14     1.389     0.851  42.19   0
        40    840.7946    913.8843 300.1383072 +22.8891634     798.7326     72.27708      0.652     1.48     3.510999     20.41237     333.6798         7     0.675     0.475  -8.64   0
        41    796.8115    910.3848 300.1257332 +22.8749783     974.8873     72.29552      1.730     3.98      3.50019     20.41237     68.90979        18     1.184     1.013 -38.75   0
        42    574.0164    911.2108 300.0560447 +22.8084338     315.5692     72.29552      1.466     3.45     3.072129     20.41237     34.50895         5     1.000     0.526  30.81   0
        43    819.1039    904.0140 300.1347555 +22.8798291     11459.08     72.27708      1.788     3.90     3.524405     20.41237     747.4316        57     1.492     1.422  37.05   0
        44      7.0868    907.2931 299.8809786 +22.6372416     465.7857      72.5165      1.539     4.77     3.065783     20.41237     50.33614         8     1.132     0.587  75.38  16
        45   1010.0724    904.1216 300.1942834 +22.9370740     502.4004     72.47972      1.997     5.65     3.323304     20.41237     45.67836         7     1.150     0.782 -13.63   0
        46    130.6013    896.5372 299.9228583 +22.6712255      1153.01     72.33241      9.089    11.70     8.901905     20.41237     47.79864        26     2.510     1.519 -83.05   1
        47    524.6097    892.4255 300.0467704 +22.7882289     432.3043     72.35084      1.540     5.34     3.001512     20.41237     40.06124        10     1.022     0.787  -0.53   0
        48    207.0726    979.2000 299.9197387 +22.7178764     904.8628     72.22172     14.408    13.24     57.65166     20.41237       53.186        23     5.013     0.973  79.89   3
        49    827.6014    886.1160 300.1432273 +22.8772352     1443.327     72.25864      1.796     4.30      3.57943     20.41237     103.1777        26     1.393     1.190  44.48   0
        50    188.8191    896.7293 299.9408937 +22.6887489     620.2642     72.38768      4.830     4.98     11.39594     20.41237     36.25522         5     1.613     0.435  23.49   0
        51   1011.0563    885.0696 300.2007886 +22.9318949     411.3363     72.36926      1.908     6.06     3.211515     20.41237     44.36457         9     1.458     0.918   9.19   0
        52    679.2087    883.5389 300.0978146 +22.8320238     486.6588     72.31396      2.061     5.63     3.414208     20.41237     38.46917         8     1.382     0.645 -28.67   0
        53    865.5128    879.6964 300.1571367 +22.8867506     739.5671     72.53489      1.741     3.89     3.672858     20.41237     62.24158        17     1.133     1.010  83.10   0
        54    914.3952    870.7553 300.1752900 +22.8988274     687.6213     72.35084      1.868     6.39     3.521834     20.41237     42.70357        15     1.246     0.966  53.64   0
        55    765.4924    869.5676 300.1292485 +22.8538713     718.4117     72.27708      1.601     4.87      3.51407     20.41237     62.33968        15     1.206     0.987  88.24   0
        56    776.6938    867.1998 300.1335103 +22.8565480     656.1579     72.22172      1.793     5.22     3.527486     20.41237     46.27044        14     1.255     0.976 -49.58   0
        57    478.1436    866.1536 300.0408494 +22.7667564      4276.22     72.38768      1.601     3.24     3.135064     20.41237     383.7259        34     1.319     1.213   1.48   0
        58    521.3681    854.0363 300.0582479 +22.7762384     434.9003     72.38768      1.595     3.12      3.18149     20.41237     43.53881         6     0.795     0.734 -84.33   0
        59    120.7612    853.6006 299.9337645 +22.6559599     336.8166     72.35084      1.452     3.42     5.000799     20.41237      30.2007         5     0.772     0.438  20.19   0
        60    203.7241    851.6606 299.9601864 +22.6802942     676.2105      72.4061      1.590     4.58      6.20291     20.41237      75.5034        15     1.251     0.970  45.02   0
        61    180.3506    848.8965 299.9538181 +22.6724892     1564.552      72.4061      1.801     4.03     6.051664     20.41237     160.4229        26     1.332     1.241  16.30   0
        62    112.1337    849.6047 299.9323825 +22.6522252     384.8175     72.35084      1.380     4.09     4.620112     20.41237      55.5813         7     1.138     0.664   5.68   0
        63    118.5087    926.0086 299.9095129 +22.6760475     4057.519     72.27708     18.526    57.17     10.02757     20.41237     87.73378       915    12.256     7.401 -26.99   3
        64   1006.5800    836.4647 300.2152020 +22.9165884     2211.373     72.33241      1.939     4.75      3.24243     20.41237     116.8927        29     1.467     1.241   5.87   0
        65    483.1974    836.1481 300.0521816 +22.7596599     267.0862     72.35084      1.357     3.91     3.238025     20.41237     28.72756         6     0.757     0.579  43.49   0
        66    789.9908    830.2037 300.1496882 +22.8499071     535.6436     72.18478      1.627     4.77     3.634892     20.41237     57.97773        13     1.258     0.824  48.07   0
        67    213.2225    830.5509 299.9700047 +22.6770884     435.6615     72.35084      1.396     3.77     5.204711     20.41237     46.75838         6     0.901     0.572  66.54   0
        68    658.1217    824.3096 300.1105089 +22.8086974     4767.508     72.49812      1.566     3.09     3.485626     20.41237     412.4182        36     1.326     1.170  20.87   0
        69    147.9874    825.1554 299.9514776 +22.6559705     522.6713     72.35084      1.838     2.71     4.601601     20.41237     61.92537         6     0.907     0.410 -37.38   0
        70    460.4261    821.1480 300.0499710 +22.7485272     567.5165     72.36926      1.444     3.74     3.399863     20.41237     55.31148        13     1.120     0.796 -11.81   0
        71    678.7378    816.8324 300.1193638 +22.8127289     660.7158     72.35084      1.514     3.35     3.509269     20.41237     67.85085        14     1.022     0.905 -75.50   0
        72    208.2145    817.9041 299.9725600 +22.6719582     1362.641     72.27708      1.650     3.92     4.571184     20.41237     143.7341        22     1.253     1.166  22.01   0
        73    227.3642    815.4818 299.9793023 +22.6770076     402.2932     72.29552      1.544     5.88     4.469738     20.41237     40.39809        10     1.044     0.931   9.52   0
        74    595.4523    807.8121 300.0963516 +22.7851772     347.9836     72.36926      1.517     3.53     3.472715     20.41237     42.48123         7     0.861     0.629 -11.98   0
        75    834.2065    804.0588 300.1719757 +22.8556447     4310.125     72.31396      1.652     3.37     3.748301     20.41237     333.1266        36     1.338     1.252  -0.87   0
        76    242.8121    798.4460 299.9896455 +22.6767539     518.1655     72.35084      1.753     4.26     3.848736     20.41237     56.01435         8     1.233     0.692 -22.47   0
        77    551.0073    796.3456 300.0862383 +22.7685630     648.6115     72.35084      1.583     4.91     3.343841     20.41237     57.29343        13     1.221     0.862  56.31   0
        78    197.6903    794.5013 299.9768972 +22.6620878     1016.802      72.5165      1.661     4.15     3.718821     20.41237     102.6949        18     1.333     0.965  31.98   0
        79    612.6443    789.7071 300.1075938 +22.7851317     561.6292     72.35084      1.542     4.02     3.594873     20.41237     48.97313        14     1.103     0.878 -54.24   0
        80    347.1779    786.4983 300.0259942 +22.7046257     53668.96     72.27708      1.628     3.14     3.907846     20.41237      5631.19        91     1.444     1.361  25.79   0
        81   1018.0080    785.0969 300.2354733 +22.9052494       943.58     72.24018      1.815     4.89     3.519066     20.41237     60.39894        16     1.211     0.944   0.47  16
        82    605.1262    785.5718 300.1065966 +22.7816910      1750.19     72.36926      1.530     3.07     3.595206     20.41237     182.0123        22     1.140     1.046 -16.90   0
        83    275.8380    784.8074 300.0043513 +22.6827462     560.7645     72.36926      1.706     3.83     3.914878     20.41237     58.75657         8     1.021     0.749 -38.06   0
        84    634.0860    781.6935 300.1168787 +22.7892568     858.2112     72.53489      1.375     3.64     3.642128     20.41237     77.81908        15     1.065     0.945 -86.18   0
        85     33.3099    781.2103 299.9301267 +22.6089600     805.3589     72.29552      1.814     5.28     3.531996     20.41237     76.84666        20     1.419     1.168   6.23   0
        86      1.4899    781.0970 299.9202777 +22.5993796     430.2288     57.38744      1.355     4.85      3.53059     20.41237     58.64648         8     1.359     0.489  85.41  24
        87    644.9941    780.0826 300.1208007 +22.7920633     512.0933     72.27708      1.341     4.05     3.660305     20.41237     72.77267        10     1.103     0.655  56.96   0
        88    750.5061    776.4772 300.1548517 +22.8226450     403.7187     72.47972      1.336     3.68     3.738879     20.41237     66.33723         8     1.037     0.636  15.19   0
        89    787.9581    766.8559 300.1696541 +22.8311022     617.2001     72.31396      1.535     3.75     3.865351     20.41237      62.7518        11     1.134     0.824   6.05   0
        90    396.8823    763.7642 300.0488519 +22.7130050     31862.13     72.31396      1.557     3.22      3.75801     20.41237     3090.163        73     1.395     1.309  41.10   0
        91    411.1619    764.3064 300.0531196 +22.7174420     1936.316     72.36926      1.460     2.90      3.68105     20.41237      215.215        24     1.159     1.145  48.99   2
        92    407.9631    757.9312 300.0541967 +22.7146531      521.843     72.33241      1.572     4.84      3.70111     20.41237     61.81489        10     1.156     0.681  59.75   3
        93    920.0165    759.8352 300.2131158 +22.8686432     2667.651     72.35084      1.614     3.48     3.935086     20.41237     231.6139        29     1.286     1.153  64.78   0
        94    279.5258    755.6849 300.0149664 +22.6754959     767.7175     72.46132      1.507     4.10     4.052896     20.41237     83.89046        12     1.167     0.798 -40.05   0
        95    677.8881    755.7859 300.1389489 +22.7949432     925.9307     72.29552      1.439     3.12     3.832592     20.41237     114.6832        14     1.066     0.791  30.52   0
        96    515.2800    755.9606 300.0882439 +22.7462593     559.0968     72.31396      1.799     3.03     3.538247     20.41237     57.40059         6     0.870     0.444  59.16   2
        97     84.9225    751.1367 299.9559413 +22.6158201     554.4949     72.42451      2.177     6.20      3.48064     20.41237     45.40155        11     1.591     0.679 -40.00   0
        98    525.0759    750.4109 300.0930983 +22.7476023     932.9341     72.36926      1.450     3.40     3.588863     20.41237     97.80112        15     1.167     0.820  71.31   0
        99    926.3084    747.7217 300.2190168 +22.8670468     472.7245     72.49812      1.534     4.54     3.987451     20.41237     51.85441        11     1.055     0.865  19.78   0
       100    427.3739    746.6269 300.0639129 +22.7172279     377.3567     72.31396      1.444     4.75     3.624129     20.41237     54.98652         8     1.089     0.820 -12.12   0
       101    383.4216    746.6812 300.0502167 +22.7040660     323.7688     72.31396      1.333     4.62     3.873161     20.41237     42.16047         8     0.985     0.615  17.89   0
       102    471.4283    745.3961 300.0780259 +22.7300814     349.6769     72.31397      1.441     3.10     3.522417     20.41237     45.90934         8     0.844     0.717 -31.62   0
       103    113.3939    745.1945 299.9667217 +22.6226569     603.2509     72.20325      2.236     2.91     3.486832     20.41237      58.2662         6     0.863     0.475  52.26   2
       104    904.0803    742.5746 300.2137571 +22.8589104     441.7372     72.33241      1.727     5.12     4.004137     20.41237     37.72873         9     1.054     0.702 -34.46   0
       105    277.5135    740.0198 300.0194330 +22.6703973     335.8997     72.27708      1.416     3.31     4.124006     20.41237     45.26219         8     0.838     0.657  -2.61   0
       106    600.1857    730.1860 300.1230645 +22.7643064     392.2173     72.27708      1.398     3.65     3.809729     20.41237     53.80138         9     0.946     0.683   0.54   0
       107    569.7633    728.5469 300.1141220 +22.7547184     556.2228     72.36926      1.612     3.49     3.780411     20.41237     54.55127        10     0.894     0.818  16.20   0
       108    591.8920    725.9979 300.1218427 +22.7606183      1468.53     72.25863      1.435     2.96     3.812646     20.41237     153.3873        18     1.073     0.925  23.48   0
       109    479.3649    727.4417 300.0863333 +22.7273061     342.7932      72.4061      1.446     4.19     3.570122     20.41237     41.72611         7     1.022     0.490  -5.08   0
       110    986.4211    725.0591 300.2451377 +22.8785358     4507.963     72.31396      1.683     3.43     4.057128     20.41237     341.0302        33     1.322     1.230  21.39   0
       111    512.1432    725.3188 300.0972285 +22.7365217     312.1029     72.38768      1.251     2.89     3.669627     20.41237     52.38649         5     0.805     0.444  52.83   0
       112    673.9384    720.7785 300.1490989 +22.7837053     183.4769     72.33241      1.078     2.70     3.962409     20.41237     41.53878         7     0.715     0.668 -20.29   0
       113    974.8193    716.6657 300.2442465 +22.8726494     1658.693     72.31396      1.616     3.32     4.085331     20.41237     130.0654        23     1.186     1.104  32.22   0
       114    337.7639    710.1046 300.0478997 +22.6798786     797.0508     72.35084      1.434     3.20     4.064929     20.41237     86.71319        13     0.977     0.894 -60.88   0
       115    801.1056    707.7615 300.1929642 +22.8180641     2620.994     72.33241      1.569     2.83     4.020075     20.41237     269.4875        25     1.149     1.121 -30.53   0
       116   1006.0667    706.6249 300.2572601 +22.8791199     1723.151     72.33241      1.719     3.66      4.05255     20.41237     134.4642        25     1.342     1.099  -4.53   0
       117     23.6147    697.7357 299.9542480 +22.5821107     905.5587     72.31396      1.875     5.47     3.489486     20.41237     84.64719        19     1.389     1.134  36.18   0
       118    883.7770    693.5629 300.2233575 +22.8387458      704.444     72.36926      1.733     5.25     4.150771     20.41237     58.75385        14     1.265     0.973 -31.82   0
       119    186.5542    694.0116 300.0061009 +22.6299172     604.5865     72.35084      1.527     3.81     4.020699     20.41237      82.3868        12     1.068     0.917  44.31   0
       120    919.7421    684.7198 300.2374491 +22.8469751     149203.5     72.38768      1.616     3.21     4.286603     20.41237     13966.34       146     1.470     1.431  42.04   0
       121    772.1844    684.8292 300.1914024 +22.8028122      733.522     72.35084      1.448     3.51     3.989179     20.41237     75.28926        14     1.074     0.930  13.69   0
       122    682.1555    688.6260 300.1621103 +22.7769321     457.3504     72.36926      1.386     4.39     3.979439     20.41237     44.16702         7     1.025     0.534  25.03   0
       123    952.7281    677.5998 300.2500530 +22.8548063     513.3845     72.22172      1.776     3.92     4.263487     20.41237     45.64881         8     0.924     0.757  16.79   0
       124    605.9296    673.5275 300.1432699 +22.7497561     1591.587     72.42451      1.374     2.69     3.963999     20.41237     193.7965        21     1.079     0.966  34.07   0
       125    787.1925    670.8107 300.2006371 +22.8032801     9476.014     72.22172      1.472     2.86     4.003868     20.41237     1014.955        39     1.231     1.136  39.55   0
       126    288.6598    665.8173 300.0470173 +22.6524447     4845.537     72.29552      1.520     2.92      4.15948     20.41237     584.0811        32     1.253     1.130  28.76   0
       127      2.6476    664.3292 299.9585901 +22.5662385     1453.695     63.28756      1.650     3.93      3.36709     20.41237     146.0033        21     1.234     1.124 -88.32  24
       128    370.7011    663.9379 300.0731523 +22.6765016     1221.116     72.44292      1.445     3.07     3.916134     20.41237     139.7049        15     1.122     0.823  24.94   0
       129    246.6229    661.4943 300.0353474 +22.6385995     430.8894     72.24018      1.492     4.84     4.164885     20.41237     46.91726         8     0.953     0.697 -46.40   0
       130    579.0553    659.2997 300.1395231 +22.7376171      800.248     72.44292      1.397     3.34     4.046409     20.41237     100.0976        14     1.054     0.898  65.79   0
       131    570.6023    651.6962 300.1393614 +22.7329004     3221.996     72.25864      1.345     2.41     4.070025     20.41237     442.3306        24     1.080     1.005   2.61   0
       132    560.9628    645.4133 300.1384010 +22.7282074     1463.296     72.35084      1.432     2.64     4.077373     20.41237      169.091        19     1.068     0.934 -26.80   0
       133    954.7225    643.4239 300.2617824 +22.8455802     423.1447     72.35084      1.519     4.29     4.323333     20.41237     55.47504         7     1.112     0.575  18.84   0
       134    471.6659    642.5939 300.1115127 +22.7006372     244.9098     72.35084      1.153     2.81     3.844951     20.41237     50.81788         6     0.858     0.470  86.78   0
       135    224.2471    641.5061 300.0348839 +22.6261537     680.4803     72.36926      1.574     3.29     4.180758     20.41237     86.93268        14     0.995     0.962 -25.11   0
       136    238.6180    639.9315 300.0398647 +22.6300109     523.3193     72.35084      1.400     2.93     4.177176     20.41237     94.92493        14     1.067     0.868  -7.73   0
       137    124.0647    639.4568 300.0044026 +22.5955227     393.3979      72.4061      1.573     4.72     4.047848     20.41237     32.94955         7     0.911     0.695  65.81   0
       138   1007.5050    636.9983 300.2803389 +22.8595358     469.0016     72.25864      1.503     3.67     4.240821     20.41237      48.4433         8     0.816     0.692  18.66   0
       139    295.1938    636.7917 300.0584817 +22.6460726     348.7942     72.20325      1.266     2.47     4.136098     20.41237      40.1617         6     0.704     0.574 -48.65   0
       140    264.2417    636.6776 300.0488911 +22.6367599     546.8198     72.33241      1.368     3.11     4.169132     20.41237     64.31557        12     0.927     0.892  45.11   0
       141    585.1577    635.5022 300.1491571 +22.7326108      460.433     72.35084      1.328     4.31     4.198959     20.41237     64.30871         9     1.034     0.742  -7.94   0
       142    485.6497    635.0589 300.1183146 +22.7026645     1794.346      72.4061      1.342     2.59     3.853994     20.41237     248.4004        20     1.102     0.872  47.29   0
       143    139.5784    629.8898 300.0123335 +22.5974302     19910.29     72.27708      1.643     3.41     4.110364     20.41237     2150.914        63     1.451     1.299  36.05   0
       144     60.4150    631.7598 299.9871216 +22.5742241     766.5483     72.36926      1.757     5.85     3.684976     20.41237     65.83977        14     1.337     0.982  28.16   0
       145    570.6219    630.3428 300.1463064 +22.7267734     1039.504     72.36926      1.420     3.03     4.178336     20.41237     126.7066        16     1.006     0.973 -71.54   0
       146    605.5798    629.4528 300.1574839 +22.7369922     369.4499     72.33241      1.047     4.07     4.332392     20.41237     56.09415         6     0.979     0.483  33.78   0
       147    942.1725    626.7524 300.2632850 +22.8370305     347.5575     72.36926      1.617     3.80     4.363719     20.41237     29.91754         5     0.912     0.455 -46.99   0
       148    323.7355    621.6816 300.0722703 +22.6502919     400.8336     72.46132      1.455     3.62     4.018775     20.41237     62.24403         6     0.879     0.807  -8.73   0
       149    988.6441    616.7825 300.2810231 +22.8480777     960.7054     72.36926      1.400     3.12     4.348435     20.41237     115.1776        16     1.096     0.893  25.12   0
       150    653.7535    617.6493 300.1763267 +22.7480344     234.7405     72.36926      1.285     2.52     4.109878     20.41237     39.63633         5     0.733     0.431  20.11   0
       151     85.5247    614.2645 300.0006091 +22.5767358     1722.055      72.4061      2.143     5.09     3.864873     20.41237     115.5043        28     1.591     1.282 -77.30   0
       152    855.5754    614.5673 300.2402355 +22.8075982     474.7485     72.33241      1.502     3.53     4.007968     20.41237     57.94955         9     1.049     0.730 -86.48   0
       153    151.9225    614.5730 300.0211473 +22.5967369      521.867     72.35084      1.696     3.56     4.164144     20.41237     45.29896         8     0.891     0.640  53.64   0
       154    533.7050    610.5773 300.1412320 +22.7100347     496.5599     72.25864      1.654     5.98     4.067808     20.41237     53.16209         9     1.273     0.789  58.20   0
       155    927.7640    609.3829 300.2644345 +22.8277236     981.1555     72.35084      2.161     7.85     4.372357     20.41237     64.57993        22     1.959     0.881   4.41   0
       156    672.9431    607.6279 300.1855618 +22.7509041     365.5492     72.35084      1.229     2.67      3.97524     20.41237     46.59101         5     0.718     0.449  18.72   0
       157    490.6554    603.3795 300.1301663 +22.6950673     853.0932     72.33241      1.418     2.64     3.898284     20.41237     105.0106        12     0.942     0.783  24.28   0
       158    638.5566    601.9203 300.1767026 +22.7389632     547.7545     72.33241      1.254     2.48     4.291387     20.41237     83.68584        10     0.874     0.718  -0.01   0
       159    685.8823    600.3447 300.1919600 +22.7526877     524.2213      72.4061      1.527     4.19     4.026933     20.41237     56.94556        12     1.017     0.946  51.72   0
       160    656.2338    600.0512 300.1828173 +22.7437219     567.8011     72.36926      1.282     2.56     4.172332     20.41237      78.4066         9     0.767     0.744  55.74   0
       161    535.3193    599.1802 300.1454376 +22.7072451     940.8551     72.33241      1.473     3.54     4.099455     20.41237     110.8344        13     1.229     0.676   6.33   0
       162    968.7422    594.7737 300.2819649 +22.8357924      3244.58     72.35084      1.505     3.05     4.376311     20.41237     343.7545        28     1.186     1.125  -4.52   0
       163    500.4117    594.6156 300.1360512 +22.6954741     1781.018     72.27708      1.443     2.75     3.959603     20.41237     239.9203        22     1.141     1.027 -59.43   0
       164    865.7023    591.5641 300.2508676 +22.8040192     242.6042     72.35084      1.493     4.46     3.997613     20.41237      36.3943         6     0.950     0.877 -64.58   0
       165    850.8375    590.8195 300.2464741 +22.7993541     199.1169     72.36926      1.277     3.80       3.9859     20.41237     29.27621         5     0.995     0.417  45.41   0
       166     62.4654    588.0383 300.0019630 +22.5622951     5127.939     72.33241      1.714     3.35     3.708122     20.41237     500.0036        40     1.358     1.327  48.81   0
       167    529.7657    585.5624 300.1481325 +22.7016698      281.394      72.4061      1.366     3.33     4.108906     20.41237     36.63502         5     0.761     0.423  24.21   0
       168    363.8817    581.2750 300.0978889 +22.6507258     9252.864     72.46132      1.401     2.63     3.895361     20.41237     1042.617        40     1.200     1.144  36.54   0
       169    486.3473    578.3262 300.1369644 +22.6865814     9006.135     72.36926      1.348     2.55     3.949811     20.41237     1071.941        39     1.228     1.053  52.18   0
       170    251.6502    575.7239 300.0647780 +22.6154892     200.1709     72.35084      1.315     3.82     4.134738     20.41237     29.63909         5     1.036     0.404  74.58   0
       171    898.1094    572.4465 300.2671856 +22.8082273     1958.578     72.33241      1.568     2.99     4.178874     20.41237     193.3621        25     1.238     1.141  39.85   0
       172    733.1712    574.6129 300.2150570 +22.7594585     248.6205     72.35084      1.264     1.84     3.998821     20.41237     48.74767         5     0.681     0.440 -23.61   0
       173    129.8052    573.4150 300.0276426 +22.5782936     246.0885     72.22172      1.654     5.37     4.058275     20.41237     31.85817         7     1.138     0.714  33.75   0
       174    982.7092    569.8011 300.2944361 +22.8327940     12691.44     72.24018      1.573     3.13     4.375998     20.41237     1196.477        49     1.308     1.264  55.43   0
       175    546.9086    567.9628 300.1591884 +22.7017512     11552.36     72.31396      1.363     2.62     4.221673     20.41237      1548.96        43     1.184     1.104  51.12   0
       176    716.4096    563.8820 300.2133191 +22.7513548     473.0559     72.29552      1.178     2.73      4.11006     20.41237     67.98653        11     0.996     0.687  40.00   0
       177    274.4498    563.3037 300.0759040 +22.6187588     1323.678     72.42451      1.432     2.70      4.04294     20.41237     160.3236        19     1.068     1.000  32.61   0
       178    432.0529    562.3834 300.1252417 +22.6657325     277.6828     72.33241      1.293     4.30     3.914611     20.41237     36.48365         6     0.883     0.597  40.14   0
       179    521.0941    561.1968 300.1533476 +22.6920732     434.4807     72.25864      1.273     2.50     4.133995     20.41237     64.96733         8     0.806     0.632 -36.13   0
       180    821.5520    556.0991 300.2486224 +22.7806056     819.5995     72.38768      1.404     3.47     3.969035     20.41237      98.1302        13     1.072     0.860  61.54   0
       181    478.6147    556.1791 300.1417515 +22.6779037     4161.964     72.33241      1.342     2.43     3.992337     20.41237     543.1295        26     1.135     0.963  35.05   0
       182    456.8853    554.5254 300.1355240 +22.6709174      1242.97     72.46132      1.314     2.40     3.959798     20.41237     168.9311        16     0.973     0.897  47.50   0
       183    211.2749    553.9345 300.0592997 +22.5971301     677.8805      72.4061      1.382     3.46     4.203409     20.41237     84.87319        13     1.136     0.765  21.30   0
       184    898.3790    551.5778 300.2740492 +22.8023091     1655.492     72.35084      1.579     3.09     4.169995     20.41237     168.3064        19     1.132     1.000 -77.94   0
       185    595.2130    543.6849 300.1821192 +22.7092486     201323.5     72.29552      1.358     2.44     4.516434     20.41237     26134.26       209     1.461     1.377   1.89   0
       186    419.3713    550.1174 300.1252789 +22.6584097     445.3385     72.36926      1.319     3.36     3.899051     20.41237     51.04372         7     0.824     0.645  23.09   0
       187    778.8412    548.8002 300.2376778 +22.7657181     837.6183     72.38768      1.234     2.57     3.979847     20.41237     118.9629        14     0.962     0.841  26.81   0
       188    982.8162    545.7001 300.3022990 +22.8258965     178.0797     72.25864      1.410     5.33     4.374607     20.41237     32.20839         9     1.071     0.818  31.75   0
       189    281.3026    543.5735 300.0844442 +22.6151489     3597.366     72.29552      1.463     2.52     3.967046     20.41237     473.0381        30     1.236     1.068  57.27   0
       190    847.1569    539.7328 300.2619227 +22.7835682     578.1918     72.33241      1.382     3.00     3.958097     20.41237     71.63377        10     1.000     0.658  40.21   0
       191    460.8435    539.7475 300.1415564 +22.6678593     251.1416     72.38768      1.140     4.52      3.99903     20.41237     42.19082         6     0.950     0.612  80.87   0
       192    485.7876    524.2809 300.1543455 +22.6708912     2740.334     72.33241      1.484     2.46     4.106688     20.41237     365.4452        30     1.485     1.039 -83.25   0
       193    330.1102    526.4915 300.1051760 +22.6248740     455.6656      72.5165      1.288     2.86     3.994565     20.41237     59.33626        10     0.890     0.746 -87.27   0
       194    935.5962    524.4420 300.2944727 +22.8056495     265.0166     72.36926      1.404     4.58     4.168721     20.41237     30.73879         6     1.021     0.584  59.95   0
       195    897.2761    520.8073 300.2837004 +22.7931330     348.0451     72.29552      1.441     3.47     4.007822     20.41237     51.10369         7     0.871     0.580  67.92   0
       196    643.3166    520.8396 300.2045247 +22.7170944     271.6315     72.31396      1.613     4.05     4.566391     20.41237     36.19643         6     1.216     0.385 -57.43   0
       197    915.4567    515.5993 300.2910626 +22.7970784     165.2812     72.27708      1.060     3.92     4.025321     20.41237      28.0247         5     1.051     0.418 -15.37   0
       198    803.0370    512.9388 300.2568693 +22.7626562     415.1737     72.36926      1.389     3.28     3.980601     20.41237     45.19675         9     0.808     0.751  31.67   0
       199    882.9082    510.2891 300.2826355 +22.7858078     1464.655      72.5165      1.339     2.54     3.908871     20.41237     209.1475        20     1.034     0.997  -6.94   0
       200     12.9160    508.9256 300.0122623 +22.5247352       860.07     72.44292      1.685     4.17     3.647743     20.41237     77.93681        16     1.216     1.096 -56.46   0
       201    754.0453    507.8599 300.2432464 +22.7465264     2447.614     72.36926      1.340     2.42     4.192797     20.41237      369.532        22     1.023     0.978  34.58   0
       202    963.7942    504.4393 300.3097664 +22.8083389     269.6212     72.38768      1.309     4.39     4.172895     20.41237     35.31043         6     0.931     0.589 -63.83   0
       203    658.9492    504.4062 300.2147325 +22.7170546     399.5366     72.33241      1.282     2.66      4.57206     20.41237      62.2761         7     0.710     0.674 -10.90   0
       204    541.4349    503.6631 300.1783689 +22.6816406     757.5181     72.35084      1.372     2.93     4.448794     20.41237     102.2807        15     1.028     0.902  26.98   0
       205   1011.3813    501.9563 300.3254210 +22.8218678     1339.943     72.36926      1.547     3.58     4.485765     20.41237     128.3549        19     1.136     1.061 -73.34   0
       206    997.1064    501.0254 300.3212690 +22.8173278     910.0004     72.29552      1.967     3.40     4.389975     20.41237     69.92856        15     1.040     0.985  36.54   0
       207    883.1585    500.3623 300.2859377 +22.7830289     2332.105     72.44292      1.651     3.01     3.861092     20.41237     271.5195        28     1.424     1.151  81.40   0
       208    636.6478    498.5044 300.2097010 +22.7086792     760.6655     72.38768      1.494     3.33     4.583583     20.41237     78.72089        12     1.025     0.776  24.14   0
       209    474.8131    497.3049 300.1596899 +22.6598546     294.8385     72.27708      1.257     3.56     4.140872     20.41237     60.75143         7     0.991     0.533  25.28   0
       210    562.0432    494.9290 300.1876234 +22.6853050     224.6675     72.31396      1.330     5.09     4.535774     20.41237       32.096         7     1.075     0.682 -67.87   0
       211    921.2945    495.4791 300.2994184 +22.7930411     4263.263     72.47972      1.417     2.53      3.85038     20.41237     556.1578        28     1.136     1.056  40.21   0
       212    482.6985    493.9794 300.1632248 +22.6612619     231.9038     72.27708      1.323     3.32     4.175849     20.41237     37.08371         5     0.802     0.489  34.28   0
       213    658.6917    492.1457 300.2186341 +22.7134544     157.7509      72.4061      0.955     2.94     4.583682     20.41237     40.67118         5     0.700     0.677 -46.71   0
       214    581.8168    491.1390 300.1950128 +22.6901394     348.3649     72.29552      1.226     2.68     4.568809     20.41237     56.77924         8     0.790     0.669  46.64   0
       215   1012.9672    485.9335 300.3311197 +22.8177347      777.152     72.35084      1.416     3.36     4.541829     20.41237     79.34189        13     1.103     0.762  34.09   0
       216    153.4020    485.7551 300.0634480 +22.5602094     959.2982     72.33241      1.414     2.56     3.904706     20.41237     137.2242        15     1.063     0.808  13.62   0
       217    813.6412    479.4320 300.2710574 +22.7561997     332.2599      72.4061      1.382     4.71     3.959249     20.41237     40.65507         6     1.134     0.556  28.53   0
       218    200.5994    478.1269 300.0805995 +22.5721685     240.2339     72.24018      1.408     4.43     4.087064     20.41237     31.43521         7     1.243     0.448  22.15   0
       219    173.9895    478.0446 300.0723524 +22.5641680     165.7017     72.35084      1.099     3.70     3.952232     20.41237     25.68736         5     0.640     0.614  89.16   0
       220    143.5446    476.8049 300.0632897 +22.5546851     1747.993     72.31396      0.765     4.68     3.878604     20.41237     1385.261        10     1.320     0.470 -18.31   0
       221   1009.6013    475.1980 300.3335558 +22.8136399     275.9042     72.12935      1.227     3.60     4.438764     20.41237     42.87533         5     0.961     0.388   5.89   0
       222    753.2050    469.7732 300.2553534 +22.7353279     527.1378     72.31396      1.432     3.03     4.338928     20.41237       59.041        11     0.930     0.786 -48.47   0
       223    642.2101    467.6855 300.2214422 +22.7014893     390.2683     72.29552      1.333     2.97     4.596917     20.41237     46.73218         7     0.826     0.591  30.59   0
       224    694.7504    466.0476 300.2383450 +22.7167532      832.281     72.38768      1.335     2.60     4.546411     20.41237     110.7431        12     0.916     0.801  26.49   0
       225    483.3868    463.8249 300.1732311 +22.6528061     256.5877     72.35084      1.081     3.42     4.223188     20.41237     35.17414         5     0.797     0.423 -69.11   0
       226   1009.5649    458.5934 300.3389366 +22.8088536     561.4539     72.35084      1.412     4.09     4.208852     20.41237     69.19194         9     1.156     0.586  37.20   0
       227    755.5327    458.0671 300.2598801 +22.7326601     873.4092      72.4061      1.264     2.54     4.313839     20.41237     108.3682        14     1.054     0.820  44.42   0
       228    912.8195    454.5096 300.3100795 +22.7787242     1114.389     72.27708      1.429     2.62      3.74429     20.41237     128.6993        16     1.019     0.945  32.48   0
       229    897.1711    450.5725 300.3064771 +22.7729083     715.8552     72.33241      1.577     2.82     3.779499     20.41237     79.56419        11     0.930     0.788  39.60   0
       230    877.4177    451.0390 300.3001647 +22.7671295     383.8278     72.36926      1.068     2.28     3.821298     20.41237     50.59481         6     0.762     0.492 -86.28   0
       231    102.1954    450.0466 300.0591246 +22.5346079     178.7917     72.33241      1.426     3.40     3.870689     20.41237     29.68121         5     1.510     0.221 -62.73   0
       232    641.2606    448.6472 300.2273283 +22.6957339     3309.189     72.38768      1.311     2.40     4.600689     20.41237     430.3086        25     1.086     0.960  56.09   0
       233   1002.1605    447.6352 300.3401844 +22.8034862     561.8708      72.4061      1.539     4.57     4.017387     20.41237     62.07925         9     0.967     0.740 -30.30   0
       234    117.2200    439.9340 300.0670778 +22.5362094     385.3511     72.33241      1.496     2.99     3.878672     20.41237     46.91748         6     0.952     0.683 -23.55   0
       235    481.2256    435.6402 300.1817095 +22.6440618     386.8214     72.38768      1.220     3.14     4.223804     20.41237     61.91664         8     0.906     0.608  49.82   0
       236    924.5703    427.5295 300.3225054 +22.7744831     623.8938     72.35084      1.460     2.26     3.723438     20.41237     80.23894         9     0.826     0.692 -30.71   0
       237   1010.8737    426.4319 300.3497880 +22.7999953     1014.346     72.35084      1.466     3.01     3.734934     20.41237     122.0808        17     1.112     0.987 -55.37   0
       238    661.3740    424.7313 300.2413600 +22.6948840      336.558     72.33241      1.259     2.86     4.605454     20.41237     47.26041         5     0.737     0.436 -69.40   0
       239    751.9929    422.5961 300.2702939 +22.7214041     948.8257     72.18478      1.238     2.42      4.32837     20.41237     167.7134        15     1.019     0.861  49.52   0
       240    547.9121    423.3121 300.2064769 +22.6604956     407.7527      72.5165      1.186     2.34     4.869547     20.41237     71.27283         7     0.697     0.660  10.77   0
       241    255.7105    420.7153 300.1163786 +22.5722032     504.6119     72.49812      1.208     2.69      4.36226     20.41237     76.25915        11     0.879     0.775  83.59   0
       242    318.1967    416.3330 300.1372389 +22.5896704      3744.66     72.33241      1.374     2.78     4.446511     20.41237     460.0406        28     1.187     1.043  51.04   0
       243    265.4014    411.1268 300.1225055 +22.5723541     7690.895     72.24018      1.426     2.67     4.413188     20.41237     882.9774        39     1.249     1.132  50.25   0
       244    644.3508    410.5797 300.2406505 +22.6857191     294.4095     72.35084      1.384     3.52     4.592601     20.41237      45.8395         5     0.950     0.417 -74.26   0
       245    406.1773    405.4349 300.1681542 +22.6129015     4787.908     72.36926      1.331     2.46     4.371876     20.41237     580.3751        28     1.117     1.024  39.37   0
       246    650.4561    402.1999 300.2452730 +22.6851389     18677.22     72.25864      1.280     2.34     4.571136     20.41237     2264.618        55     1.224     1.121  50.31   0
       247    668.2923    402.0082 300.2508927 +22.6904247     918.1312     72.25864      2.013     6.21     4.571728     20.41237     75.10273        18     1.626     0.897 -39.43   0
       248    277.2367    400.3858 300.1296736 +22.5728163     212.1901     72.35084      1.284     4.57     4.466541     20.41237     41.11956         7     0.915     0.648  80.17   0
       249    847.1654    392.3697 300.3097787 +22.7412047      410.407     72.36926      1.105     3.37     4.084316     20.41237     55.25663         8     1.019     0.512  50.64   0
       250    270.5930    389.2615 300.1312180 +22.5676307     365.7948     72.33241      1.186     4.44     4.473003     20.41237     44.23245         6     0.927     0.604  22.98   0
       251    983.9410    384.6943 300.3549343 +22.7799312     871.1655     72.42451      1.718     3.43      3.66806     20.41237      97.2692        14     1.030     0.943  33.34   0
       252    521.1250    384.2788 300.2108065 +22.6412566     206.2055     72.46132      1.030     2.97     4.508627     20.41237     45.81702         7     0.752     0.644   4.09   0
       253    693.9982    383.3272 300.2649671 +22.6927521     292.3494     72.25864      1.336     4.50     4.483768     20.41237     45.75945         6     0.865     0.665 -39.67   0
       254    205.1199    382.1761 300.1131552 +22.5459748     2089.246     72.31396      1.449     2.99     4.344927     20.41237     221.5061        22     1.165     0.967  40.38   0
       255    591.0514    371.6273 300.2366910 +22.6585632     6597.583     72.36926      1.301     2.33     4.520844     20.41237     973.1611        32     1.137     0.998  57.31   0
       256    575.9156    373.7495 300.2312877 +22.6546404    -5.388098     72.33241      1.094     3.83     4.552043     20.41237     31.13429         5     0.855     0.492  52.36   0
       257   1004.7834    372.0925 300.3655286 +22.7825428     1297.453     72.27708      1.479     2.85     3.558803     20.41237     148.7078        22     1.193     0.997  47.09   0
       258    305.8831    370.9226 300.1481484 +22.5729385     670.8569     72.46132      1.334     3.01     4.502423     20.41237     89.43703        11     0.982     0.710  38.82   0
       259    163.3903    364.1971 300.1060154 +22.5283057     591.0946     72.16631      1.433     4.97     4.397979     20.41237     61.05267        12     1.151     0.807  23.66   0
       260    851.1462    363.7800 300.3203005 +22.7341752     285.1773     72.33241      1.218     2.47     4.259675     20.41237     50.98697         6     0.734     0.545 -54.81   0
       261     10.8282    361.7802 300.0593830 +22.4818800     1266.067     72.35084      1.626     3.33     4.407109     20.41237      144.182        21     1.211     1.053  -4.77   0
       262    705.0716    361.4767 300.2755106 +22.6897862     501.9039     72.46132      1.355     4.76     4.425722     20.41237     83.95943         9     1.037     0.829 -52.45   0
       263    795.3989    360.5418 300.3039694 +22.7165580     1229.553     72.29552      1.393     2.78     4.181773     20.41237     156.9771        14     1.016     0.829  68.51   0
       264    497.7099    357.8763 300.2120854 +22.6266568     6128.414     72.49812      1.329     2.40     4.300574     20.41237     936.7567        32     1.144     1.020  44.95   0
       265    987.0735    352.7502 300.3662809 +22.7716800     533.4514     72.35084      1.338     3.04     3.673541     20.41237     70.51408        11     1.013     0.729  28.63   0
       266    889.7654    352.1970 300.3361043 +22.7424023     1494.667     72.35084      1.455     2.76     4.271538     20.41237     175.3088        19     1.027     0.999 -48.50   0
       267    482.1298    346.6087 300.2108915 +22.6187527     454.7459     72.33241      1.173     2.59     4.238591     20.41237      74.6499         8     0.809     0.722  73.71   0
       268    564.7886    344.4476 300.2373326 +22.6428871     505.9612     72.36926      1.222     3.54     4.445449     20.41237     66.09321         9     1.029     0.634  43.57   0
       269      9.1720    343.1677 300.0649087 +22.4760410     1011.703     72.35084      1.489     3.95     4.468792     20.41237     110.2798        20     1.209     1.051  43.22   0
       270    862.4130    340.0323 300.3315220 +22.7307180      487.499     72.33241      1.337     3.14     4.361375     20.41237     71.01677         9     0.934     0.751  57.48   0
       271    385.2153    337.1092 300.1838073 +22.5869935     2494.852     72.27708      1.325     2.49     4.383688     20.41237     314.1012        23     1.103     0.924  45.08   0
       272    103.5506    334.2440 300.0971339 +22.5017702     1056.677     72.38768      1.558     3.45     4.430239     20.41237     122.4475        18     1.263     0.987  24.03   0
       273    733.4368    331.8329 300.2939721 +22.6897556     291.2892     72.36926      1.256     4.21     4.355415     20.41237     35.58164         5     0.900     0.562  42.29   0
       274    332.5546    329.9846 300.1697327 +22.5691707     340.9376     72.36926      1.431     3.76     4.574314     20.41237     35.46372         6     0.818     0.497 -89.66   0
       275    354.6386    326.4845 300.1777401 +22.5747813     30020.46     72.33241      1.375     2.41     4.558447     20.41237     4221.696        66     1.295     1.155  46.92   0
       276    889.3586    324.0631 300.3451085 +22.7341892      1357.13     72.33241      1.332     2.57     4.320631     20.41237     171.1523        18     1.064     0.925 -70.25   0
       277    844.6326    321.8852 300.3318668 +22.7201778     253.7349     72.31396      1.594     4.35     4.331275     20.41237      43.3069         7     1.169     0.461 -82.42   0
       278     50.9393    314.2433 300.0872728 +22.4802583     5180.104     72.35084      1.596     3.09     4.503149     20.41237     482.9617        39     1.351     1.225  42.74   0
       279    804.4868    312.9659 300.3222436 +22.7055977     573.2241     72.31396      1.179     3.26     4.272406     20.41237     68.14568        11     1.067     0.659  35.45   0
       280    228.9302    312.6542 300.1431220 +22.5331451      325.253     72.38768      1.029     2.05     4.513722     20.41237     80.86839         7     0.782     0.559  77.88   0
       281    453.0618    311.6547 300.2131854 +22.6000026     545.7075      72.4061      1.270     2.33     4.251264     20.41237     92.71268        10     0.920     0.652  64.67   0
       282    765.1122    306.2243 300.3121562 +22.6918740     1887.026     72.31396      1.331     2.56     4.309482     20.41237     243.1313        21     1.037     0.985 -84.76   0
       283    980.0673    299.3888 300.3814130 +22.7542332     681.0464     72.36926      1.355     3.70     4.338485     20.41237     73.30382         8     1.038     0.580   4.90   0
       284    833.7495    292.5482 300.3379933 +22.7084837     196.6838     72.38768      1.001     3.57     4.340124     20.41237     47.61157         5     0.950     0.456  13.83   0
       285    426.8384    290.8701 300.2117666 +22.5861761     2108.115     72.31396      1.534     3.36     4.260297     20.41237     250.0337        25     1.295     0.991  58.61   0
       286    639.0475    289.6324 300.2782530 +22.6493660     287.9352     72.38768      1.112     3.66     4.356987     20.41237     49.04004         7     0.934     0.601 -56.25   0
       287    866.1666    284.0169 300.3508707 +22.7157310     560.0854     72.33241      1.283     2.84     4.369048     20.41237     80.32471        10     0.902     0.723   7.13   0
       288    766.2198    281.5937 300.3204938 +22.6851228     322.9043     72.31396      1.366     2.58     4.322962     20.41237     34.04549         5     0.698     0.470 -16.04   0
       289    748.1419    281.2359 300.3149747 +22.6796091     468.4401     72.35084      1.313     3.45     4.323457     20.41237     70.12097         8     0.832     0.705 -61.85   0
       290    716.7498    281.0302 300.3052571 +22.6701536     288.0209     72.36926      1.206     2.70     4.318336     20.41237     43.92024         7     0.711     0.667 -20.53   0
       291    502.7622    270.2144 300.2421053 +22.6029780     1187.173     72.35084      1.282     2.44     4.337665     20.41237     166.7236        14     1.038     0.802  38.96   0
       292    309.8565    270.4716 300.1819813 +22.5452745     263.6686     72.36926      1.264     1.84     4.793448     20.41237     52.10651         5     0.663     0.466 -22.38   0
       293     74.9623    270.6194 300.1088924 +22.4749336     300.9323     72.36926      1.532     3.48     4.598908     20.41237     36.71934         5     0.813     0.431  18.96   0
       294    587.9996    267.1527 300.2696442 +22.6276204     298.9119     72.35084      1.280     4.91     4.387539     20.41237     32.59903         5     1.156     0.592  78.33   0
       295    242.4834    265.3251 300.1626935 +22.5236119     182.4151     72.44292      1.161     3.42     4.607001     20.41237      38.4407         5     0.757     0.447  68.46   0
       296    885.8344    263.6512 300.3636127 +22.7157583     219.1246     72.36926      1.219     4.17     4.368666     20.41237     53.55397         8     1.062     0.637  42.02   0
       297    747.5652    262.2146 300.3209666 +22.6739668     2162.363     72.35084      1.289     2.51     4.338831     20.41237     278.5395        20     1.061     0.912  54.56   0
       298   1008.9429    256.5756 300.4043153 +22.7505539     3127.804     72.35084      1.459     2.57      4.49348     20.41237     417.0723        28     1.192     1.079  56.25   0
       299    942.0632    250.1397 300.3855360 +22.7286948     95.00452     72.38768      1.053     4.37     4.378416     20.41237     39.16145         5     0.789     0.688  -8.97   0
       300    455.9936    246.0530 300.2353828 +22.5820288     652.5256     72.31396      1.315     2.74     4.434964     20.41237     94.15778         9     0.813     0.716  30.52   0
       301    130.7015    240.0779 300.1361257 +22.4828672     1402.037     72.46132      1.691     3.48     4.579885     20.41237     126.1967        24     1.373     1.073 -53.41   0
       302    161.5040    240.1726 300.1456712 +22.4921243     620.4962     72.27708      1.430     2.80     4.480091     20.41237     88.16537        11     1.008     0.667  14.76   0
       303   1023.7457    236.9621 300.4152981 +22.7493381     323.9387      55.8807      1.111     3.11     4.526877     20.41237     59.01768         6     0.956     0.410 -80.16  24
       304    867.9943    233.8540 300.3677160 +22.7018490     261.0343     72.35084      1.070     2.27     4.367483     20.41237     59.61844         5     0.761     0.472 -61.16   0
       305    215.1178    232.3794 300.1648703 +22.5059496     407.4058     72.31396      1.046     2.91     4.584842     20.41237     68.83105         7     0.922     0.469  -9.10   0
       306   1009.4503    229.7779 300.4131676 +22.7429948     226.3897     72.35084      1.276     5.23     4.499588     20.41237     38.24969         9     1.108     0.774  27.07   0
       307    890.8450    225.9104 300.3774197 +22.7064008     295.2643     72.33241      0.843     1.83     4.354671     20.41237      68.1895         6     0.683     0.532  30.60   0
       308    819.2776    223.6719 300.3558274 +22.6843431     624.4333     72.46132      1.260     3.05     4.369462     20.41237     92.47248        12     1.003     0.829 -66.54   0
       309    409.8243    223.3114 300.2283885 +22.5616667     434.4947     72.29552      1.131     2.41      4.76066     20.41237      64.5136         7     0.787     0.589  20.25   0
       310    909.9337    217.2263 300.3861908 +22.7096135     421.0331     72.33241      1.481     3.52     4.335504     20.41237     44.32934         6     0.857     0.572  87.88   0
       311    917.4070    212.7078 300.3899878 +22.7105493     2024.596     72.25864      1.346     2.42     4.328225     20.41237     284.8741        21     1.166     0.940  59.82   0
       312    335.8259    209.9384 300.2096979 +22.5356615     2114.773     72.35084      1.357     2.67     4.917301     20.41237     296.3801        22     1.107     0.967  75.74   0
       313    413.7439    204.9205 300.2355738 +22.5575553     1190.213     72.38768      1.478     2.84     4.831945     20.41237     137.7582        18     1.056     0.961 -57.20   0
       314    815.6100    204.2090 300.3609973 +22.6776474     508.4136     72.24018      1.271     3.46     4.386185     20.41237     85.62009        12     1.133     0.776  46.04   0
       315    165.6137    204.6236 300.1584797 +22.4831452     458.9148     72.35084      1.708     6.83     4.606697     20.41237     44.73617        10     1.333     0.981  11.97   0
       316    854.8913    204.1803 300.3732556 +22.6893925     296.1822     72.27708      1.373     3.63     4.348596     20.41237     45.30017         5     1.098     0.621 -19.44   0
       317    922.6584    201.6565 300.3952107 +22.7089407     375.7601     72.42451      1.263     4.09     4.315444     20.41237     41.56268         7     1.044     0.474  27.57   0
       318    230.6350    196.9829 300.1811771 +22.5004302     790.0099     72.35084      1.466     3.30     4.824736     20.41237     100.8898        11     1.025     0.764  42.27   0
       319    768.5125    194.0492 300.3496092 +22.6606319     1856.123     72.35084      1.359     2.49     4.447372     20.41237     208.7076        21     1.082     0.950  52.38   0
       320     82.8892    194.8771 300.1359247 +22.4555589      263.441     72.49812      1.533     4.37     5.011668     20.41237     32.59068         5     0.787     0.689 -29.38   0
       321    833.2750    193.6651 300.3699255 +22.6799000     636.0237      72.4061      1.360     3.34      4.37029     20.41237     85.92252        11     1.098     0.673  59.32   0
       322    251.9711    190.4777 300.1899230 +22.5049527     491.5875     72.35084      1.261     3.47     4.889182     20.41237     69.34512         9     1.031     0.608   1.64   0
       323    772.3754    185.5629 300.3535660 +22.6593470      831.897     72.36926      1.505     3.13     4.463935     20.41237      92.1279        14     1.085     0.827  23.36   0
       324    693.0374    184.7718 300.3290938 +22.6353766     1285.452     72.35084      1.340     2.15     4.362619     20.41237     207.7078        16     0.957     0.854  27.13   0
       325    514.1015    180.8990 300.2746087 +22.5807007     415.5533     72.59001      1.320     4.65     4.503998     20.41237     45.31876         8     0.992     0.618  66.56   0
       326    888.4689    176.2523 300.3927861 +22.6914036     1483.767     72.35084      1.387     2.90      4.29621     20.41237     184.5039        18     1.141     0.893  66.65   0
       327    619.1521    176.6223 300.3087153 +22.6109189     1034.135     72.36926      1.318     2.46     4.323551     20.41237     136.2597        16     0.985     0.842  15.15   0
       328    900.6399    175.3469 300.3968760 +22.6947842     806.0074     72.33241      1.305     2.78     4.293407     20.41237     120.9709        14     1.067     0.805 -89.60   0
       329    459.8021    172.4581 300.2604397 +22.5620169     214.6278     72.31396      1.254     4.22     4.773948     20.41237     34.94021         5     1.050     0.618 -65.00   0
       330   1017.1730    165.5924 300.4363975 +22.7268339     1131.737     72.35084      1.473     2.68     4.536573     20.41237     156.4873        17     1.019     0.977 -85.13  16
       331     40.7283    162.2063 300.1334169 +22.4335425     474.3307     72.31396      1.637     3.70     5.417349     20.41237      69.8755        12     1.070     0.897  40.28   0
       332    251.2667    158.7450 300.1999949 +22.4956247     672.3608      72.4061      1.315     3.17      5.05911     20.41237     96.43241        13     1.074     0.792  51.32   0
       333    113.1218    153.4334 300.1587618 +22.4527144     2179.821     72.33241      1.449     2.78     5.038952     20.41237     257.3354        25     1.290     1.011  36.61   0
       334    936.5457    150.5989 300.4161027 +22.6984039     861.1602     72.27708      1.579     2.84     4.321926     20.41237     96.98051        15     1.014     0.904   2.04   0
       335     62.6020    150.0971 300.1441412 +22.4366192     554.1087     72.25864      1.617     4.52     5.300012     20.41237     61.16843        12     1.225     0.913  -1.21   0
       336    270.5427    146.7642 300.2098758 +22.4979559     5697.783     72.35084      1.427     2.54     5.043499     20.41237     770.5546        35     1.210     1.111  68.41   0
       337     54.7479    140.9247 300.1446744 +22.4316315     1309.908     72.36926      1.606     3.84     5.347267     20.41237     140.5554        19     1.285     0.918  70.73   0
       338    254.0438    137.3971 300.2077811 +22.4903227     537.3226     72.36926      1.388     3.39     5.056768     20.41237     57.76233        10     0.965     0.750  36.46   0
       339    914.7634    128.2135 300.4165670 +22.6854470     3700.753     72.35084      1.495     2.83     4.334948     20.41237     488.1653        33     1.331     1.132  78.83   0
       340   1018.3975    127.1634 300.4492421 +22.7161398     2775.325     72.36926      1.482     2.70     5.013733     20.41237     344.0049        29     1.231     1.135  58.71  16
       341    463.8250    123.5970 300.2775367 +22.5491758     587.5372     72.29552      1.413     3.60       4.8118     20.41237     73.80533        15     1.195     0.798  19.84   0
       342    216.9370    123.8336 300.2006380 +22.4753112     327.2167     72.35084      1.337     3.16     5.066046     20.41237     48.98499         7     0.859     0.621  54.51   0
       343    578.5894    121.8034 300.3138566 +22.5830149     361.5561     72.16631      1.217     1.81     4.565564     20.41237     52.31652         5     0.652     0.467  70.20   0
       344    388.1766    115.4836 300.2566197 +22.5241941     488.2745     72.31396      1.182     2.57     5.052533     20.41237     72.46806        10     0.889     0.695  36.13   2
       345    392.7402    114.0179 300.2585153 +22.5251393     383.8194     72.33241      1.399     4.99     5.048561     20.41237     54.84443         8     1.190     0.592  -3.18   3
       346    154.3663    112.3018 300.1849203 +22.4532552     695.3148     72.33241      1.422     2.65     5.041501     20.41237      82.8522        11     0.884     0.791  31.69   0
       347    515.5159    110.8410 300.2977673 +22.5609830     1734.437     72.31396      1.301     2.39     4.660154     20.41237     240.1981        21     1.082     0.899  49.30   0
       348    443.5377    111.1577 300.2752542 +22.5395261     486.7982     72.35084      1.383     2.85     4.904417     20.41237     66.11407        10     0.952     0.660  31.97   0
       349    577.0128    110.3413 300.3170820 +22.5792471     426.8604     72.33241      1.265     3.51      4.62843     20.41237     42.67406         7     0.855     0.566  25.71   0
       350    258.7725    105.8131 300.2194924 +22.4826635      409.134     72.35084      1.670     4.10     5.052866     20.41237     44.45486         7     1.124     0.428  60.60   0
       351    803.9501    100.3923 300.3910295 +22.6442934     416.0531     72.35084      1.301     2.31     4.915374     20.41237     64.07695         7     0.709     0.626 -29.95   0
       352    289.5557     90.5828 300.2340059 +22.4875057     5902.095     72.36926      1.467     2.58     5.027196     20.41237     777.3499        37     1.339     1.093  57.67   0
       353    796.3658     91.5686 300.3915256 +22.6394859     321.7679     72.36926      1.235     3.49     4.942857     20.41237     54.66815         6     0.922     0.417  18.95   0
       354    140.5123     89.9318 300.1878654 +22.4426785     677.6934     72.49812      1.601     4.21     5.110514     20.41237     74.83602        11     1.132     0.746  40.51   0
       355    918.8047     88.6332 300.4306613 +22.6752658     331.9158     72.33241      1.325     4.22     4.444217     20.41237     37.28106         6     0.760     0.669 -41.87   0
       356    261.5084     84.2291 300.2273408 +22.4772804     230.5184     72.31396      1.217     4.54      5.04517     20.41237     41.74739         6     0.939     0.623 -18.39   0
       357    305.0175     81.7922 300.2416659 +22.4896096     290.7527     72.29552      1.227     4.08     5.039404     20.41237     38.70068         7     0.727     0.704  20.25   0
       358     51.0553     81.1611 300.1629025 +22.4133597     402.5605     72.35084      1.323     2.40     5.265934     20.41237      56.3044         6     0.729     0.525 -29.27   0
       359    535.6231     75.9867 300.3153289 +22.5569800      6264.91     72.33241      1.384     2.52     4.665605     20.41237     816.3306        37     1.263     1.044  61.56   0
       360    420.9332     75.7703 300.2796903 +22.5225857     646.5369     72.33241      1.362     3.37     4.998956     20.41237     84.42734        14     1.126     0.809  37.11   0
       361    592.7729     70.8884 300.3347819 +22.5726184      237.672     72.33241      1.110     2.91     4.735284     20.41237     50.40785         8     0.824     0.656 -41.30   0
       362    788.5845     65.8480 300.3974381 +22.6297579     879.1266     72.38768      1.480     2.90     4.925567     20.41237     104.6273        12     1.041     0.720  -2.59   0
       363    880.6865     64.6733 300.4265393 +22.6569698     374.0235     72.47972      1.188     2.88     4.714111     20.41237     68.81402         8     0.881     0.696  45.22   0
       364    228.4489     59.9600 300.2249253 +22.4604055     434.3602     72.38768      1.159     4.28     5.067351     20.41237     69.99745         8     1.182     0.569 -59.69   0
       365    587.1180     58.6054 300.3370022 +22.5673935     351.5981     72.27708      1.081     3.57      4.73321     20.41237     58.42933         6     0.781     0.643  -4.83   0
       366    663.9927     56.0695 300.3617745 +22.5896686     6200.558     72.33241      1.375     2.62     4.951414     20.41237     770.6392        33     1.242     1.045  70.69   0
       367    438.8128     55.0470 300.2919737 +22.5219806     1412.124     72.36926      1.384     3.02     4.896143     20.41237     168.6174        18     1.161     0.881  68.24   0
       368    705.1458     53.6016 300.3753991 +22.6012720     984.4029     72.29552      1.499     2.51     4.893156     20.41237     123.0714        15     1.057     0.876 -73.02   0
       369    721.3087     49.7680 300.3816792 +22.6050050     628.3412     72.29552      1.474     2.24     4.849608     20.41237     104.8532         9     0.853     0.668 -43.46   0
       370    991.0728     47.4068 300.4665736 +22.6850119     477.0621     72.29552      1.457     3.46     5.115273     20.41237     50.20951         9     0.875     0.735 -28.47   0
       371    187.7636     47.7358 300.2162350 +22.4447078     685.0713     72.35084      1.404     3.30     5.070094     20.41237     91.03037        12     0.984     0.844 -74.32   0
       372    759.4271     45.2124 300.3950377 +22.6150982     456.1862     72.35084      1.108     3.61     4.851467     20.41237     66.94012         8     1.050     0.564 -15.48   0
       373    708.2125     41.0403 300.3804266 +22.5985760     2714.901     72.35084      1.344     2.49     4.910464     20.41237       335.61        26     1.098     1.069 -79.20   0
       374    349.0717     41.8146 300.2683320 +22.4913099     358.1274     72.35084      1.248     3.12     5.118218     20.41237     52.41218         8     0.840     0.740  82.44   0
       375    723.6097     39.8481 300.3856119 +22.6028396     907.8638     72.36926      1.945     4.55      4.84884     20.41237     81.87872        14     1.285     1.035  35.54   0
       376      2.0232     34.9284 300.1626518 +22.3853898     720.6918     60.22168      1.414     2.95     4.808426     20.41237       98.605        11     1.005     0.748  81.74  24
       377    794.5806     32.6441 300.4100708 +22.6219979      1440.45     72.36926      1.344     2.58     4.940387     20.41237     206.8251        17     1.071     0.875  74.11   0
       378    732.7360     25.7634 300.3930218 +22.6015177     722.1909     72.35084      1.360     2.67     4.816947     20.41237     111.5148        13     0.940     0.850 -21.99   0
       379    538.2354     24.9112 300.3326985 +22.5430741     1273.814     72.33241      1.668     3.25     4.657546     20.41237     116.2795        16     1.175     0.824  80.80   0
       380    110.9236     24.8101 300.1997753 +22.4151058     530.2412     72.33241      1.622     4.09     5.053947     20.41237      61.4701        12     1.198     0.797  46.11   0
       381    442.2430     23.1404 300.3033834 +22.5138338     783.1227     72.33241      1.344     3.29     4.856107     20.41237     98.39385        12     1.012     0.886 -67.25   0
       382    824.5234     22.2543 300.4227746 +22.6279646     521.4844     72.38768      1.504     3.54     4.949707     20.41237     56.58955         8     0.976     0.568  17.50   0
       383    273.2334   1010.0126 299.9302860 +22.7465649     3140.943     72.33241      6.274    23.92     49.58632     20.41237     83.91316       153     4.871     3.262  -5.95  19
       384    242.4207    996.1556 299.9252128 +22.7333455     4509.556      72.4061      8.104    20.15     61.58405     20.41237     83.99107       272     5.310     4.092 -77.47  19
       385      5.9146     13.1054 300.1709333 +22.3802870     485.9086     72.53489      1.930     3.94     4.541399     20.41237     34.89156         6     0.761     0.582 -49.68   0
       386    261.5505    995.3029 299.9314394 +22.7388410      5834.46      72.4061     12.865    50.53     48.71712     20.41237      107.909       776    12.219     5.799 -49.88  19
       387    539.2093     10.5896 300.3376434 +22.5392469     206.2014     72.24018      1.071     2.06     4.656163     20.41237     53.81111         5     0.703     0.428 -25.76   0
       388    280.6276    983.6603 299.9411612 +22.7412260     8544.924     72.36926     10.074    36.65     32.29179     20.41237      174.837       864    12.217     4.943  65.61  19
       389    396.3954   1008.6743 299.9690370 +22.7831319     436.8223     72.27708      1.467     3.54     3.221783     20.41237     35.76929         5     0.777     0.464  27.28   3
       390    397.7493   1006.9180 299.9700299 +22.7830342     540.3441     72.36926      1.818     4.13     3.213912     20.41237      60.9063         7     1.569     0.342  46.90   2
       391    681.2188    993.8673 300.0625438 +22.8642989     9555.579     72.33241      1.960     4.54     3.465439     20.41237     561.1376        52     1.562     1.447  35.68   3
