#   1 NUMBER                 Running object number                                     
#   2 X_IMAGE                Object position along x                                    [pixel]
#   3 Y_IMAGE                Object position along y                                    [pixel]
#   4 ALPHA_J2000            Right ascension of barycenter (J2000)                      [deg]
#   5 DELTA_J2000            Declination of barycenter (J2000)                          [deg]
#   6 FLUX_APER              Flux vector within fixed circular aperture(s)              [count]
#   7 FLUXERR_APER           RMS error vector for aperture flux(es)                     [count]
#   8 FLUX_RADIUS            Fraction-of-light radii                                    [pixel]
#   9 FWHM_IMAGE             FWHM assuming a gaussian core                              [pixel]
#  10 BACKGROUND             Background at centroid position                            [count]
#  11 THRESHOLD              Detection threshold above background                       [count]
#  12 FLUX_MAX               Peak flux above background                                 [count]
#  13 ISOAREA_IMAGE          Isophotal area above Analysis threshold                    [pixel**2]
#  14 A_IMAGE                Profile RMS along major axis                               [pixel]
#  15 B_IMAGE                Profile RMS along minor axis                               [pixel]
#  16 THETA_IMAGE            Position angle (CCW/x)                                     [deg]
#  17 FLAGS                  Extraction flags                                          
         1    727.3655     23.5910 300.3928424 +22.6016581      744.084     72.15031      1.321     3.23     5.551016     20.36098     104.0197        13     1.256     0.646  37.17   0
         2    776.3163     11.2903 300.4120848 +22.6127666     570.1794      72.3156      1.432     3.82     5.402318     20.36098     71.09638         9     1.090     0.613  83.25   0
         3    534.2905      8.4611 300.3375996 +22.5395235     461.4323     72.26054      1.481     2.59     5.244503     20.36098     43.96385         5     0.695     0.464  20.52   0
         4    769.5673      3.2950 300.4125717 +22.6084475      776.922     65.98466      1.293     2.95     5.423749     20.36098     99.47137        15     1.041     0.872  66.93  24
         5    324.1054      2.8095 300.2740127 +22.4749702     1077.267     63.85952      1.314     2.71     4.842697     20.36098     142.3603        15     1.043     0.855  25.57  24
         6    208.1535     10.6442 300.2354111 +22.4424945     4018.724     72.20544      1.602     2.74     4.879554     20.36098     425.4073        37     1.382     1.161  42.17   0
         7    206.7848   1003.5249 299.9126396 +22.7270135      2530.36     72.16869      4.150    16.47     79.06067     20.36098     67.97758        79     4.530     1.664 -49.60  19
         8    285.1599   1022.0906 299.9309684 +22.7558590     1413.944     64.33554      3.184    12.16     38.92145     20.36098     59.33588        37     2.947     1.396 -32.43  27
         9    284.5785   1017.9856 299.9321232 +22.7545077     1311.119     72.15031      3.693     9.97     37.57786     20.36098     51.44753        25     2.369     1.170 -28.17  19
        10    126.6072   1013.2352 299.8845598 +22.7057287     2829.212     72.16869     13.237    68.44     88.54328     20.36098     118.7299      1037    17.846     7.283  42.21  27
        11    115.7366    956.6369 299.8995929 +22.6862442     5191.577     72.16869     21.444   105.01     36.66938     20.36098     1174.828      3169    20.660    14.808 -12.73  19
        12    150.0762    985.3083 299.9009386 +22.7047700     1060.706      72.3156      9.641    10.70     64.37698     20.36098     49.33093        17     2.803     1.139 -38.59   1
        13    770.6293    994.8027 300.0909810 +22.8936564     531.7295     72.11353      1.685     5.73     3.724483     20.36098     36.45987        10     1.047     0.882  36.08   0
        14    962.9603    977.5425 300.1565618 +22.9463519     756.4977     72.15031      2.043     7.55     3.865158     20.36098      47.0979        16     1.502     1.061  32.76   0
        15    183.9464   1012.5944 299.9025895 +22.7227579     265.4175     72.15031      1.586     3.94     88.00867     20.36098     33.50435         5     0.916     0.486  -5.17   1
        16    392.1800   1005.3732 299.9696967 +22.7831809     669.6909     72.16869      2.471     6.35     3.805558     20.36098     47.49739        12     1.389     1.024  39.77   0
        17    203.4256    985.7744 299.9173698 +22.7209171     1689.768     72.13192      3.783     9.65     64.07181     20.36098     57.45739        30     1.826     1.423  45.50   3
        18    181.8749    962.3864 299.9182785 +22.7077444     1948.199     72.18707      7.435    14.16     44.38175     20.36098     54.84987        58     2.880     2.079  35.06   3
        19    688.6324    960.7163 300.0765205 +22.8592893     6921.632     72.13192      1.906     4.20     3.221546     20.36098     383.0878        49     1.566     1.428  40.95   0
        20    169.3400   1014.7073 299.8973619 +22.7189789     1483.874     72.24218      3.331    10.97     90.63269     20.36098     52.55319        29     1.900     1.791 -76.59  18
        21    568.3107    955.1370 300.0408604 +22.8216069     439.9509     72.26054      1.645     5.43     3.562615     20.36098     39.00455        11     1.136     0.869 -10.57   0
        22    597.0677    951.6517 300.0509489 +22.8292312     1460.637     72.18707      1.811     4.57     3.551954     20.36098     118.1585        20     1.293     1.061  -9.50   0
        23      5.2434    999.4893 299.8513261 +22.6653514     3022.257      71.9662     15.496    45.74    -24.34056     20.36098     61.49738       386     9.980     5.818 -86.65  27
        24    113.8376    923.4620 299.9097924 +22.6761652     4013.224     72.18707     18.347    58.33     10.16814     20.36098     89.84343      1040    13.333     7.082 -30.17   3
        25    490.9139    948.0185 300.0190806 +22.7963511     1104.865     72.11353      1.756     3.72      3.53774     20.36098     95.29725        21     1.245     1.087  11.62   0
        26    421.4978    945.9290 299.9981565 +22.7749289     6809.039     72.29725      1.840     3.91     3.819903     20.36098     507.7189        43     1.431     1.368  31.20   0
        27      9.8946    948.1959 299.8694551 +22.6520503     610.7592     72.07672      3.411     3.84    -2.779426     20.36098      37.9964         5     0.865     0.488 -55.83   0
        28     18.3996    980.3521 299.8616378 +22.6638183     1510.276     72.16869     12.869    21.42    -6.531412     20.36098     46.57478        64     3.846     3.315 -77.24  19
        29    201.3943    976.1177 299.9198797 +22.7175393     1240.955     72.09512     17.569    15.97     55.69782     20.36098     55.12942        35     4.150     1.709  65.37   3
        30    453.9500    933.2690 300.0123733 +22.7810325      723.121     72.16869      1.906     4.45     3.637661     20.36098     51.81099        12     1.207     0.977 -36.88   0
        31      4.4185   1017.7161 299.8451404 +22.6703260     3485.589     69.98493      8.623    36.21    -33.09656     20.36098     71.83651       328     7.590     5.163  -7.10  27
        32    967.9490    924.8818 300.1752488 +22.9327251     2149.213     72.18707      1.955     4.74     4.077331     20.36098      118.771        31     1.466     1.362  58.31   0
        33    618.1001    921.7260 300.0672328 +22.8269513     446.7382     72.29726      1.735     4.95      3.46686     20.36098     34.05709         9     1.042     0.665  54.36   0
        34    756.7150    913.5237 300.1130847 +22.8661559     851.4404      72.2789      2.328     8.68      3.73318     20.36098     43.96463        19     1.535     1.493  66.36   0
        35    218.2760   1007.4125 299.9149473 +22.7315770     1240.121     72.18707      4.124    16.14     80.97399     20.36098     55.38626        35     3.366     2.151 -51.91  19
        36    791.6673    907.9888 300.1257781 +22.8750441     989.8947     72.18707      1.765     4.67     3.752338     20.36098     67.17885        19     1.287     1.054 -15.42   0
        37    569.2931    908.5419 300.0563217 +22.8085325     394.0201     72.22382      1.547     3.49     3.481229     20.36098     44.15078         5     0.745     0.473 -15.76   0
        38    583.7004    998.2899 300.0316141 +22.8386029     2514.455     72.33395      1.954     5.10     3.715419     20.36098     152.4663        31     1.433     1.365  76.51   0
        39    813.7741    901.5498 300.1347629 +22.8798218     11359.39     72.18707      1.811     4.00     3.785943     20.36098      701.042        57     1.488     1.435 -12.26   0
        40    199.1804   1004.8075 299.9098584 +22.7250986     531.4821     72.13192      1.847     5.39     80.33892     20.36098     37.66196         5     1.180     0.693 -78.46   1
        41   1004.1929    902.1838 300.1939377 +22.9370661     460.4343     72.09512      1.793     4.17     4.196384     20.36098     41.50382         6     1.284     0.387 -18.81   2
        42    859.2604    901.6891 300.1488978 +22.8934946     441.7659     72.26054      1.745     5.87      3.84218     20.36098      38.8593         9     1.133     0.855  25.49   0
        43    183.9121    897.7454 299.9399347 +22.6898246     847.0452     72.20544      7.478     7.57     12.19515     20.36098     37.21193        11     2.181     0.736 -44.34   0
        44    125.9718    892.8519 299.9235175 +22.6710327     1172.887     72.18707      3.636     5.14     8.904015     20.36098     68.86987        15     1.432     0.726  78.80   2
        45    519.2845    889.6453 300.0468971 +22.7881136     550.7899     72.15031      2.183     6.01     3.549807     20.36098     36.25453         9     1.396     0.751   6.28   0
        46    670.3021    993.6619 300.0600921 +22.8632468     8851.184     72.26054      1.982     4.51     2.781553     20.36098     497.9413        46     1.521     1.456   3.10   3
        47    822.2016    883.7747 300.1431708 +22.8772444     1411.494     72.11353      1.728     4.24     3.831632     20.36098     95.94907        21     1.219     1.101 -40.23   0
        48    116.1035    884.6243 299.9231261 +22.6657123     627.6173     72.07672      3.490     5.52     7.407843     20.36098     29.58512        10     1.243     0.693 -85.69   0
        49   1004.0538    882.1926 300.2003960 +22.9312826     374.3996     72.16869      1.704     5.96     4.290745     20.36098     35.76849         8     1.166     0.858  60.69   0
        50    674.8539    880.8483 300.0982051 +22.8322363     410.7645     72.20544      1.870     5.00      3.72771     20.36098     36.80748         7     1.207     0.585  -7.20   0
        51    860.4957    877.1792 300.1572540 +22.8868273     935.2546     72.07672      2.190     6.27     3.860914     20.36098     49.77547        19     1.437     1.266 -24.58   2
        52    200.0934    876.6407 299.9518275 +22.6886295     516.0391     72.18707      2.504     3.50     9.258022     20.36098      41.0318         5     0.821     0.430 -17.78   0
        53    908.7115    868.3496 300.1751596 +22.8987403     585.4046     72.16869      1.837     6.62     4.005679     20.36098     38.14896        13     1.280     0.962  43.52   0
        54    760.2928    867.1129 300.1292930 +22.8539054      795.265     72.33395      1.813     4.97     3.847702     20.36098     60.11477        16     1.173     1.083 -84.88   0
        55    771.8366    864.6087 300.1337050 +22.8566465     627.9589     72.16869      1.782     6.89     3.857464     20.36098     46.46047        14     1.369     0.973  20.87   0
        56    472.7763    863.5978 300.0408901 +22.7666922     4216.932     72.11353      1.657     3.53      3.78687     20.36098     347.1523        33     1.282     1.255  34.86   0
        57    135.0488    851.7188 299.9397127 +22.6619647     417.4586     72.20544      1.693     5.30     6.516707     20.36098     32.71854         8     1.057     0.750  57.59   0
        58    516.2612    851.3702 300.0584018 +22.7762247     485.7715     72.18707      1.753     3.47     3.757248     20.36098     40.08182         5     0.749     0.464  13.17   0
        59    198.0182    849.5641 299.9599860 +22.6802430     721.2897     72.16869      1.699     4.85     7.042502     20.36098     60.35512        13     1.234     0.900   0.09   0
        60    107.4221    847.6572 299.9324476 +22.6525092     463.5292     72.18707      2.229     4.06     5.083191     20.36098     33.33918         7     0.981     0.480  82.23   0
        61    175.1019    846.3248 299.9539154 +22.6724376     1417.221     72.29725      1.734     3.98     7.214239     20.36098     141.3855        24     1.303     1.214   6.54   0
        62   1001.1908    834.0472 300.2151589 +22.9165956     2095.174     72.18707      1.807     4.38     4.483656     20.36098     135.5747        29     1.350     1.311 -24.47   0
        63    706.4929    833.7742 300.1233689 +22.8282084     501.2442     72.11353      1.752     4.00     4.043246     20.36098      48.1546        10     1.051     0.768  30.50   0
        64    784.6862    828.1000 300.1495807 +22.8500158      615.895     72.33394      1.531     4.22     4.202847     20.36098     57.81015        11     1.054     0.763 -29.17   0
        65    206.9603    828.0090 299.9697737 +22.6767452     415.4401     72.16869      1.516     6.17     5.907627     20.36098       42.414        12     1.216     0.880  -6.66   0
        66    652.7996    821.7797 300.1105413 +22.8086701      4778.65     72.09512      1.590     3.28     3.999339     20.36098     423.6342        33     1.233     1.204   3.97   0
        67    675.8653    991.4270 300.0625523 +22.8642738     9301.405     72.15031      1.919     4.63     2.810492     20.36098     552.4368        49     1.501     1.456  69.94   3
        68    455.1254    818.8011 300.0499610 +22.7485459     739.5035     72.05831      1.783     4.40     4.259493     20.36098     56.13997        14     1.077     0.999 -74.70   0
        69    203.0277    815.5250 299.9726094 +22.6719852     1425.204     72.18707      1.726     3.64     5.392145     20.36098     154.1544        22     1.301     1.089  51.25   0
        70    673.3411    814.2108 300.1194009 +22.8126550     631.3024     72.11353      1.407     4.00     4.172328     20.36098     73.33952        13     1.176     0.783  55.28   0
        71    222.6183    812.5012 299.9796830 +22.6769959     358.6862     72.09512      1.684     5.95     5.182485     20.36098     42.33299         9     1.224     0.814  17.40   0
        72    590.1721    805.0253 300.0964823 +22.7850861     279.8819     72.15031      1.402     5.43     3.951833     20.36098     36.83887         7     1.333     0.624 -29.40   0
        73    828.8168    801.5483 300.1719690 +22.8556164     4214.022     72.16869      1.645     3.40     4.308536     20.36098     343.6155        33     1.259     1.209  -6.45   0
        74    237.9913    795.6436 299.9899426 +22.6767734     393.4644     72.18707      1.276     3.90      4.74269     20.36098     43.89811         5     1.033     0.422  66.67   0
        75    546.0199    794.2526 300.0862360 +22.7687568     700.1731     72.15031      1.607     4.37      4.31953     20.36098     57.91069        12     1.107     0.938 -20.40   0
        76    192.3051    791.8435 299.9769738 +22.6619768     924.1742     72.18707      1.568     3.56     4.665396     20.36098     108.3992        18     1.198     1.023 -39.84   0
        77    607.1717    787.4095 300.1075029 +22.7851261     486.9622     72.16869      1.374     4.58     3.957602     20.36098     52.77577        10     0.990     0.776  39.30   0
        78    341.8333    784.0148 300.0260178 +22.7045876     53570.71     72.15031      1.606     3.26      4.52164     20.36098     4728.035        91     1.436     1.389  28.17   0
        79   1012.7413    782.6887 300.2354599 +22.9053015     917.2616     72.24218      2.004     5.10     4.687726     20.36098     66.51051        20     1.298     1.199 -60.46   0
        80    599.6594    783.1552 300.1065462 +22.7816529     1704.788     72.18707      1.530     3.02     4.027526     20.36098     162.1597        21     1.097     1.029  41.83   0
        81    316.3462    781.6337 300.0188637 +22.6962598     279.9348     72.18707      1.095     3.78     4.675131     20.36098      34.0945         5     0.978     0.419 -75.25   0
        82    270.3170    782.2944 300.0043335 +22.6826421     493.1183     72.35228      1.578     4.71     4.785302     20.36098     50.74783         8     0.934     0.675  -6.12   0
        83    628.4321    779.0739 300.1168341 +22.7891067     939.0116     72.16869      1.607     3.86     4.104829     20.36098      89.1246        14     1.071     0.971  54.50   0
        84    639.3882    777.5936 300.1207278 +22.7919660     637.6597      72.0399      1.573     4.28     4.169284     20.36098     60.88543        15     1.163     0.950 -64.88   0
        85     28.8781    778.5843 299.9304969 +22.6091345     869.6111     72.18707      2.272     3.98      3.97502     20.36098     55.06068        13     1.013     0.975 -11.33   2
        86    745.3130    773.9927 300.1548998 +22.8226801     491.1951     72.07672      1.670     5.83     4.418349     20.36098     50.87437        10     1.346     0.710 -32.06   0
        87    782.6210    764.0177 300.1697693 +22.8309960     681.1285     72.15031      1.559     3.83     4.500004     20.36098     72.31264        14     1.109     0.973  33.48   0
        88    391.5790    761.2578 300.0488909 +22.7129782     31438.92     72.16869      1.588     3.11     4.514463     20.36098     3061.205        70     1.365     1.319  17.12   0
        89    405.7547    761.7422 300.0531443 +22.7173684     1854.312     72.20544      1.505     3.28     4.535244     20.36098     193.5979        20     1.130     1.051  17.07   0
        90    914.7798    757.3417 300.2131424 +22.8686755     2752.844     72.16869      1.651     3.42     4.225143     20.36098     232.5406        26     1.203     1.172  -7.95   0
        91    402.5743    755.9137 300.0540490 +22.7147422       741.73     72.13192      1.799     4.28     4.517056     20.36098       72.497        14     1.218     0.997  13.46   0
        92    672.6503    753.1276 300.1390415 +22.7949120     939.0249     72.16869      1.512     3.80      4.44978     20.36098     87.75274        16     1.129     0.938  56.59   0
        93    508.7783    753.3851 300.0879251 +22.7458621     547.5123     72.15031      1.630     5.84      4.40423     20.36098     54.60014        11     1.118     0.860 -29.93   0
        94    273.9366    752.9689 300.0149903 +22.6753161     784.4327     72.18707      1.599     4.22     4.700125     20.36098     89.41892        15     1.283     0.866  19.15   0
        95    567.3891    751.0084 300.1069458 +22.7627515     241.8382     72.05831      1.652     4.58     4.353338     20.36098     26.24635         5     1.024     0.581  15.92   0
        96    519.5883    747.9682 300.0930509 +22.7475484     780.1017     72.16869      1.432     3.41     4.424042     20.36098     89.59638        17     1.106     0.984  43.73   0
        97     78.5079    749.0188 299.9555247 +22.6155515     590.2684     72.09512      2.112     5.58     4.467988     20.36098     62.02129         9     1.399     0.628 -13.63   0
        98    920.5296    745.8018 300.2186864 +22.8670830       431.89     72.11353      1.685     5.19     4.265026     20.36098     49.21812         8     1.334     0.569 -33.93   0
        99    377.9651    744.1386 300.0502189 +22.7039836     324.5949     72.18707      1.273     4.15     4.479322     20.36098     43.70597         6     1.081     0.454 -24.98   0
       100    465.4437    743.4922 300.0776512 +22.7300299     301.5261     72.15031      1.234     3.67     4.437464     20.36098      47.2386         6     1.033     0.375 -20.12   0
       101    107.3046    742.4068 299.9666216 +22.6222963     587.2297     72.05831      1.870     5.56     4.464973     20.36098     58.73149        12     1.365     0.817  -6.37   0
       102    674.1234    742.6221 300.1429149 +22.7923373     268.3821     72.15031      1.271     3.89     4.491422     20.36098      47.9753         5     0.897     0.484   2.06   0
       103    897.9772    739.8214 300.2135971 +22.8586092     526.2149     72.16869      2.306     4.97     4.286429     20.36098     37.71875         7     1.126     0.624 -46.68   0
       104    271.8392    737.5999 300.0193327 +22.6702782     371.3518     72.15031      1.447     3.73     4.646252     20.36098     44.43009         8     1.002     0.661 -34.35   0
       105    595.1215    727.8145 300.1231198 +22.7644068     550.7723     72.18707      1.644     4.32     4.344691     20.36098     42.46336        10     1.010     0.937 -79.77   0
       106    564.7578    726.0155 300.1142490 +22.7547886      762.681     72.18707      1.675     3.72      4.42133     20.36098     67.72398        16     1.148     0.993 -35.21   0
       107    474.1458    725.6823 300.0861478 +22.7275278     185.0078     72.20544      1.260     5.31     4.441562     20.36098     43.53791         8     1.006     0.834 -44.07   0
       108    981.1944    722.6593 300.2451299 +22.8786058     4574.605     72.13192      1.688     3.59     4.450783     20.36098     339.1706        34     1.300     1.260  30.68   0
       109    586.5955    723.5524 300.1218497 +22.7606276     1514.077     72.15031      1.512     2.96     4.365929     20.36098     175.8733        18     1.102     0.949  39.58   0
       110    506.1682    723.3097 300.0968868 +22.7364476     368.6016     72.11353      1.405     4.22     4.452587     20.36098      41.6748         6     0.787     0.644 -45.64   0
       111    714.2468    719.1354 300.1630487 +22.7976182     323.0168     72.20544      1.488     4.29     4.558785     20.36098     29.35863         6     1.243     0.422 -29.27   0
       112    667.9996    718.4693 300.1488565 +22.7835673     425.7083     72.11353      1.368     3.00      4.50252     20.36098     59.88158         9     0.938     0.662  66.79   0
       113    969.4789    714.1003 300.2442569 +22.8726377     1801.358     72.29725      1.755     3.50     4.387485     20.36098     151.3116        25     1.242     1.145  16.88   0
       114    332.5224    707.8389 300.0478778 +22.6799404     898.5683     72.15031      1.606     3.39     4.446376     20.36098     110.4565        17     1.126     1.063 -80.91   0
       115    197.9553    708.8378 300.0057060 +22.6398654     155.3682     72.22382      1.113     3.92      4.46636     20.36098     30.41501         6     0.977     0.450  38.58   0
       116    796.0170    705.2997 300.1930282 +22.8181468     2550.432     72.07672      1.622     3.15     4.518768     20.36098     212.5968        30     1.499     1.091  -8.81   0
       117   1000.7330    704.2046 300.2572228 +22.8791550     1666.706     72.15031      1.671     3.62     4.403749     20.36098     151.2765        22     1.181     1.147 -55.45   0
       118     18.3956    695.2784 299.9543113 +22.5821043     744.3815     72.07672      1.630     4.31      4.32962     20.36098     65.42101        15     1.151     0.940 -20.28   0
       119    878.3505    691.0953 300.2233120 +22.8387325      607.851     72.22382      1.597     4.86     4.398287     20.36098     60.94207        10     1.362     0.647  69.78   0
       120    181.4082    691.7031 300.0061293 +22.6299868     694.4501     72.05831      1.753     4.31     4.445755     20.36098     56.30016        15     1.216     0.939   0.21   0
       121    914.3694    682.2103 300.2374313 +22.8469691       149595     72.16869      1.614     3.14     4.332879     20.36098     13462.48       165     1.496     1.490  12.02   0
       122    676.9556    686.0233 300.1621900 +22.7769348     399.6075     72.20544      1.100     2.38      4.52703     20.36098     68.56342         7     0.830     0.521 -40.70   0
       123    766.7228    682.5465 300.1912913 +22.8028348     743.0208     72.20544      1.543     2.81     4.522278     20.36098      82.3751        14     0.945     0.905  77.36   0
       124    519.7990    683.4086 300.1140958 +22.7290808     204.6599     71.98463      1.120     3.39     4.479845     20.36098     28.38078         5     0.744     0.447 -20.13   0
       125    947.3516    675.3468 300.2499481 +22.8548757     501.7621     72.20544      1.683     4.35     4.283531     20.36098     45.60295        10     1.041     0.827  53.45   0
       126    600.7045    671.0731 300.1432962 +22.7497901     1609.918     72.29726      1.401     2.69      4.34603     20.36098     197.7423        22     1.083     1.045  -1.99   0
       127    781.8448    668.3428 300.2006195 +22.8032859     9386.938     72.18707      1.453     2.71     4.517446     20.36098     1037.025        39     1.198     1.170  79.40   0
       128    283.3270    663.3240 300.0470394 +22.6524146     4831.279     72.24218      1.522     2.95     4.342234     20.36098     533.4873        31     1.191     1.172 -31.34   0
       129    365.2481    661.4902 300.0731175 +22.6764543     1205.498     72.16869      1.450     3.27     4.355739     20.36098     143.9364        19     1.138     1.005  17.38   0
       130    240.7661    658.7535 300.0352888 +22.6383389     604.9265     72.20544      1.794     4.53     4.382308     20.36098      51.2758        10     1.171     0.803  14.35   0
       131    573.6390    657.0656 300.1394185 +22.7376565     699.7758     72.13192      1.414     3.10     4.521828     20.36098     96.67195        13     1.001     0.883  51.60   0
       132    565.3230    649.1043 300.1394154 +22.7328783     3113.865     72.29725      1.358     2.65     4.607049     20.36098     388.2925        23     1.102     1.000  53.21   0
       133    555.5464    642.8560 300.1384010 +22.7281541     1392.827     72.20544      1.401     2.90     4.682844     20.36098     188.9904        18     1.038     0.959 -73.57   0
       134    949.1903    640.9654 300.2616924 +22.8455473     475.2748     72.15031      1.616     4.23     4.278807     20.36098     55.96131        10     1.016     0.918 -84.52   0
       135    466.1828    639.3967 300.1117044 +22.7003745     283.6604     72.07672      1.240     3.39     4.452274     20.36098      51.3726         6     0.844     0.706  22.53   0
       136    219.0288    639.1108 300.0349110 +22.6261840     713.1667     72.15031      1.732     3.72     4.406088     20.36098     77.26547        11     1.060     0.721 -16.10   0
       137    233.1777    637.2636 300.0399103 +22.6298976     661.0668     72.15031      1.546     3.71     4.395925     20.36098     84.74094        11     0.984     0.901 -79.54   0
       138   1002.8461    634.0015 300.2806927 +22.8596138     537.7709     72.16869      1.732     4.14     4.228538     20.36098     53.26622        13     1.139     0.861  15.40   0
       139    480.2830    632.6273 300.1182924 +22.7026581     1794.942     72.16869      1.415     2.68     4.459338     20.36098     226.7248        22     1.133     0.998  -0.47   0
       140    289.9892    634.1623 300.0585847 +22.6460451      380.444     72.16869      1.678     3.97     4.336642     20.36098      28.4966         6     0.938     0.480 -35.36   0
       141    258.7391    634.0748 300.0488945 +22.6366486     544.9513     72.22382      1.486     3.66      4.36884     20.36098     54.64379        11     1.002     0.845  -9.86   0
       142    579.7015    633.2075 300.1490571 +22.7326234      324.199      72.0399      1.372     4.10     4.646233     20.36098     48.22091        10     1.062     0.663 -22.09   0
       143    134.2625    627.3833 300.0123698 +22.5973948     20096.87     72.15031      1.667     3.10     4.432292     20.36098     2112.189        65     1.444     1.358  17.36   0
       144     54.9393    628.7177 299.9872869 +22.5739816     635.4715     72.26054      1.819     6.25     4.388595     20.36098     80.44926        12     1.524     0.721  37.62   0
       145    565.2003    627.8904 300.1462687 +22.7267508     1054.948      72.0399      1.416     2.96     4.744225     20.36098     120.5813        14     1.025     0.823  25.65   0
       146    600.5098    627.3728 300.1574327 +22.7371842     305.7884     72.13192      1.187     2.64     4.587729     20.36098     63.68445         7     1.050     0.480  -3.64   0
       147    936.2707    623.5667 300.2633150 +22.8366786     196.5235     72.16869      1.233     3.84     4.290878     20.36098     34.13496         5     0.997     0.424  81.62   0
       148    318.5390    619.4940 300.0722294 +22.6503969     195.9463     72.26054      1.094     3.64     4.336642     20.36098     37.24323         6     0.963     0.396  69.79   0
       149    648.4479    615.2953 300.1762873 +22.7480815     124.7337     72.20544      1.148     4.59     4.612058     20.36098      34.7296         6     1.017     0.588 -37.00   0
       150    983.3687    613.9995 300.2811142 +22.8480331     1078.839     72.13192      1.576     4.30     4.247011     20.36098     105.8693        16     1.168     0.958  12.00   0
       151     80.2633    611.4786 300.0007546 +22.5766344     1584.586     72.26054      2.063     4.92     4.440325     20.36098     109.8668        27     1.570     1.178 -86.52   0
       152    849.8027    612.4398 300.2399656 +22.8075843     460.1122     72.18707      1.342     4.62      4.53842     20.36098     54.19079        10     1.043     0.928  56.02   0
       153    146.1309    611.9669 300.0210660 +22.5965325     454.9554     72.16869      1.548     4.70     4.421991     20.36098     51.31929         7     1.073     0.583  53.89   0
       154    922.4453    607.0621 300.2643645 +22.8277955     1092.188     72.20544      2.600     7.75       4.3248     20.36098     82.01172        21     2.007     0.893  -0.22   0
       155    528.6686    608.3867 300.1412293 +22.7102020     463.7249     72.18707      1.448     2.81     4.849777     20.36098     66.83746         9     0.866     0.738 -12.46   0
       156    321.2982    607.3143 300.0770437 +22.6477290     313.5979     72.33395      1.360     3.74     4.338454     20.36098      35.3615         5     0.880     0.457  45.32   0
       157    387.4575    605.8290 300.0981086 +22.6671386     213.4542     72.16869      1.508     4.56     4.403262     20.36098     27.06526         5     1.143     0.517  29.65   0
       158    667.7152    605.5026 300.1854704 +22.7510424     360.8074     72.33395      1.714     3.22     4.628936     20.36098     42.48077         5     0.729     0.461  20.05   0
       159    485.4282    600.8617 300.1302121 +22.6950812     805.5663     72.16869      1.448     2.94      4.56351     20.36098     86.80572        12     0.944     0.824 -23.36   0
       160    633.2451    599.7377 300.1766051 +22.7390582     590.6392     72.18707      1.436     2.88       4.6924     20.36098     77.71208         9     0.882     0.749  -5.84   0
       161    680.6641    597.8076 300.1920039 +22.7527121     472.6455     72.15031      1.335     2.75     4.641438     20.36098     72.74206        10     1.013     0.625  47.98   0
       162    650.9943    597.3909 300.1828962 +22.7437026     630.6777     72.02148      1.470     3.95     4.681323     20.36098     64.73944        11     1.119     0.692  36.92   0
       163    529.5381    596.5718 300.1453376 +22.7070704     946.5294     72.16869      1.390     2.58     4.908587     20.36098     126.6961        16     1.117     0.828  25.44   0
       164    963.3430    592.2578 300.2819296 +22.8357882     3553.963     72.24218      1.572     2.79     4.256359     20.36098     370.1864        32     1.302     1.128  39.09   0
       165    495.1706    592.1282 300.1360815 +22.6954940     1747.403     72.16869      1.370     2.73     4.697926     20.36098     199.0956        21     1.042     0.988  30.35   0
       166    860.0507    589.5060 300.2506102 +22.8040644     293.3785     72.24218      1.356     2.76     4.634534     20.36098     46.87545         5     0.732     0.589  82.33   0
       167     57.0714    585.5446 300.0019712 +22.5622387     4981.096     72.18707      1.708     3.24     4.437363     20.36098     554.9107        40     1.352     1.315  10.49   0
       168    524.2817    583.1339 300.1480655 +22.7016367     394.7058      72.2789      1.345     4.12     4.936975     20.36098     49.32373         6     0.769     0.630  -1.31   0
       169   1002.9124    582.3213 300.2975012 +22.8447805     462.0391      72.3156      1.496     3.34     4.208415     20.36098     49.13962         7     0.718     0.703 -12.79   0
       170    358.5229    578.7610 300.0978974 +22.6506949     9376.315     72.15031      1.459     2.61     4.383511     20.36098     1217.722        44     1.227     1.194 -80.65   0
       171    481.0066    575.8934 300.1369451 +22.6865877     9001.216     72.05831      1.388     2.71       4.7286     20.36098     1141.545        40     1.166     1.146 -86.58   0
       172    892.6249    569.9377 300.2671231 +22.8081971     1870.814     72.16869      1.530     2.82     4.534644     20.36098     191.5476        24     1.187     1.055 -81.31   0
       173    977.3422    567.3363 300.2943911 +22.8328175      12707.2     72.22382      1.569     2.90     4.226829     20.36098     1332.627        50     1.306     1.283  57.51   0
       174    541.5952    565.4666 300.1591939 +22.7017525     11647.99     72.16869      1.371     2.40     5.116843     20.36098     1582.564        42     1.175     1.127  48.40   0
       175    710.9760    561.3859 300.2132775 +22.7513320     543.4349     72.16869      1.258     3.50     4.721198     20.36098     66.81675         9     0.930     0.693  38.55   0
       176    268.9105    560.7057 300.0758868 +22.6186453     1416.766     72.35228      1.564     2.85     4.411719     20.36098      172.974        22     1.212     1.058  60.12   0
       177    426.9778    560.4178 300.1251548 +22.6659504     234.2368     72.15031      0.897     2.14     4.805281     20.36098     51.04696         6     0.752     0.493  -2.09   0
       178    190.5562    560.5904 300.0515609 +22.5951166     235.9778     72.18707      1.343     4.15     4.443785     20.36098     28.23892         5     0.998     0.492   0.57   0
       179    515.8997    558.6033 300.1534225 +22.6920812     549.9376      72.0399      1.381     3.61     5.020989     20.36098     53.55332         7     0.937     0.484  -5.06   0
       180     77.9359    558.7624 300.0171512 +22.5608150     913.0992     72.15031      0.536     0.89      4.44184     20.36098     591.5587         6     0.477     0.416  22.73   0
       181    473.2512    553.6411 300.1417576 +22.6778745     4337.413     72.16869      1.369     2.42     4.892029     20.36098     560.7184        26     1.122     1.001  39.91   0
       182    816.0995    553.6924 300.2485393 +22.7806106     848.1166     72.33395      1.353     2.88     4.805651     20.36098     100.3622        13     0.979     0.840  25.72   0
       183    451.5741    552.0525 300.1355263 +22.6709213     1251.511     72.18707      1.396     2.80     4.887748     20.36098     156.8795        19     1.048     0.991 -67.59   0
       184    205.5764    551.1816 300.0592858 +22.5969211     840.0381     72.16869      1.605     4.08     4.453848     20.36098     86.61512        13     1.150     0.778  30.77   0
       185    893.0708    549.2496 300.2739810 +22.8023855     1484.918     72.16869      1.518     3.09     4.587509     20.36098     151.1151        21     1.245     0.955 -38.50   0
       186    589.9029    541.1940 300.1821190 +22.7092580     201323.5     72.07672      1.360     2.54     5.210252     20.36098     24237.03       185     1.414     1.364   1.53   0
       187    139.3094    549.1522 300.0393450 +22.5764659     390.3089     72.16869      1.607     5.28     4.444546     20.36098     36.01044         7     1.229     0.641  -3.55   0
       188    773.6061    546.2593 300.2377077 +22.7657474      715.782     72.13192      1.216     2.94     4.807258     20.36098      109.836        15     0.989     0.947  29.32   0
       189    413.7581    547.3781 300.1252753 +22.6582445     311.1426     72.20544      1.418     2.76     4.867236     20.36098     39.04533         6     0.696     0.631  70.45   0
       190    977.4296    543.0413 300.3023086 +22.8258606     347.5718     72.18707      1.654     4.76     4.217852     20.36098      31.0131         5     0.995     0.647  -1.78   0
       191    843.3860    541.9607 300.2608559 +22.7854118     313.5771     72.18707      1.590     5.16     4.860905     20.36098     33.78307         6     0.996     0.757 -22.12   0
       192    275.9349    541.0446 300.0844557 +22.6151090     3574.537     72.16869      1.437     2.92     4.454305     20.36098     368.3702        28     1.161     1.085   8.77   0
       193    841.9732    537.3538 300.2619115 +22.7836649     608.5847     72.20544      1.484     3.21     4.878407     20.36098     76.84015        10     0.916     0.791 -44.79   0
       194    860.4442    535.7536 300.2681901 +22.7887366     329.7027     72.20544      1.170     2.39     4.887863     20.36098     46.80713         5     0.686     0.473 -72.14   0
       195    621.0229    527.7980 300.1961613 +22.7147349     245.1351     72.11353      1.227     3.06     5.164319     20.36098     47.08059         8     0.927     0.599  63.88   0
       196    480.4902    525.4753 300.1531568 +22.6719570      364.102      72.3156      1.215     3.57     4.949452     20.36098     47.64303         5     0.768     0.478 -76.52   3
       197    480.4709    521.3899 300.1544774 +22.6707782     2565.013     72.15031      1.335     2.46     4.945681     20.36098     327.6531        21     1.046     0.957  51.53   2
       198    324.9043    523.7276 300.1053097 +22.6248200     334.6368     72.29726      1.181     3.99     4.566957     20.36098     52.84025        10     1.013     0.722 -30.56   0
       199    891.7425    517.6158 300.2838393 +22.7928966     372.8734     72.15031      1.645     5.01     4.777514     20.36098     40.09687         8     1.111     0.747  21.00   0
       200    711.3224    517.5454 300.2276218 +22.7388417     299.9988     72.20544      1.520     3.42     4.889957     20.36098     31.84574         5     1.060     0.318  22.25   0
       201    797.8410    510.0945 300.2570051 +22.7626150     385.6824     72.18707      1.362     3.58     4.918976     20.36098     56.64153         9     0.927     0.748   3.84   0
       202    877.5451    507.8182 300.2825934 +22.7858295     1650.038     72.15031      1.389     2.59     4.929435     20.36098     213.4927        19     1.067     0.950  29.96   0
       203    748.7010    505.4265 300.2432048 +22.7465561     2579.658     72.11353      1.338     2.40     4.902818     20.36098     340.8192        25     1.120     1.017  59.04   0
       204      7.6257    506.2484 300.0123573 +22.5246611     820.2236     72.18707      1.762     4.22     4.426904     20.36098     70.02765        12     1.176     0.822 -12.93  16
       205    108.0371    505.8408 300.0436881 +22.5546607     356.7026     72.26054      1.394     3.47     4.447702     20.36098      35.1784         6     0.890     0.479 -34.15   0
       206    992.9591    503.0935 300.3201252 +22.8190268     480.3338     72.18707      1.525     4.97     4.193539     20.36098     43.91228        10     0.972     0.875 -11.32   2
       207    991.5877    498.7214 300.3211170 +22.8173594     830.4396     72.15031      1.523     3.11     4.201262     20.36098     91.68585        13     1.169     0.662  62.62   3
       208    653.2100    502.1564 300.2145131 +22.7170127      386.205     72.16869      1.338     4.55      5.12439     20.36098     51.69949         9     0.999     0.828 -28.69   0
       209    958.6042    502.2077 300.3096956 +22.8084872     422.2166     72.00306      1.711     5.08      4.44174     20.36098      36.6755         8     1.356     0.538 -26.87   0
       210   1006.1213    499.3771 300.3254383 +22.8218987      1470.93     72.13192      1.652     3.17      4.09314     20.36098     158.4518        22     1.203     1.069  77.25   0
       211    877.8052    497.8146 300.2859226 +22.7830324     2326.086      72.0399      1.647     4.43     4.982545     20.36098     254.5264        29     1.616     0.990  70.25   0
       212    631.2101    495.9313 300.2096812 +22.7086338     716.9891     72.15031      1.789     2.76      5.21705     20.36098     89.79383        11     1.051     0.706 -89.54   0
       213    417.3835    495.2952 300.1433143 +22.6443783     333.3765     72.09512      1.594     4.20     5.001269     20.36098     35.55915         6     1.098     0.458  36.37   0
       214    915.9275    492.9084 300.2994039 +22.7930369     4268.657     72.33394      1.443     2.91     4.810047     20.36098      502.849        31     1.199     1.096  85.23   0
       215    477.3912    491.9639 300.1630726 +22.6614057     143.2834     72.16869      1.124     4.39     4.922558     20.36098     32.53622         5     1.018     0.539  17.16   0
       216    469.1773    494.5913 300.1596628 +22.6596986     314.1071     72.16869      1.241     3.75     4.935152     20.36098     53.04451         9     1.091     0.682  21.12   0
       217    576.8349    488.8825 300.1950345 +22.6903184      297.822     72.13192      1.305     2.70     5.259248     20.36098     49.30491         6     0.874     0.445 -52.37   0
       218   1007.7717    483.6451 300.3310611 +22.8178700      823.332     72.20544      1.621     3.28     4.045972     20.36098      95.6331        15     1.157     0.891  75.17   0
       219    808.5811    477.5791 300.2709099 +22.7564879     235.0355     72.16869      1.082     4.22     4.992109     20.36098      37.9565         6     0.953     0.661  20.78   0
       220    414.3782    476.2185 300.1485722 +22.6380003     173.8931     72.16869      1.259     2.62     5.019986     20.36098     37.43159         5     0.723     0.445  70.31   0
       221    535.8856    501.0727 300.1783257 +22.6815499      854.374      72.2789      1.455     2.89      5.18278     20.36098     82.37876        10     0.849     0.746   4.79   0
       222    147.9571    482.9652 300.0635216 +22.5600683     1043.574     72.22382      1.587     3.67     4.459252     20.36098     102.2321        17     1.168     0.976  73.97   0
       223    748.1465    467.2483 300.2554269 +22.7354204     463.9483     72.20544      1.398     2.60     4.974675     20.36098     50.65664         8     0.787     0.665 -50.37   0
       224    357.0110    465.7763 300.1341118 +22.6178084     316.1057     72.16869      1.359     3.95     4.896023     20.36098     37.97134         6     0.942     0.474 -41.11   0
       225    637.0023    465.1574 300.2214761 +22.7015288     298.7581     72.16869      1.293     3.76     5.245515     20.36098     43.61595         6     0.884     0.494  37.24   0
       226    689.2900    463.2262 300.2383924 +22.7166365     876.3112     72.13192      1.385     2.45     5.149063     20.36098      118.296        13     1.007     0.738  47.29   0
       227   1003.7750    456.0665 300.3387676 +22.8087448     511.0698     72.15031      1.498     4.04     4.062621     20.36098     65.07758        13     1.147     0.889  74.57   0
       228    750.2909    455.7104 300.2598407 +22.7327473     840.4737     72.33395      1.283     2.16     4.969277     20.36098     137.3124        11     0.845     0.751  18.47   0
       229    907.5050    451.7890 300.3101266 +22.7786959     1001.325     72.11353      1.468     2.85     4.919581     20.36098     117.7716        17     1.070     0.956  33.26   0
       230    891.6902    448.2960 300.3063286 +22.7729570     603.3882     72.35228      1.349     2.59        4.967     20.36098     70.05724        10     0.828     0.771  10.92   0
       231    872.0548    448.5197 300.3001331 +22.7671425     248.2232     72.20544      1.148     3.71     5.032207     20.36098     33.06407         6     0.798     0.497   4.90   0
       232    635.9659    446.1454 300.2273248 +22.6957567     3346.708     72.18707      1.328     2.36     5.230374     20.36098     431.8459        29     1.096     1.034  15.45   0
       233    996.5829    445.0760 300.3400915 +22.8034322     510.7039     72.16869      1.255     2.92     4.128931     20.36098     77.79194        10     0.851     0.818  67.88   0
       234    112.0066    437.4339 300.0671269 +22.5362227     315.8406     72.16869      1.370     3.01     4.779007     20.36098     51.61074         8     0.910     0.662  80.52   0
       235    641.7448    433.8237 300.2331245 +22.6939478     325.0916     72.20544      1.400     3.93     5.217753     20.36098     39.97472         7     0.859     0.789 -25.39   0
       236    475.9477    433.1734 300.1817074 +22.6440901     322.0453     72.18707      1.124     2.33     4.915582     20.36098     62.23121         8     0.799     0.613  34.46   0
       237    407.8256    433.3292 300.1604549 +22.6237215      311.002     72.16869      1.276     4.08     5.021466     20.36098     35.56645         6     0.754     0.630  89.40   0
       238    919.2635    425.0645 300.3224687 +22.7745338     599.3698     72.20544      1.480     2.58     4.873363     20.36098     84.71161         9     0.881     0.653  14.76   0
       239   1005.6702    424.1871 300.3497073 +22.8001462     1021.194     72.16869      1.378     2.81     4.017899     20.36098     115.8948        12     0.942     0.798 -21.34   0
       240    655.5255    422.2166 300.2411848 +22.6947408     188.5206     72.16869      1.184     4.38     5.207536     20.36098     43.31153         6     0.952     0.574  28.97   0
       241    746.5646    420.0917 300.2702411 +22.7213960     1025.127     72.11353      1.251     2.41     4.960279     20.36098     154.6423        15     0.938     0.867 -86.63   0
       242    542.4745    420.6823 300.2064732 +22.6604348     488.1419      72.2789      1.484     2.77     5.193201     20.36098     72.54259        10     0.913     0.759  80.89   0
       243    250.5663    418.2447 300.1164301 +22.5722568     681.0106     72.20544      1.267     2.58      5.10663     20.36098     79.88058        10     0.871     0.718  -4.86   0
       244     90.7219    416.9830 300.0671494 +22.5239718     362.3775     72.16869      1.397     3.93     4.940032     20.36098     42.05469         6     0.891     0.560  -0.57   0
       245    312.8908    413.8797 300.1372308 +22.5896850     3652.484      72.2789      1.416     2.71     5.038865     20.36098      459.256        28     1.167     1.061  52.89   0
       246    260.1142    408.6624 300.1225092 +22.5723681      7661.36     72.29725      1.457     2.69     5.095672     20.36098     900.1015        39     1.211     1.169  59.30   0
       247   1024.0000    402.9948 300.3623049 +22.7995386     215.1367     54.02378      1.237     3.70      3.82951     20.36098     41.43039         5     1.363     0.289  90.00  24
       248    400.9290    402.9501 300.1681683 +22.6129312     4841.871     72.16869      1.361     2.59     5.018235     20.36098     662.8792        31     1.142     1.066  62.10   0
       249    645.1564    399.7114 300.2452587 +22.6851690     18776.56     72.16869      1.336     2.33     5.176445     20.36098     2744.211        51     1.192     1.121  79.97   0
       250    662.6508    399.6472 300.2507295 +22.6903903     859.4407     72.20544      2.007     6.94     5.176445     20.36098     61.91877        19     1.670     0.808 -25.82   0
       251    842.4719    390.0862 300.3098752 +22.7414893     406.7699      72.2789      1.502     4.03     4.848015     20.36098     63.50599         7     1.125     0.458 -52.66   0
       252    265.5052    386.7817 300.1312863 +22.5677025     396.3488     72.09512      1.543     3.07     5.080928     20.36098     51.76111         7     0.930     0.482  80.31   0
       253    978.6844    382.3542 300.3548654 +22.7800409     884.8055     72.15031      1.646     3.25     4.292177     20.36098     89.59616        16     1.052     0.986 -81.51   0
       254    688.6949    380.4189 300.2650837 +22.6926651     277.4428     72.09512      1.028     4.06     5.076027     20.36098     68.33669         7     1.184     0.436 -66.14   0
       255    515.5887    381.4889 300.2108217 +22.6411221     297.8707     72.11353      1.487     4.12     5.059289     20.36098     50.20893         5     0.942     0.515  37.78   0
       256    199.8633    379.7120 300.1131688 +22.5459967      2123.44      72.2789      1.476     2.83     5.092794     20.36098     257.6596        24     1.114     1.078  51.35   0
       257    999.4990    369.6302 300.3654884 +22.7826117     1279.886     72.13192      1.569     2.61     4.097024     20.36098     166.6541        17     1.120     0.929 -57.26   0
       258    585.7473    369.0706 300.2366978 +22.6585712     6562.739     72.15031      1.328     2.46     5.139579     20.36098     859.4142        31     1.111     1.046  79.91   0
       259    300.7375    368.4471 300.1481936 +22.5729982      582.138     72.18707      1.309     2.46     5.019965     20.36098     85.10825        10     0.820     0.782  50.00   0
       260    158.2522    362.1387 300.1059348 +22.5284784      450.106     72.22382      1.299     3.41     5.079027     20.36098     60.40786         9     0.942     0.677  82.33   0
       261    845.6760    361.2087 300.3202453 +22.7341475     271.7383     72.15031      1.102     2.27     4.757674     20.36098     57.94693         6     0.679     0.631  15.64   0
       262    699.4495    359.4503 300.2752390 +22.6898600     475.5154     72.20544      1.147     3.10      4.98981     20.36098      77.5667        10     0.938     0.781  18.07   0
       263      5.4989    359.2188 300.0594142 +22.4818411     1132.777     72.09512      1.549     3.38     4.955383     20.36098     138.6531        21     1.196     1.063   8.85  16
       264    789.9476    358.0632 300.3038927 +22.7165591     1145.518     72.22382      1.386     2.70      4.75384     20.36098     147.3569        16     1.041     0.958 -87.46   0
       265    492.4196    355.3896 300.2120775 +22.6266841     6160.655     72.15031      1.300     2.30     4.963864     20.36098     756.8287        32     1.115     1.039  49.56   0
       266    981.7778    349.8749 300.3663702 +22.7716272     580.2421     72.16869      1.483     5.32     4.253342     20.36098     78.59321        12     1.235     0.899 -44.56   0
       267    884.4072    349.7939 300.3360262 +22.7424602     1344.566     72.02148      1.403     2.80     4.731463     20.36098     181.9518        16     1.032     0.908  56.38   0
       268    476.9874    344.1019 300.2109360 +22.6188185     460.5316     72.05831      1.422     2.96     4.925512     20.36098     64.00554         8     0.836     0.704 -28.21   0
       269    559.5963    341.9254 300.2373618 +22.6429392     499.5977     72.07672      1.258     2.37     5.104622     20.36098      80.3973         8     0.843     0.619  38.53   0
       270      3.8049    340.5639 300.0649402 +22.4759802     1065.082     68.04346      1.696     3.75     5.098158     20.36098     120.8344        20     1.316     1.057  66.01  16
       271    539.5779    340.2455 300.2316734 +22.6364603     299.5489     72.20544      1.731     4.35      5.09416     20.36098     46.32637         6     1.001     0.828 -31.78   0
       272    857.1628    337.4747 300.3315280 +22.7307631     617.5369     72.11353      1.449     2.76     4.733704     20.36098     78.58582        10     0.952     0.666  37.97   0
       273    379.9196    334.5530 300.1838244 +22.5869936      2539.33     72.18707      1.347     2.44     4.909541     20.36098     363.4473        20     1.021     0.952  43.27   0
       274     98.3447    331.7248 300.0971821 +22.5017891     1193.609     72.18707      1.777     3.59     5.014889     20.36098     123.4734        17     1.216     0.943  50.34   0
       275    727.5881    329.2129 300.2938182 +22.6895956     289.6377     72.09512      1.098     2.27     4.860977     20.36098     49.67977         5     0.714     0.431 -65.30   0
       276    349.2948    323.9611 300.1777323 +22.5747753     30072.18     72.15031      1.404     2.61     4.874334     20.36098     3558.119        67     1.320     1.181  54.58   0
       277    884.0236    321.5369 300.3450748 +22.7342212       1400.7     72.15031      1.365     2.37     4.731463     20.36098     212.9815        16     1.066     0.842 -70.30   0
       278    839.2587    319.5483 300.3317619 +22.7202498     200.7908     72.22382      0.960     3.39     4.746484     20.36098     36.72353         5     0.731     0.456 -20.47   0
       279     45.6189    311.7484 300.0872785 +22.4802482     5004.847     72.15031      1.621     3.19     5.301023     20.36098     590.6957        35     1.312     1.220  41.12   0
       280    799.4240    310.6071 300.3222441 +22.7057546     536.9061     72.16869      1.311     3.03      4.78065     20.36098     67.50471        11     1.007     0.727 -41.93   0
       281    223.3165    310.4084 300.1429458 +22.5331307     222.6048     72.11353      0.910     3.31     5.111694     20.36098     48.04473         5     0.720     0.466  16.57   0
       282    447.9030    309.1258 300.2132301 +22.6000585     607.9571     72.29725      1.398     2.58     4.912167     20.36098     79.97956         9     0.837     0.701  70.34   0
       283    759.7910    303.6862 300.3121358 +22.6919000     1891.284     72.09512      1.329     2.56     4.829622     20.36098     273.0871        20     1.040     0.956  63.82   0
       284    975.2147    296.9650 300.3814894 +22.7544474     631.2526     72.16869      1.466     3.38      4.31649     20.36098     91.31445        10     1.001     0.744 -60.35   0
       285    567.9697    298.3241 300.2541147 +22.6329197     405.3737     72.16869      1.410     3.72     4.953772     20.36098     51.70531         7     0.883     0.690  -3.42   0
       286    421.4879    288.3978 300.2117328 +22.5861909     2313.556     72.09512      1.564     3.14     4.878688     20.36098     248.2372        23     1.256     0.955  71.89   0
       287    633.7310    287.4061 300.2781383 +22.6494761     213.9299     72.13192      1.014     3.24     4.953633     20.36098     42.64781         5     0.717     0.470 -15.23   0
       288    852.8624    281.9971 300.3481854 +22.7135255      212.645     72.16869      1.198     2.88     4.761611     20.36098     41.67618         5     0.792     0.488  31.26   0
       289    860.8062    281.0838 300.3509586 +22.7156405     533.8185     72.09512      1.090     3.16     4.753804     20.36098     76.80946        10     0.864     0.833  37.20   0
       290    743.1225    279.1077 300.3149140 +22.6798445     343.6531      72.3156      1.188     2.90     4.866379     20.36098     56.07317         6     0.747     0.561  40.73   0
       291    710.8486    278.1793 300.3051577 +22.6699152     284.0749     72.18707      1.337     4.35      4.91549     20.36098     44.18533         7     1.086     0.610  31.64   0
       292    821.5364    271.9714 300.3416708 +22.7012664     354.2177     72.16869      1.666     4.41     4.830334     20.36098     38.69987         5     1.157     0.477 -82.13   0
       293    497.3663    267.6453 300.2420826 +22.6029585      1262.19     72.20544      1.318     2.68     4.897465     20.36098     168.5507        16     1.016     0.869  74.49   0
       294    880.6721    261.2519 300.3635862 +22.7158838     277.9886     72.16869      1.078     3.59     4.793575     20.36098      50.8527         6     0.874     0.493  47.58   0
       295    742.2662    259.6198 300.3209683 +22.6739861     2220.099     72.13192      1.323     2.35      4.87191     20.36098     317.9941        23     1.063     1.006 -39.13   0
       296   1003.6191    254.0515 300.4042715 +22.7506042       3209.8     72.15031      1.508     2.90     4.551426     20.36098     365.6682        28     1.266     1.070  80.15   0
       297    450.6930    243.5710 300.2353618 +22.5820619     611.8448     72.09512      1.197     2.24     5.046928     20.36098     99.00312        10     0.847     0.687  88.62   0
       298    125.4491    237.6081 300.1361328 +22.4828970      1449.59     72.16869      1.819     3.96     5.140871     20.36098     129.7498        23     1.371     1.066 -27.06   0
       299    156.1903    237.7421 300.1456449 +22.4921490     607.8446     72.13192      1.304     2.89     5.115746     20.36098     80.81455        12     0.957     0.824  -7.35   0
       300   1019.0869    234.4985 300.4154395 +22.7496076     609.4973     72.33395      1.657     4.54     4.829437     20.36098     59.70154        12     1.212     0.889  59.82  16
       301    863.0305    231.3659 300.3677783 +22.7020100     262.2927     72.18707      1.269     4.36     4.860952     20.36098       45.742         7     0.859     0.630 -10.79   0
       302    209.2677    229.7399 300.1647413 +22.5057579     440.8587     72.20544      1.260     5.00     4.997632     20.36098     64.74349         9     1.226     0.577 -35.68   0
       303   1004.8732    227.3347 300.4133280 +22.7432943     323.1922     72.20544      1.281     3.42     4.935195     20.36098     35.02299         5     0.790     0.427 -17.56   0
       304     64.5639    226.4887 300.1208170 +22.4614553     347.9617     72.15031      1.712     5.79     5.376889     20.36098     38.52916         8     1.121     0.914  15.96   0
       305    885.7321    223.6285 300.3773666 +22.7065788     245.7916     72.16869      1.094     3.32     4.876605     20.36098     51.45745         5     0.767     0.418  22.20   0
       306    813.8425    221.1619 300.3557515 +22.6843544     607.0684     72.26054      1.312     3.35      4.99458     20.36098     79.75331         9     0.906     0.727  12.65   0
       307    404.2764    220.5767 300.2283727 +22.5615522     429.2305     72.20544      1.351     4.83      5.40546     20.36098     43.66123         8     0.919     0.720 -52.60   0
       308    950.5113    214.8017 300.4004332 +22.7234243     222.3691     72.09512      1.351     4.31     4.914947     20.36098     29.52576         5     1.173     0.451  31.62   0
       309    904.3929    214.0081 300.3863061 +22.7093962     367.2285     72.02148      1.245     3.47      4.89622     20.36098     51.10233         7     0.884     0.676 -65.51   0
       310    912.0195    210.1761 300.3899274 +22.7105762     2033.995     72.16869      1.369     2.67     4.901943     20.36098      235.086        22     1.118     0.987  49.43   0
       311    330.5978    207.3325 300.2097426 +22.5356761     2052.987     72.16869      1.356     2.58     5.418321     20.36098     266.7744        21     1.149     0.934  65.66   0
       312    408.4948    202.6043 300.2355134 +22.5576525     1038.201     72.07672      1.405     2.48     5.411787     20.36098     132.3776        15     0.998     0.850   4.60   0
       313    810.6422    201.8557 300.3610146 +22.6778451     553.4487     72.15031      1.332     2.84     5.025379     20.36098     72.71502         9     0.858     0.728   9.44   0
       314    917.4105    199.0938 300.3952025 +22.7090020     325.8943     72.11353      1.315     2.59      4.91572     20.36098     54.14776         5     0.789     0.470  34.81   0
       315      6.5364    195.7497 300.1127552 +22.4352373     416.3067     72.22382      2.125     4.78      5.70111     20.36098     32.37417         8     1.080     0.635  -9.66  16
       316    225.2731    194.5892 300.1811160 +22.5004597     840.8946     72.18707      1.496     3.45      5.16523     20.36098      95.1533        17     1.157     0.976  35.12   0
       317    337.6180    194.1254 300.2162090 +22.5339854     934.9495     72.16869      0.613     0.50      5.45561     20.36098     548.3419         5     0.534     0.393  -7.30   0
       318    763.1990    191.5133 300.3495796 +22.6606715     1768.373     72.07672      1.428     2.43     5.000689     20.36098     243.6489        22     1.135     1.012  83.97   0
       319    828.5786    191.2080 300.3700591 +22.6801513     568.4933     72.15031      1.417     4.42     5.009288     20.36098     72.02327        13     1.297     0.760   7.11   0
       320    246.9000    187.8501 300.1900263 +22.5050043     503.7573     72.26054      1.339     3.63     5.265645     20.36098     72.73361         9     1.142     0.523 -43.33   0
       321    767.2591    183.1365 300.3535613 +22.6594781     739.2606     72.20544      1.337     2.48     5.024517     20.36098     112.9313        11     0.955     0.677  22.28   0
       322    687.5607    182.2470 300.3290129 +22.6353663     1335.774     72.20544      1.305     2.60     4.968465     20.36098     160.8138        19     1.161     0.893  62.55   0
       323    509.2058    178.2950 300.2747438 +22.5808300     492.7947     72.05831      1.433     4.66     5.064228     20.36098     58.38541         8     1.269     0.579 -63.63   0
       324    883.1974    173.8925 300.3927043 +22.6915162      1466.55     72.07672      1.361     2.53      4.97489     20.36098     216.2616        18     1.072     0.889  67.85   0
       325    613.8804    173.9521 300.3087487 +22.6109240     1003.578     72.18707      1.336     2.42     4.876854     20.36098     147.4356        12     0.898     0.789  68.71   0
       326    895.1578    172.8298 300.3967788 +22.6947894     827.2204     72.20544      1.513     3.26     4.967023     20.36098     103.0656        14     1.002     0.988  13.73   0
       327    941.0187    171.9271 300.4113751 +22.7082516     304.7228     72.16869      1.444     3.66     4.942285     20.36098     42.94473         5     1.001     0.385  30.17   0
       328   1011.9129    163.2518 300.4363049 +22.7269650     1239.054     72.20544      1.521     2.59     4.952117     20.36098     154.0341        17     1.183     0.897  47.33   0
       329     35.7261    159.3267 300.1336321 +22.4335308     460.0205     72.22382      1.483     2.90      5.60867     20.36098     81.45454         7     0.934     0.608  48.77   0
       330    245.8080    155.8760 300.2000529 +22.4954937     650.4834     72.13192      1.419     3.80     5.462406     20.36098     93.77457        13     1.086     0.914   9.03   0
       331    107.8400    150.6947 300.1588396 +22.4526651     2294.162     72.18707      1.613     3.35      5.56056     20.36098      263.977        31     1.409     1.156  54.83   0
       332    931.0427    147.9264 300.4160450 +22.6983629     840.2749     72.15031      1.591     4.08     4.945323     20.36098     73.21708        15     1.129     0.940 -63.17   0
       333     57.4482    147.8993 300.1440859 +22.4367604     590.2836     72.20544      1.551     4.11     5.605368     20.36098     67.11388        11     1.030     0.873  40.44   0
       334    265.2750    144.2004 300.2098921 +22.4979722     5575.881      72.0399      1.443     2.72     5.507169     20.36098      604.377        34     1.249     1.106  69.36   0
       335    247.3126    145.1462 300.2039992 +22.4928625     236.9826     72.20544      1.282     3.52     5.480186     20.36098     37.66094         6     0.756     0.611 -12.96   0
       336     49.2945    138.2806 300.1446703 +22.4315551      1419.29     72.29726      1.860     3.66     5.628179     20.36098     150.2996        22     1.326     1.237  82.60   0
       337    248.6795    135.2541 300.2076309 +22.4904306     680.6641     72.20544      1.655     2.57       5.4969     20.36098     88.60698         9     0.950     0.622 -49.00   0
       338    909.3176    125.8276 300.4164332 +22.6855062     3720.198     72.16869      1.536     2.83     4.961048     20.36098     416.9931        33     1.348     1.090  85.82   0
       339   1013.0847    124.7243 300.4491613 +22.7162306     2592.086      72.2789      1.485     2.69     4.957027     20.36098     354.6748        28     1.160     1.145  -7.71   0
       340    459.0223    121.1947 300.2776326 +22.5493929     574.4883     72.15031      1.293     2.17     5.355536     20.36098     87.98678         9     0.756     0.704  50.99   0
       341    383.0346    112.8989 300.2566725 +22.5242528     655.2081     72.15031      1.454     2.62     5.406151     20.36098     88.50854        11     0.912     0.776 -34.58   0
       342    387.2136    111.6666 300.2583723 +22.5251503     366.1526     72.15031      1.572     3.89      5.40304     20.36098      52.9512         5     0.898     0.483 -47.72   1
       343    510.2885    108.3781 300.2977467 +22.5610601     1648.555     72.09512      1.273     2.28     5.265757     20.36098     219.1295        21     1.135     0.952  64.10   0
       344    438.2750    109.0038 300.2751263 +22.5396766     455.0799     72.07672      1.318     1.95     5.366441     20.36098     68.23366         7     0.649     0.646  51.36   0
       345    149.3895    109.8106 300.1850066 +22.4533749      665.876     72.05831      1.782     3.36     5.560413     20.36098      68.8605         5     0.927     0.367  -9.30   0
       346    571.7929    107.7788 300.3170925 +22.5793019     440.6095     72.15031      1.555     3.05     5.034589     20.36098     63.39332         6     0.802     0.719   3.20   0
       347    253.7349    103.9235 300.2193584 +22.4829454     494.9228     72.26054      1.289     3.14     5.539893     20.36098       62.884         9     0.957     0.618 -36.30   0
       348    798.5067     98.1204 300.3908628 +22.6443812     274.7967     72.29725      1.132     2.96     5.428232     20.36098     54.28453         8     0.824     0.648  -2.45   0
       349    944.5126     93.1593 300.4380003 +22.6866370     318.7073     72.15031      1.480     3.71     4.935001     20.36098      57.5589         6     0.983     0.489 -83.05   0
       350    284.2423     88.0954 300.2339768 +22.4875367     6115.948     72.18707      1.442     2.72     5.472163     20.36098     638.0609        35     1.264     1.107  68.37   0
       351    790.5602     88.8875 300.3913783 +22.6393479     296.8705     72.15031      1.270     2.39     5.425559     20.36098     52.02716         6     0.745     0.484 -78.91   0
       352    135.3545     87.5673 300.1878529 +22.4427815     810.8171     72.22382      1.621     4.11     5.490054     20.36098     101.9128        11     1.214     0.811  24.93   0
       353    913.0095     86.6447 300.4302857 +22.6753387     554.7827     72.18707      1.790     5.52     4.920636     20.36098     192.4541         9     1.563     0.549 -48.50   0
       354    256.2641     82.2316 300.2271754 +22.4774715     233.6807     72.16869      1.164     2.96     5.430789     20.36098     57.04447         5     0.893     0.348 -40.58   0
       355    759.7928     79.2245 300.3849199 +22.6273620     176.8164     72.15031      1.118     4.38     5.439528     20.36098      32.0584         5     0.757     0.722  48.59   0
       356    299.9282     79.5059 300.2416396 +22.4897674     187.3545      72.2789      1.028     2.20     5.392736     20.36098     48.88841         6     0.734     0.500  -0.56   0
       357     45.7634     78.6029 300.1629152 +22.4133616     480.8417     72.20544      1.445     4.07     5.664527     20.36098     45.96643         7     1.000     0.474  -7.98   0
       358    530.3645     73.4918 300.3153045 +22.5570431     6250.098     72.11353      1.386     2.38     5.262243     20.36098     819.8319        36     1.237     1.104  76.78   0
       359    415.7993     73.5538 300.2796207 +22.5227586      693.048     72.16869      1.238     2.59     5.324343     20.36098     94.86476        11     0.849     0.768  27.84   0
       360    587.0530     68.4715 300.3345850 +22.5725702     247.0704     72.15031      1.172     2.54     5.207582     20.36098      42.7369         6     0.753     0.498  -3.62   0
       361    782.8725     63.2406 300.3972941 +22.6296711     815.9372     72.15031      1.383     3.22     5.410991     20.36098     98.67825        13     0.986     0.931  -4.93   0
       362    875.6374     62.0545 300.4266004 +22.6570843     514.5334     72.16869      1.423     4.08     4.885795     20.36098     60.70227        10     1.103     0.677 -43.68   0
       363    223.2733     57.2490 300.2250119 +22.4604123     480.5475     72.16869      1.315     3.79     5.240845     20.36098     58.99295         8     0.934     0.696 -51.44   0
       364    581.8951     56.4594 300.3368714 +22.5675728     359.3326     72.24218      1.084     1.92     5.299766     20.36098     65.82059         6     0.716     0.498  -3.19   0
       365    658.6818     53.5558 300.3617310 +22.5897212     6268.177     72.13192      1.408     2.44     5.494478     20.36098     918.7889        36     1.219     1.105  61.25   0
       366    433.5997     52.6458 300.2919363 +22.5220797      1411.21     72.16869      1.413     2.54     5.283828     20.36098     204.1024        19     1.153     0.891  63.38   0
       367    699.7800     51.0652 300.3753433 +22.6013047     919.7972     72.15031      1.372     2.67     5.523688     20.36098     128.2174        13     1.000     0.804   1.97   0
       368    769.5951     48.5729 300.3979088 +22.6214794      377.646     72.13192      1.403     3.61     5.428596     20.36098     39.38545         7     0.841     0.697   9.11   0
       369    715.6923     47.2350 300.3815430 +22.6049651     394.0354     72.11353      1.080     2.77     5.520357     20.36098     63.66009         9     0.851     0.706 -10.49   0
       370    182.4629     45.1027 300.2162585 +22.4446979     731.4498     72.26054      1.596     3.99     5.147634     20.36098     87.20586        14     1.256     0.827 -86.07   0
       371     29.2290     46.0645 300.1683217 +22.3990634      357.663     72.18707      1.760     3.97     5.762946     20.36098     35.40882         6     0.960     0.469 -51.85   0
       372    985.4965     45.0046 300.4663925 +22.6850401     485.9205     72.07672      1.283     2.97     5.535227     20.36098     65.85269         8     0.904     0.714  63.93   0
       373    240.7138     42.8594 300.2350982 +22.4615025     270.2008      72.2789      1.318     4.16     5.128533     20.36098     30.81814         6     0.784     0.629 -10.73   0
       374    753.9874     42.3700 300.3950542 +22.6150252     396.0152     72.16869      1.209     2.24     5.465847     20.36098     81.59101         8     0.810     0.617  46.20   0
       375    718.0234     37.5486 300.3854083 +22.6028769     926.7194     72.18707      1.914     3.99     5.538569     20.36098     96.10426        18     1.377     1.006  45.38   0
       376    702.8890     38.4609 300.3803966 +22.5986103     2731.389     72.24218      1.363     2.35      5.55995     20.36098     433.4532        22     1.083     0.979  70.48   0
       377    343.9208     39.2456 300.2683720 +22.4913747     468.8119     72.16869      1.194     2.36     5.079574     20.36098     65.22849         5     0.878     0.368 -61.59   0
       378    789.4712     30.0683 300.4101009 +22.6221039     1490.581     72.20544      1.367     2.64     5.371642     20.36098     176.2711        21     1.133     1.041 -50.67   0
       379    949.4380     28.8624 300.4603745 +22.6696103     312.3934     72.16869      1.384     3.54     5.114774     20.36098     42.40646         6     0.748     0.646  30.20   0
       380    332.2103   1019.1049 299.9465732 +22.7691232     898.8291     72.09512      1.816     4.05     13.82144     20.36098     104.2457        20     1.293     1.227 -28.02  16
       381    105.5172     22.1936 300.1997626 +22.4150660     719.4354     72.09512      2.048     6.66     4.965175     20.36098     57.73556        14     1.442     0.863  56.61   0
       382    436.9607     20.9082 300.3032664 +22.5139640     645.0157     72.16869      1.304     2.30     5.230127     20.36098     104.1575        10     0.826     0.714 -77.56   0
       383    818.9109     19.4070 300.4227332 +22.6278449     544.1187     72.07672      1.403     3.34     5.157189     20.36098     63.81083        11     0.984     0.808  22.92   0
       384    533.0712     22.5221 300.3326641 +22.5432009     1068.872      72.2789      1.481     2.75     5.247645     20.36098     137.3311        17     1.072     0.929 -69.13   0
       385    237.3246    992.7683 299.9256337 +22.7330964     4515.362     72.16869      9.342    38.37     60.99596     20.36098     105.3552       406     8.733     4.679 -84.52  19
       386    257.0447    992.1192 299.9319765 +22.7388288     6138.391     72.15031     12.995    51.92     47.17255     20.36098     104.9831       756    11.312     7.355 -69.99  19
       387    275.0746    981.3278 299.9410935 +22.7411460     8796.752     72.22382     11.386    40.40     30.78774     20.36098     191.3452      1082    13.612     5.785  71.02  19
       388    211.4379   1006.3647 299.9131623 +22.7292242     2140.961     72.24218      6.587    22.72     80.52455     20.36098     63.06027        96     7.379     1.943  88.49  19
