#   1 NUMBER                 Running object number                                     
#   2 X_IMAGE                Object position along x                                    [pixel]
#   3 Y_IMAGE                Object position along y                                    [pixel]
#   4 ALPHA_J2000            Right ascension of barycenter (J2000)                      [deg]
#   5 DELTA_J2000            Declination of barycenter (J2000)                          [deg]
#   6 FLUX_APER              Flux vector within fixed circular aperture(s)              [count]
#   7 FLUXERR_APER           RMS error vector for aperture flux(es)                     [count]
#   8 FLUX_RADIUS            Fraction-of-light radii                                    [pixel]
#   9 FWHM_IMAGE             FWHM assuming a gaussian core                              [pixel]
#  10 BACKGROUND             Background at centroid position                            [count]
#  11 THRESHOLD              Detection threshold above background                       [count]
#  12 FLUX_MAX               Peak flux above background                                 [count]
#  13 ISOAREA_IMAGE          Isophotal area above Analysis threshold                    [pixel**2]
#  14 A_IMAGE                Profile RMS along major axis                               [pixel]
#  15 B_IMAGE                Profile RMS along minor axis                               [pixel]
#  16 THETA_IMAGE            Position angle (CCW/x)                                     [deg]
#  17 FLAGS                  Extraction flags                                          
         1    484.4626     15.3961 300.3326965 +22.5432518      1217.38     72.10622      1.841     3.11     6.343018     20.34854     110.2905        17     1.059     0.999  71.73   0
         2    388.0153     13.2330 300.3033571 +22.5137707     912.0791     72.10622      1.594     3.82     6.447937     20.34854     86.31127        16     1.128     0.984  86.10   0
         3    770.4910     12.6037 300.4227643 +22.6279997     409.6443     72.03268      1.250     2.49     6.676734     20.34854     74.09898         6     0.827     0.499  87.21   0
         4    727.6585      4.1135 300.4121563 +22.6127472     529.5731     69.12276      1.313     4.10     7.215213     20.34854     64.97503        12     1.344     0.763 -74.27  24
         5    159.5277      3.3104 300.2354555 +22.4425281     3727.363     66.14497      1.749     3.19     7.474182     20.34854     381.0213        38     1.511     1.212  13.31  24
         6    163.0491    983.0111 299.9184752 +22.7249957     1215.699     72.14297      9.165    12.83     68.83607     20.34854     37.69147        20     2.812     1.629  47.61   3
         7     73.3285   1010.5958 299.8815998 +22.7059908     5627.312     72.06947     16.278    72.84       71.937     20.34854     181.1231      2035    15.772    12.355  35.85  27
         8     65.3175    949.6860 299.8989242 +22.6861143     5501.976     72.25308     29.743    10.67     30.13037     20.34854     1346.961      4967    23.058    19.370 -45.68  19
         9    188.2476    985.8760 299.9253813 +22.7333768     3822.995      72.1246      8.266    27.36     68.86814     20.34854     80.24155       283     5.588     4.644  44.72   3
        10    154.7194    974.8141 299.9185511 +22.7201449     1908.721     72.10622     29.509    19.77     61.78167     20.34854     49.03555        85     5.324     2.039  73.46   3
        11    639.4671    953.4353 300.0764374 +22.8593533     6788.131      72.1246      2.132     5.15     5.075894     20.34854     329.8166        52     1.658     1.580  29.60   0
        12    218.0257    999.9055 299.9300806 +22.7463350     803.1304     72.06947      2.073     7.88     78.57999     20.34854     47.25953        20     1.541     1.143  58.01   0
        13    206.9301    983.9618 299.9318159 +22.7384317     4768.637     72.08784      7.502    23.97     64.97524     20.34854     96.45787       341     5.784     4.658 -75.96   3
        14    189.0865   1002.5013 299.9202333 +22.7383987     1785.554     72.28975      3.827    26.14     84.34526     20.34854     54.86762       109     5.519     3.436 -15.55  19
        15    519.7119    947.4417 300.0410700 +22.8217389     424.2332      72.1246      1.878     5.47     5.131368     20.34854     39.98584         9     1.313     1.159  76.52   0
        16    154.2567    946.7681 299.9275305 +22.7119589     945.9174     72.14297      4.791     5.00     36.33044     20.34854     33.00788         5     1.064     0.664  29.32   1
        17    225.9230    972.9701 299.9413007 +22.7409746     7274.616     72.10622      7.705    28.11     52.10857     20.34854     158.1798       642     9.260     5.034  58.72  18
        18    149.9370    945.7727 299.9265107 +22.7103775     825.5197      72.1246      4.915     4.73     35.42147     20.34854     33.07459         5     1.233     0.515  70.44   0
        19    548.0335    944.0940 300.0509827 +22.8292668     1521.704     72.08784      2.072     5.63     5.013036     20.34854     100.0354        27     1.481     1.309  11.57   0
        20    914.6321    970.4332 300.1567263 +22.9466781     745.5507     72.17969      2.209     7.28     5.263056     20.34854     48.84402        12     1.512     0.981  36.47   0
        21    441.8237    940.7444 300.0189883 +22.7964669     982.3525     72.14297      2.050     5.08     5.365486     20.34854     67.99431        20     1.526     1.149 -58.61   0
        22    372.3501    938.5167 299.9980805 +22.7749979     6688.955      72.1246      2.133     5.07     5.462867     20.34854       340.81        52     1.652     1.577  28.73   0
        23    341.8477    996.1674 299.9698299 +22.7824002     523.9206     72.16133      3.091     5.22     5.491862     20.34854     30.39483         5     1.190     0.647 -21.29   0
        24    405.8159    925.4503 300.0127503 +22.7812804     414.3965     72.14297      1.659     3.57     5.462919     20.34854     39.16372         5     0.990     0.371 -83.04   0
        25    919.6329    918.2675 300.1752578 +22.9331825     1616.976      72.1246      1.968     4.82     5.304184     20.34854     100.4688        22     1.539     1.054 -70.86   3
        26    917.2186    917.5375 300.1747418 +22.9322496     991.3336     72.08784      1.857     5.22     5.324926     20.34854     106.4642        16     1.680     0.592 -67.97   3
        27    136.1189   1006.5145 299.9024527 +22.7236597     455.2006     72.27142      1.643     5.03      90.8688     20.34854     33.35979         8     1.261     0.567  81.37   0
        28    707.1571    907.1107 300.1126083 +22.8663286     848.6341     72.14297      2.359     8.03     5.429504     20.34854     45.02635        17     1.677     1.074  71.59   0
        29    742.3442    900.6301 300.1256880 +22.8750087     1000.062     72.14297      2.065     7.36     5.565935     20.34854     49.25735        24     1.426     1.325 -44.90   0
        30    520.5596    900.9116 300.0564692 +22.8086303     320.1241     72.10622      1.378     4.24     5.351479     20.34854     37.27961         6     1.056     0.486  83.79   0
        31    534.6658    991.2164 300.0314873 +22.8387919     2250.783     72.10622      2.138     5.56     5.041008     20.34854     123.2001        34     1.545     1.468 -42.72   0
        32    764.6736    894.2820 300.1347162 +22.8798740     11464.47     72.23474      2.052     4.99     5.599738     20.34854     583.2267        60     1.649     1.571  36.19   0
        33    197.6341    895.1843 299.9578009 +22.7101665     925.5739     72.10622      7.104     7.86     11.53204     20.34854     44.76125        10     1.645     1.051 -47.09   0
        34    956.0864    894.2137 300.1944592 +22.9371848     486.7159     72.06947      2.340     5.93     5.352866     20.34854     32.37678         6     1.363     0.726  41.09   0
        35    622.1368    986.4754 300.0602865 +22.8636493     9339.016     72.17969      2.366     7.74     5.040275     20.34854     410.8331        39     1.818     1.509  32.78   3
        36    809.9582    894.0149 300.1489274 +22.8933626     664.3807     72.14297      2.212     6.78     5.634896     20.34854     40.25165        12     1.386     0.930  -5.08   0
        37     77.3571    886.3994 299.9232505 +22.6715689     921.1885      72.1246      4.297     6.60     12.78325     20.34854     53.26804        13     1.573     0.900  69.13   0
        38    469.8534    882.5514 300.0466454 +22.7881590     501.0352     72.16133      2.003     6.00     5.549146     20.34854      36.8953         9     1.211     0.836   3.29   0
        39    773.1292    876.3076 300.1431992 +22.8772417     1356.165     72.25308      1.961     4.56     5.656245     20.34854      73.7529        23     1.282     1.153  37.71   0
        40    956.3282    875.8907 300.2004942 +22.9319897     574.3951     72.28975      2.303     6.05     5.485526     20.34854     31.17035         7     1.488     0.693  33.60   0
        41    625.4913    873.6965 300.0980177 +22.8322593     605.7065     72.30807      2.462     6.54     5.048649     20.34854     36.97366        11     1.226     0.979  73.54   0
        42    811.4668    869.0891 300.1575047 +22.8866509     850.9686     72.23474      2.419     8.22     5.704008     20.34854     45.48481        17     1.785     1.147  76.06   0
        43    859.6859    861.8906 300.1748885 +22.8990240       557.65     72.28975      1.951     5.38      5.64458     20.34854     40.56456         8     1.239     0.787  -1.96   0
        44    710.8334    860.2810 300.1289850 +22.8539745     722.8177     72.08784      1.998     6.33     5.623316     20.34854     50.84151        15     1.235     1.048   8.70   0
        45    722.2097    857.4824 300.1334423 +22.8565784     574.0602     72.06947      2.120     7.37     5.637953     20.34854     36.66417        14     1.603     0.949  -9.30   0
        46    423.6094    856.1902 300.0408160 +22.7667272     4359.409     72.01428      1.979     4.58      5.62108     20.34854     308.2126        43     1.519     1.446  14.95   0
        47    626.6788    984.4077 300.0623749 +22.8644167     9892.668     72.05108      2.353    11.73     5.050751     20.34854     453.0035        69     2.602     1.706 -14.23   3
        48    148.9798    842.3522 299.9598462 +22.6804115     702.1833     72.16133      1.879     6.09      9.19696     20.34854     56.31151        12     1.211     0.860 -32.82   0
        49    126.9702    838.6840 299.9541935 +22.6727577     1127.332     72.14297      1.681     4.54     8.969904     20.34854     110.1001        21     1.335     1.127  85.39   3
        50    124.0000    839.0955 299.9531360 +22.6719850      614.758     71.99589      1.533     5.11     8.969904     20.34854     62.19726        10     1.435     0.553 -87.32   3
        51    997.9785    828.5155 300.2289024 +22.9308390     2022.546     72.06947      2.062     5.48     5.562669     20.34854     130.1305        32     1.623     1.335  56.28   0
        52    952.0228    826.9041 300.2150809 +22.9166166     2201.149     72.03268      2.150     5.41     5.638671     20.34854     113.1905        34     1.577     1.382  39.03   0
        53    735.5279    820.7390 300.1495431 +22.8500089     538.9377     72.16133      1.715     6.39     5.701996     20.34854     40.01029        13     1.079     1.062  44.64   0
        54    603.7078    814.4403 300.1104970 +22.8087081     4710.943      72.1246      1.844     4.37     5.631439     20.34854     309.7442        38     1.423     1.356  46.39   0
        55     94.5731    815.4390 299.9516761 +22.6563699     297.5822     72.14297      1.316     3.94     7.121638     20.34854     29.77741         5     1.057     0.421 -74.49   0
        56    405.9859    811.4270 300.0498826 +22.7485895     524.8548     72.14297      1.756     4.94     5.663424     20.34854     50.11754        12     1.141     0.959  34.45   0
        57    153.7997    808.1591 299.9724620 +22.6720428     1356.416     72.14297      2.093     4.78     6.623655     20.34854     94.53873        28     1.432     1.378  21.37   0
        58    624.4126    806.6337 300.1194881 +22.8126685     843.9379     72.10622      1.921     5.89     5.781736     20.34854     60.64137        17     1.262     1.117 -60.42   0
        59    997.0012    794.6901 300.2395956 +22.9208197     1109.975     72.05107      2.078     7.02     5.558907     20.34854     57.27903        28     1.589     1.422 -87.89   0
        60    779.7812    794.3600 300.1719208 +22.8556821     4379.142     72.14297      1.942     4.37     5.764525     20.34854     263.1696        42     1.541     1.378  26.23   0
        61    189.0841    788.2958 299.9898949 +22.6769218     447.8644     72.30807      1.657     2.06     6.076873     20.34854     56.51022         7     0.688     0.641   5.52   0
        62    496.7029    786.7047 300.0861733 +22.7686767     605.9833     72.30807      1.775     4.10     5.734752     20.34854     54.71704        12     1.144     0.862  28.61   0
        63    143.0882    784.8074 299.9767214 +22.6621279     934.4651     72.03268      1.814     4.20     6.078939     20.34854     83.27209        19     1.280     1.103 -12.72   0
        64    292.7484    776.6345 300.0259416 +22.7046542     53961.01     72.14297      1.919     4.17     5.924541     20.34854      3992.33       104     1.665     1.569  21.78   0
        65    963.4063    775.2783 300.2354193 +22.9051802     629.1519     72.05108      1.794     5.64     5.660583     20.34854     61.21055        18     1.420     1.102 -51.95   0
        66    550.7032    775.6308 300.1065968 +22.7816764     1588.576     72.06947      1.765     4.39     5.855196     20.34854     119.9824        27     1.306     1.268  14.68   0
        67    221.6880    775.2391 300.0042825 +22.6829493     465.9189     72.10622      1.947     5.37     6.072394     20.34854     41.63925         9     1.244     0.722 -67.93   0
        68    579.3094    771.7477 300.1167729 +22.7891317     974.9846     72.16133      1.809     5.66     5.882958     20.34854     59.72438        18     1.295     1.067  60.54   0
        69    590.5427    770.5828 300.1206522 +22.7921625     589.0522     72.10622      1.721     5.84     5.894547     20.34854     49.35746        11     1.306     0.736 -15.43   0
        70    695.6980    766.9023 300.1546266 +22.8226060     400.8724     72.32639      1.647     5.68     5.916211     20.34854     32.95595        10     1.041     0.874 -66.38   0
        71    342.4922    753.9280 300.0488058 +22.7130449     31948.55     72.27142      1.863     3.90     5.921158     20.34854     2324.999        81     1.561     1.527  12.03   0
        72    733.8787    757.1074 300.1697157 +22.8312266     890.9667     72.25308      1.934     5.20     5.744362     20.34854     54.02467        17     1.281     1.019  13.75   0
        73    356.7635    754.4762 300.0530704 +22.7174800     2024.469     72.08784      1.980     4.11     5.908998     20.34854     142.8967        29     1.386     1.254  -6.00   0
        74    865.6215    750.0692 300.2130974 +22.8686552     2820.732      72.1246      1.942     4.40     5.772662     20.34854     169.1056        37     1.519     1.428  45.23   0
        75    895.6085    748.3889 300.2230006 +22.8771505     416.8104     72.01429      1.774     6.05     5.771728     20.34854     31.70707         9     1.402     0.734 -44.68   0
        76    353.5645    748.7659 300.0539305 +22.7148812     811.3312     72.19804      2.917     5.11     5.928957     20.34854     44.25704        15     1.205     0.940 -10.02   1
        77    623.5415    745.9794 300.1389341 +22.7949786     904.8649     72.10622      1.702     4.33     5.997504     20.34854     68.39201        18     1.203     1.045  23.16   0
        78    460.6032    746.2779 300.0880698 +22.7462457     430.9425     72.03268      1.631     4.74     5.850495     20.34854     42.23297         7     1.003     0.637  40.19   0
        79    225.0199    745.5294 300.0149757 +22.6754184     806.4266     72.14297      2.073     5.61     6.088697     20.34854     67.80667        19     1.391     1.213  -3.38   0
        80    470.8878    740.8597 300.0930342 +22.7477711     650.7198     72.19804      1.589     4.61     5.868598     20.34854     63.18477        13     1.151     1.010  62.33   0
        81     30.4785    741.1077 299.9559092 +22.6158139     487.1252     72.27142      1.933     5.33     5.730262     20.34854     42.41375         8     1.212     0.663 -86.30   0
        82    872.0104    738.1079 300.2189789 +22.8671290      547.535     72.06947      1.996     6.49      5.76986     20.34854     36.18002        11     1.262     0.936  -2.02   0
        83    417.1334    735.9948 300.0778741 +22.7302650     314.6551      72.1246      1.352     3.72     5.884498     20.34854     47.94227         6     0.938     0.427  49.38   0
        84    625.4456    735.2537 300.1430138 +22.7924667     411.6467     72.16133      1.975     5.28     6.022035     20.34854     32.18586         9     1.115     0.707 -19.52   0
        85     58.6613    734.2963 299.9668846 +22.6223112     618.5589     72.21639      2.244     3.37     5.835688     20.34854     59.11769         6     1.061     0.620  44.61   0
        86    849.8494    733.2163 300.2136544 +22.8590872     501.5079     72.16133      2.074     5.28     5.791389     20.34854     31.87717         9     1.268     0.620  -3.09   0
        87    222.5449    730.2584 300.0191688 +22.6702917      540.613     72.17969      1.730     5.11     6.092587     20.34854     49.91467        11     1.275     0.970 -29.05   0
        88    545.7010    720.7080 300.1228902 +22.7643973     516.3016     72.30807      1.909     6.09     5.933046     20.34854     36.36538        13     1.270     0.820 -15.02   0
        89    516.0318    718.9777 300.1142088 +22.7550111     647.4778      72.1246      1.682     4.05      5.92205     20.34854     52.90261        13     1.009     0.958  42.60   0
        90    932.0393    715.4234 300.2450850 +22.8785775     4550.447     72.16133      1.918     4.28     5.858533     20.34854     292.3373        44     1.546     1.394  40.23   0
        91    537.5817    716.3311 300.1217829 +22.7607071      1200.86      72.1246      1.668     3.72      5.93333     20.34854     112.1911        20     1.213     1.060 -36.85   0
        92    920.4937    706.7761 300.2442921 +22.8726344     1798.707     72.05108      1.843     4.38     5.917023     20.34854     108.2896        27     1.375     1.236  86.07   0
        93    283.5374    700.4501 300.0478354 +22.6800157     891.1251     72.17969      1.830     4.66      6.04564     20.34854     72.30176        22     1.432     1.077  -9.30   0
        94    747.0222    698.0503 300.1930092 +22.8181866     2599.459      72.1246      1.800     3.75     5.938657     20.34854     185.0226        35     1.526     1.248   4.71   0
        95    951.8575    696.8829 300.2572964 +22.8791778     1608.468     72.21639      2.020     4.63     5.904853     20.34854     96.88383        28     1.442     1.286  58.18   0
        96    829.3037    683.8886 300.2232760 +22.8387526     638.4798     72.30807      1.963     5.75     6.093851     20.34854     46.03191        12     1.260     0.843  69.65   0
        97    132.3574    684.4458 300.0060007 +22.6300993     595.1389     72.16133      1.744     6.56     5.983137     20.34854     55.12112        13     1.445     0.837 -14.49   0
        98    865.3923    675.0310 300.2374138 +22.8470100     149184.1      72.1246      1.829     3.89     6.312333     20.34854     10768.19       166     1.639     1.610 -46.10   0
        99    627.8435    679.1059 300.1620084 +22.7770483     356.9188     72.14297      1.516     6.38     6.072734     20.34854     41.79545         9     1.166     0.981  53.16   0
       100   1012.2128    676.7187 300.2826908 +22.8914427     1263.288     72.10622      1.978     4.95     5.967332     20.34854     88.95675        24     1.398     1.240   2.49   0
       101    717.6273    675.2008 300.1912680 +22.8028153     848.3003     72.08784      1.814     4.77     6.069996     20.34854     60.50946        15     1.093     1.000 -47.72   0
       102    898.2741    667.9874 300.2499631 +22.8548278     383.8047     72.14297      1.418     4.18     6.185076     20.34854      37.5373         7     1.134     0.439 -33.73   0
       103    551.6766    663.7824 300.1432507 +22.7498294     1735.942      72.1246      1.674     3.66     6.030116     20.34854     159.1737        26     1.259     1.176  25.38   0
       104    732.8336    661.0585 300.2006052 +22.8033032     9493.739     72.14297      1.694     3.55     6.139947     20.34854        723.9        49     1.402     1.359  28.82   0
       105    234.2277    655.8389 300.0469859 +22.6524239     5034.991     72.14297      1.860     3.86     6.096466     20.34854     440.0085        42     1.467     1.382  34.42   0
       106    316.3824    653.9767 300.0731586 +22.6765122     1202.756     72.10622      1.687     4.02     6.080902     20.34854     102.3601        21     1.229     1.099  33.16   0
       107    192.3433    652.0704 300.0351787 +22.6387867     513.3146     72.14297      1.530     4.94      6.03737     20.34854     49.00591         8     1.153     0.599  -4.80   0
       108    524.6751    649.8500 300.1393645 +22.7377371     788.2834      72.1246      1.651     4.57     6.048184     20.34854     65.35287        14     1.267     0.922 -30.64   0
       109    516.3649    641.8475 300.1393754 +22.7329479     3339.764     72.16133      1.657     3.43     6.057054     20.34854     324.8357        34     1.279     1.265  19.89   0
       110    506.5553    635.5717 300.1383583 +22.7282058      1494.38     72.16133      1.745     3.20     6.052873     20.34854     150.1957        20     1.150     1.093  40.72   0
       111    899.9668    634.0153 300.2615297 +22.8455640     375.7712     72.10622      1.626     4.56     6.211637     20.34854     37.10499         6     1.135     0.520   0.89   0
       112    169.9127    631.6221 300.0348439 +22.6261909     701.7288     72.05107      1.675     5.78     5.993797     20.34854     63.11226        15     1.286     0.952 -15.87   0
       113    184.2957    630.1252 300.0398045 +22.6300724     592.7901     72.27142      1.647     5.24     6.024118     20.34854     60.77944        13     1.323     0.722 -16.34   0
       114    953.7552    627.2838 300.2805044 +22.8597270     448.5903     72.08784      1.682     5.13     6.025955     20.34854     42.88292         9     1.318     0.564 -15.66   0
       115    209.6983    626.5089 300.0488822 +22.6366483     661.7755     72.30807      1.948     7.14     6.081204     20.34854     46.25676        13     1.288     1.108 -44.96   0
       116    530.3860    625.9349 300.1489135 +22.7325750     318.4235     72.08784      1.442     4.76     6.140124     20.34854     42.93131         7     0.978     0.656  78.86   0
       117    431.3535    625.1199 300.1183299 +22.7026731     1820.658     72.14297      1.729     3.56     5.976019     20.34854     175.8618        25     1.247     1.214 -49.52   0
       118   1006.6072    623.0448 300.2983808 +22.8743245     722.2473     72.14297      1.669     5.71     6.000255     20.34854     60.71903        20     1.549     1.034   3.65   0
       119    464.7544    624.8226 300.1288293 +22.7125944     360.6225     72.16133      1.609     3.72     5.992546     20.34854     37.14803         5     1.047     0.379  -2.63   0
       120     85.2487    619.9278 300.0123110 +22.5974519     20092.39     72.10622      1.982     4.04     5.932559     20.34854     1544.192        75     1.655     1.559  13.43   0
       121      7.5855    622.0144 299.9874874 +22.5747651     611.3582     72.05107      1.672     3.99     5.669672     20.34854     64.64149         8     1.122     0.591  73.98  16
       122    516.2007    620.5584 300.1462406 +22.7267807      1124.99      72.1246      1.728     3.58     6.113451     20.34854     100.2477        18     1.140     1.039  13.49   0
       123    551.6027    620.1094 300.1574167 +22.7372560     429.2231     72.03268      1.794     5.14     6.249636     20.34854     32.75381         8     0.976     0.765 -12.08   0
       124    934.2137    607.1329 300.2809515 +22.8480820     1107.358      72.1246      1.740     3.74     6.044059     20.34854     81.67437        18     1.174     0.978 -33.53   0
       125     31.2397    604.0216 300.0006851 +22.5766923     1795.301     72.16133      2.337     6.33     5.727143     20.34854     93.06504        36     1.901     1.428  85.93   0
       126     98.4271    604.8673 300.0213010 +22.5970785     419.0834     72.10622      2.042     5.47     5.973919     20.34854     32.24656         7     1.196     0.706  87.49   0
       127    801.1132    605.1626 300.2400609 +22.8076746     404.4941     72.10622      1.595     4.76      6.32986     20.34854     37.79931         7     1.076     0.611  10.16   0
       128    479.7986    600.9654 300.1412653 +22.7102456      394.405     72.08784      1.593     6.49     6.063066     20.34854     46.37098         9     1.244     0.949 -83.18   0
       129    873.7525    599.7010 300.2644974 +22.8278480     888.8104     72.16133      2.277     7.71     6.423963     20.34854     51.55972        16     1.613     1.031  10.41   0
       130    618.9948    598.0999 300.1855686 +22.7511138      288.838     72.01428      1.340     4.74     6.601419     20.34854     34.99915         6     0.878     0.726 -37.94   0
       131    436.6167    593.5344 300.1302293 +22.6951741     851.1172     72.10622      1.906     4.43      6.04339     20.34854     66.73077        18     1.263     1.016 -18.02   0
       132    632.1287    590.6600 300.1920791 +22.7529082     396.1523     72.16133      1.525     6.37     6.518493     20.34854      46.8194        12     1.246     0.916 -85.56   0
       133    584.6240    592.4875 300.1766795 +22.7392070     501.7577     72.08784      1.702     3.07     6.545228     20.34854     59.36069         6     0.915     0.405 -20.90   0
       134    602.2498    590.3165 300.1828779 +22.7438616     516.4086      72.1246      1.408     3.32     6.622116     20.34854     60.86379         9     0.932     0.733   9.26   0
       135    480.7155    589.3596 300.1453207 +22.7071850     1007.306     72.08784      1.820     4.17     6.146763     20.34854     81.54134        20     1.269     1.134 -76.63   0
       136    446.1846    584.9507 300.1359973 +22.6955738     1644.508     72.16133      1.515     3.19     6.100109     20.34854     181.2532        21     1.159     1.066  87.42   0
       137    914.5291    584.9976 300.2819985 +22.8358233     3364.618     72.06947      1.789     3.93     6.220607     20.34854     244.2704        32     1.350     1.278  85.66   0
       138   1012.1522    583.7873 300.3128654 +22.8646892     728.9192     72.14297      1.955     4.26     5.963993     20.34854     62.60369        13     1.193     0.933   9.26   0
       139    810.9409    582.2994 300.2505534 +22.8040415     335.5618     72.21639      1.555     3.87     6.353629     20.34854      34.9059         6     1.033     0.416  11.67   0
       140      8.0032    577.9752 300.0019212 +22.5622477     4963.378     72.08784      2.081     4.26     5.634742     20.34854     426.0019        47     1.650     1.482  36.51  16
       141    954.1102    575.4041 300.2974687 +22.8449089      300.286     72.03268      1.450     3.51     6.120414     20.34854      38.3409         5     0.846     0.420  20.20   0
       142    309.5331    571.3745 300.0978590 +22.6507312     9138.493     72.10622      1.717     3.42     5.996675     20.34854     889.8493        46     1.405     1.319  14.97   0
       143    432.0076    568.4605 300.1369379 +22.6865882     9099.419     72.10622      1.628     3.14     6.136337     20.34854     845.2669        44     1.331     1.272  50.84   0
       144    843.7964    562.7323 300.2671591 +22.8082485     1984.072     72.10622      1.759     3.86     6.433196     20.34854     157.8212        27     1.288     1.217 -52.08   0
       145    928.4343    560.1772 300.2944005 +22.8328446     12523.03     72.14297      1.769     3.58     6.264949     20.34854     1024.899        58     1.465     1.405  54.42   0
       146    492.5953    558.0911 300.1591773 +22.7017570     11730.71     72.03268      1.609     3.28      6.39916     20.34854     1033.001        52     1.376     1.305  45.56   0
       147    219.9782    553.5326 300.0757834 +22.6187694     1369.085     72.10622      1.771     3.45     5.993011     20.34854     144.7306        24     1.295     1.156  -6.49   0
       148    662.1563    554.1116 300.2133105 +22.7513922     440.4793      72.1246      1.614     5.42      6.36522     20.34854     45.95116         8     1.166     0.709   0.05   0
       149    424.2407    546.1726 300.1417575 +22.6778566       4331.6     72.16133      1.649     3.16     6.185537     20.34854     447.2456        36     1.345     1.245  76.18   0
       150    767.0149    546.5572 300.2484610 +22.7806131     739.5163     72.14297      1.545     3.80     6.328483     20.34854     69.28341        16     1.123     0.961  13.23   0
       151    402.5961    544.6934 300.1354976 +22.6709475     1285.053     72.03268      1.567     3.13     6.156925     20.34854     157.6674        19     1.113     1.058  80.33   0
       152    156.9653    543.9139 300.0593036 +22.5971216     792.3325     72.08784      1.781     4.75     5.975172     20.34854       64.712        17     1.298     1.047  43.85   0
       153    844.1802    541.9488 300.2740290 +22.8023853     1595.944     72.10622      1.690     3.65     6.410658     20.34854     124.6964        25     1.297     1.137 -31.14   0
       154    540.8928    533.8450 300.1820986 +22.7092532     205752.2     72.14297      1.587     3.19     6.691163     20.34854     18952.98       196     1.589     1.497 -18.67   0
       155    364.9082    540.2710 300.1251989 +22.6583861     329.1606     72.27142      1.596     4.79     6.159276     20.34854     35.85294         8     1.015     0.641  57.74   0
       156    724.7713    538.7615 300.2378186 +22.7657250     849.5414     72.14297      1.550     3.80     6.322949     20.34854     80.08251        16     1.128     1.034  57.92   0
       157    817.8383    537.2626 300.2673328 +22.7931531     246.7224      72.1246      1.178     3.92     6.316078     20.34854     33.56215         5     0.939     0.468 -47.51   0
       158    226.9686    533.6286 300.0844221 +22.6151468     3607.776      72.1246      1.780     3.58     5.987688     20.34854     338.0564        38     1.459     1.323 -89.35   0
       159    794.7471    535.2403 300.2607864 +22.7856597     364.9045      72.1246      1.999     3.87     6.272504     20.34854     30.29543         5     0.945     0.455 -44.73   0
       160    792.6916    530.3539 300.2617321 +22.7836390     528.9109     72.10622      1.603     4.25     6.246679     20.34854      51.9319         9     1.132     0.613  48.73   0
       161    431.5192    514.4340 300.1543309 +22.6709155     2655.677     72.08784      1.721     3.15     6.351584     20.34854     236.0013        33     1.457     1.215  82.96   0
       162    275.8038    516.6080 300.1051460 +22.6248906     320.0446     71.95907      1.359     4.72     6.021245     20.34854     38.03094         6     1.092     0.579 -25.87   0
       163    843.2610    510.7315 300.2838800 +22.7931305     323.6537     72.17969      1.628     3.69     6.165595     20.34854     41.24707         5     1.012     0.387 -13.31   0
       164    748.8534    503.3942 300.2568138 +22.7627629     433.3021     72.08784      1.880     4.80      6.26483     20.34854     29.64022         8     1.110     0.589 -21.29   0
       165    828.4738    500.5324 300.2825785 +22.7857710     1814.311     72.19804      1.675     3.24     6.075907     20.34854     188.2664        21     1.215     1.053  54.38   0
       166    699.8504    498.2071 300.2432172 +22.7466021     2559.532      72.1246      1.505     2.95     6.323254     20.34854     244.2486        25     1.170     1.097  31.50   0
       167    944.1198    495.8277 300.3201942 +22.8190244     422.7182     72.14297      1.529     4.30     6.095683     20.34854     44.88879        11     1.094     0.955  13.37   2
       168    942.9722    491.3742 300.3212821 +22.8173996     781.1365     72.08784      1.791     4.50     6.080296     20.34854     68.40607        14     1.080     1.065  81.97   2
       169    604.4971    494.9714 300.2145426 +22.7171238     377.8989     72.06947      1.463     3.31     6.618927     20.34854     42.02795         8     0.872     0.659 -34.97   0
       170    487.2993    493.5923 300.1784723 +22.6816319     748.0859     72.01429      1.607     4.36     6.738533     20.34854     62.40847        15     1.122     0.940 -12.91   0
       171    957.1948    492.3798 300.3253951 +22.8219444     1161.057     72.10622      1.694     3.26     6.071473     20.34854     109.4639        18     1.122     1.001  18.01   0
       172    828.8590    490.4680 300.2859666 +22.7829912     2358.576     72.16133      1.920     4.37     5.996372     20.34854     176.8168        34     1.661     1.195  70.35   0
       173    582.1440    488.8649 300.2095588 +22.7086750     674.1287     72.17969      2.063     3.75     6.736864     20.34854     53.55817        11     0.998     0.847  57.09   2
       174    867.0538    485.6831 300.2994373 +22.7930450     4317.319     72.16133      1.685     3.50     5.976979     20.34854     378.8128        36     1.364     1.268  74.91   0
       175    420.8668    487.5188 300.1597526 +22.6599892     421.4336     72.23474      1.550     2.92     6.390923     20.34854     49.28038         7     0.974     0.568  76.18   0
       176    368.3090    488.4196 300.1430942 +22.6445048     310.6287     72.05108      1.226     2.89     6.194295     20.34854     48.09991         6     0.794     0.546 -43.80   0
       177    527.2276    481.1793 300.1949418 +22.6900210     285.5626     72.10622      1.359     4.05     6.920753     20.34854     35.97034         6     0.821     0.571  51.44   0
       178    958.8481    476.7194 300.3309960 +22.8179328     746.4713     72.14297      1.847     3.06     6.042372     20.34854     90.09635        12     1.013     0.854 -82.27   0
       179     99.0769    475.6047 300.0634781 +22.5601524     841.7398     72.03268      1.661     3.82     6.009253     20.34854     98.04856        16     1.172     1.090   9.57   0
       180    898.3421    473.8001 300.3130591 +22.7989889     145.3216     72.06947      1.285     4.70     5.976201     20.34854     37.26996         6     1.285     0.488  21.01   0
       181    365.8271    469.3936 300.1484985 +22.6382936     239.7836      72.1246      1.251     3.49     6.188189     20.34854     29.26381         5     0.804     0.436 -19.02   0
       182     91.6218    465.7816 300.0643486 +22.5550967     492.0031      72.1246      1.770     5.21     6.007147     20.34854     35.75951         7     1.172     0.654 -52.27   0
       183    699.4560    460.4774 300.2553442 +22.7356333     491.6898     72.16133      1.499     5.29     6.323396     20.34854      43.2348        12     1.032     0.928 -50.54   0
       184    640.3680    456.0683 300.2383541 +22.7166769      822.125      72.1246      1.552     3.90     6.444161     20.34854     79.00261        16     1.183     0.986   7.98   0
       185    955.3818    448.6295 300.3390339 +22.8088124     670.4561     72.10622      1.800     4.83     6.004374     20.34854     61.27918        11     1.139     0.898  -0.48   0
       186    701.4108    448.3891 300.2598781 +22.7327417     855.9614     72.01429      1.487     3.10     6.322317     20.34854     96.85044        14     0.947     0.933 -65.52   0
       187    858.5182    444.6478 300.3100967 +22.7786848     976.5855     72.14297      1.562     3.72     5.862635     20.34854     89.48366        17     1.115     1.002 -13.27   0
       188    842.6378    440.8527 300.3063739 +22.7728409     815.3353     72.14297      1.744     3.63     5.855075     20.34854     79.68464        15     1.084     0.960   1.81   0
       189    586.9991    438.7555 300.2273399 +22.6957207      3243.73      72.1246      1.500     3.08     6.624253     20.34854     310.2599        31     1.247     1.140  69.64   0
       190    947.8504    437.9989 300.3401341 +22.8035000     541.3284     72.10622      1.731     5.54     5.979077     20.34854     54.40976        12     1.247     0.888  37.23   0
       191    427.0230    425.8544 300.1816881 +22.6441086     428.8481     72.14297      1.462     3.94     6.295632     20.34854     40.79231         8     0.859     0.723  15.95   0
       192    998.4232    418.3513 300.3622999 +22.8129744     1316.256      72.1246      1.626     3.29      6.05824     20.34854     131.0256        20     1.145     1.066  64.56   0
       193    956.7925    417.2214 300.3496702 +22.8001957     805.9224     72.10622      1.542     3.79     5.966094     20.34854     83.71397        13     1.101     0.843  -4.11   0
       194    870.1404    417.6531 300.3224862 +22.7743953     465.2335     72.17969      1.710     5.73     5.818923     20.34854      40.9387        10     1.206     0.786 -72.87   0
       195    607.1715    414.6383 300.2414555 +22.6948247      267.211      72.1246      1.428     3.48     6.474854     20.34854     31.44448         5     0.772     0.453 -14.80   0
       196    697.6684    412.8218 300.2702568 +22.7213915     1053.778      72.1246      1.565     3.71     6.327315     20.34854     109.0362        21     1.357     0.969   2.72   0
       197    493.3598    413.0873 300.2064947 +22.6603034     376.0089     72.10622      1.637     4.59     6.739182     20.34854     46.10301         6     0.938     0.805 -32.76   0
       198    201.5140    410.7327 300.1163992 +22.5722127      641.051     72.21639      1.632     5.41     6.242446     20.34854     58.14679        14     1.215     0.901  56.88   0
       199    263.9906    406.4552 300.1372285 +22.5897007     3883.308      72.1246      1.699     3.25     6.308969     20.34854     357.8788        35     1.348     1.224  35.75   0
       200    997.1459    405.3593 300.3661183 +22.8088529     4394.517     72.08784      1.762     3.41     6.027934     20.34854     381.7479        39     1.419     1.331 -64.73   0
       201    211.1964    401.2313 300.1224955 +22.5723835     7628.002     72.08784      1.701     3.26     6.330108     20.34854     761.3838        46     1.430     1.297  30.52   0
       202    715.2147    401.6893 300.2793414 +22.7234410     245.7041     72.06947      1.601     3.81     6.325443     20.34854     27.82703         5     1.031     0.405  85.74   0
       203    977.1369    396.3843 300.3627847 +22.8002845      1866.43     72.10622      1.758     3.72      5.97231     20.34854     161.8171        27     1.280     1.238  41.14   0
       204    351.9421    395.4913 300.1681639 +22.6128946     4925.888     72.17969      1.608     2.99     6.177941     20.34854     496.1794        35     1.320     1.201  54.33   0
       205    596.1815    392.3659 300.2452591 +22.6851296     18731.44      72.1246      1.556     2.88      6.50375     20.34854     1908.656        63     1.399     1.310  14.64   0
       206    613.5494    392.8352 300.2505200 +22.6904637     860.7869     72.14297      1.888     6.39     6.457443     20.34854     56.43006        16     1.666     0.689 -35.93   0
       207    793.2025    383.0118 300.3097264 +22.7414066      373.624     71.94065      1.396     4.38     5.873654     20.34854     44.47873         7     0.759     0.720  33.34   0
       208    216.1812    379.3256 300.1311555 +22.5675824     316.7291      72.1246      1.570     5.44     6.468005     20.34854     38.56682         7     1.187     0.703  -5.81   0
       209    930.0729    375.1450 300.3549870 +22.7800930     903.9989      72.1246      1.938     4.80     5.877404     20.34854      72.4813        18     1.364     1.030 -50.17   0
       210    466.9505    374.6348 300.2107478 +22.6413402     388.9498     72.14297      1.621     4.43     6.319013     20.34854     39.85083         6     0.818     0.682  16.90   0
       211    150.9360    372.3055 300.1131354 +22.5460181     2040.178     72.21639      1.736     3.44     6.425066     20.34854     177.2319        27     1.299     1.197  63.25   0
       212    536.8598    361.8098 300.2366893 +22.6585834     6640.815     72.08784      1.536     2.89     6.475028     20.34854     735.3061        39     1.271     1.221  84.77   0
       213    950.6804    362.4601 300.3655361 +22.7826065     1152.959     72.17969      1.612     3.13     5.886951     20.34854      131.741        20     1.175     1.048 -65.75   0
       214    251.8029    361.3658 300.1480682 +22.5730922     603.2404      72.1246      1.480     3.64     6.463327     20.34854     68.51932        12     1.105     0.748  22.58   0
       215    796.9813    354.0163 300.3203151 +22.7341946     465.8847     72.10622      1.589     5.12     5.842662     20.34854     42.38661         9     0.971     0.763 -72.49   0
       216    110.0411    354.1303 300.1063133 +22.5285433     380.4156     72.08784      1.448     5.23     6.419225     20.34854       49.816        10     1.141     0.801  39.45   0
       217    741.1652    351.0443 300.3038703 +22.7166377     1030.161     72.17969      1.504     3.35     6.307208     20.34854     89.82225        19     1.129     1.031 -46.60   0
       218    650.7112    352.2501 300.2752750 +22.6899141     403.0079      72.1246      1.311     2.07     6.427238     20.34854     65.50233         6     0.666     0.612   9.12   0
       219    443.5336    348.0180 300.2120912 +22.6266758     6305.333     72.10622      1.564     2.96     6.151455     20.34854     640.0813        38     1.299     1.203  60.36   0
       220    835.6584    342.7552 300.3360354 +22.7425263     1442.556     72.16133      1.626     3.18     5.840208     20.34854     149.1357        22     1.248     1.078  70.77   0
       221    932.7993    343.1762 300.3662127 +22.7717074      464.705     72.06947      1.486     2.89     5.864711     20.34854     58.85761         8     0.810     0.658  32.53   0
       222    428.3013    336.7995 300.2109872 +22.6188894     356.8525     71.99589      1.258     2.93      6.15223     20.34854     54.23956         6     0.740     0.587  10.42   0
       223    511.0428    334.9260 300.2373690 +22.6431235     313.2466     72.10622      1.777     5.04      6.30524     20.34854     35.93094         7     1.046     0.686 -53.96   0
       224    789.2351    333.4603 300.3245692 +22.7259621     324.6795     72.14297      1.527     6.08     6.021878     20.34854     32.08596         8     1.275     0.815 -38.32   0
       225    808.4841    330.4250 300.3315587 +22.7308480     603.8835     72.08784      1.731     2.99     5.947568     20.34854     64.20075         9     0.942     0.704  -4.68   0
       226    331.0401    327.1817 300.1838230 +22.5869993     2576.782     72.14297      1.570     3.01     6.236439     20.34854     232.2925        28     1.231     1.171  73.71   0
       227     49.5017    324.7089 300.0970333 +22.5019511     944.9902     72.30807      1.657     3.18     6.409432     20.34854      122.848        18     1.273     0.876 -17.37   0
       228    300.4128    316.5912 300.1777250 +22.5747827     30141.31     72.01429      1.644     3.06     6.296069     20.34854     3263.458        71     1.462     1.354  65.40   0
       229    835.1590    314.2536 300.3451278 +22.7341748      1439.49     72.10622      1.564     3.73     5.932742     20.34854     151.3118        25     1.297     1.125  52.33   0
       230    790.4104    312.6322 300.3316939 +22.7203205     368.3813      72.1246      1.281     3.39     6.130414     20.34854      44.3273         6     0.827     0.522  49.38   0
       231    750.3611    303.6488 300.3221168 +22.7057527     459.2862     72.14297      1.211     3.62     6.337416     20.34854     59.41273        10     1.036     0.673  27.19   0
       232    399.1234    302.2304 300.2131163 +22.6002136     478.1633     72.10622      1.461     3.82     6.167074     20.34854     57.72079        11     1.100     0.884 -37.53   0
       233    174.7028    303.1521 300.1429660 +22.5332672     364.4546     72.16133      1.343     4.50      6.62923     20.34854     33.97007         8     1.100     0.523 -34.31   0
       234    710.9084    296.4576 300.3121464 +22.6918786     1970.643     72.17969      1.555     3.28     6.456535     20.34854     229.1906        23     1.200     1.060 -69.81   0
       235    519.0864    291.5144 300.2539596 +22.6330469     461.0601     72.25308      1.515     4.37     6.342926     20.34854     39.61776         8     1.145     0.474   8.78   0
       236    926.1246    290.1783 300.3813254 +22.7544559     490.0449     72.10622      1.563     3.26     5.859697     20.34854      50.0508         8     0.791     0.692 -26.18   0
       237    372.5907    281.0340 300.2117307 +22.5861748     2181.171      72.1246      1.801     3.74     6.211911     20.34854     183.3744        31     1.492     1.164  62.14   0
       238    584.7883    280.2881 300.2780750 +22.6494838      294.076     72.06947      1.159     3.66     6.483091     20.34854     41.54339         5     1.036     0.371 -15.55   0
       239    811.5859    274.2760 300.3507434 +22.7156175      615.231     72.14297      1.607     3.31     6.180871     20.34854      60.8678        12     1.110     0.699  16.53   0
       240    693.9227    271.7764 300.3148569 +22.6796947     377.2562      72.1246      1.573     5.21     6.513791     20.34854     44.32224         9     1.154     0.873  -4.79   0
       241    448.4663    260.4403 300.2420401 +22.6029699     1143.379     72.08784      1.537     2.90     6.237253     20.34854     125.0583        19     1.127     1.046  11.13   0
       242    256.7671    260.5516 300.1823197 +22.5456028     299.8548     72.16133      1.091     3.39     6.517006     20.34854     37.51288         5     1.161     0.286 -53.33   0
       243    776.0262    255.2365 300.3458271 +22.6995001     2011.714     72.14297      0.496     0.79     6.317566     20.34854     1402.635         6     0.430     0.322  76.13   0
       244    693.5357    252.4575 300.3210029 +22.6740203     2126.296     72.17969      1.493     2.69     6.518218     20.34854     258.5719        24     1.176     1.067 -61.33   0
       245    954.8317    246.8672 300.4043361 +22.7505729     3235.844      72.1246      1.715     3.40     6.038352     20.34854     248.8099        37     1.418     1.306  71.84   0
       246    770.6191    248.9157 300.3461908 +22.6960635     4162.496     72.05107      0.661     1.02     6.334099     20.34854     1939.918         9     0.553     0.429   3.23   0
       247   1016.2629    242.2384 300.4250166 +22.7676098     377.5857      72.1246      1.698     3.90     6.103094     20.34854     34.95846         6     0.900     0.642  18.83   0
       248   1023.2687    234.7932 300.4296190 +22.7675607     1051.771     58.24092      1.366     3.67     6.136065     20.34854     142.3551        18     1.450     0.700  87.02  24
       249    401.7834    236.2016 300.2353629 +22.5820241     507.2874     72.01428      1.446     3.66     6.251143     20.34854     65.55178        10     0.930     0.806  41.48   0
       250     76.6754    230.1655 300.1361498 +22.4829280     1576.839      72.1246      2.026     4.50     6.539827     20.34854     101.3763        27     1.375     1.315  50.15   0
       251    107.7232    230.3098 300.1457587 +22.4922701      536.517     72.27142      1.487     3.79     6.636177     20.34854     45.15236         9     0.861     0.756   0.71   0
       252    970.9770    227.4732 300.4156669 +22.7498171     619.6492     72.17969      2.060     4.09      6.12691     20.34854      49.5974        11     1.078     0.806 -19.59   0
       253    813.8433    224.1178 300.3677174 +22.7018566     275.7866     72.08784      1.427     4.18     6.226274     20.34854     39.19128         5     1.009     0.495  23.87   0
       254    160.8835    222.4816 300.1648328 +22.5059433     403.1965     72.25308      1.578     4.51       6.7635     20.34854     48.52555         8     1.077     0.630 -38.22   0
       255     16.8361    219.4249 300.1210272 +22.4619151     246.0182     72.14297      1.303     3.61     6.371673     20.34854     43.66303         5     0.944     0.664 -82.48   0
       256    836.7176    216.6236 300.3772845 +22.7065415     333.3486     72.08784      1.585     4.26     6.194374     20.34854     36.90603         6     1.096     0.473  52.84   0
       257    765.2169    214.1511 300.3557815 +22.6844423     640.9231     72.16133      1.353     3.33     6.375324     20.34854     67.51591        12     1.012     0.815  44.57   0
       258    855.5869    207.1873 300.3862323 +22.7094688     282.3239     72.05107      1.251     2.71     6.186954     20.34854     37.15625         5     0.715     0.458 -70.84   0
       259    863.2141    202.9364 300.3899909 +22.7105262      2188.38     72.08784      1.638     3.33      6.18693     20.34854     193.2183        27     1.259     1.128  66.73   0
       260    281.6939    199.9382 300.2097356 +22.5356419     2002.877     72.21639      1.581     3.38     6.475973     20.34854     199.0536        26     1.252     1.120  39.64   0
       261    359.4827    195.3990 300.2354235 +22.5576269     1255.977     72.01429      1.827     3.47     6.321821     20.34854     104.2204        20     1.153     1.092 -51.88   0
       262    761.3716    194.3215 300.3610130 +22.6775848     575.5303     72.14297      1.619     4.53     6.405488     20.34854     74.81445        12     1.241     0.923  56.68   0
       263    176.5078    187.3836 300.1810749 +22.5005343     782.2067     72.05108      1.654     3.65     6.861938     20.34854     81.54588        13     1.068     0.900  74.08   0
       264    714.3615    184.2936 300.3496039 +22.6606359      1680.23     72.14297      1.503     2.91     6.454107     20.34854     177.9689        20     1.163     1.010  65.63   0
       265    779.0924    184.3072 300.3697878 +22.6800032     583.6343     72.28975      1.549     3.57     6.392235     20.34854     50.00333         9     1.063     0.577  -6.05   0
       266     29.1097    184.5960 300.1361368 +22.4555841     364.1183     72.03268      2.166     3.93     6.721521     20.34854      29.7922         5     0.903     0.491  -0.35   0
       267    198.1119    180.4784 300.1900354 +22.5050192     515.9034     72.27142      1.458     3.63     6.820014     20.34854     61.33691         9     0.959     0.747  48.56   0
       268    985.7192    176.9310 300.4366607 +22.7396716     818.6876     72.23474      1.626     4.72      6.40014     20.34854     73.10645        14     1.036     1.005   9.38   0
       269    718.5166    175.5958 300.3537200 +22.6593757     860.6108     72.05108      1.758     4.05     6.447268     20.34854     67.02026        16     1.120     1.043  -5.72   0
       270    638.8660    174.8578 300.3291251 +22.6353340     1220.411     72.16133      1.552     3.80     6.431763     20.34854     123.7987        16     1.176     0.899  69.35   0
       271    460.4024    171.3614 300.2746469 +22.5809229     296.0518     72.14297      1.162     4.04     6.323409     20.34854     43.29262         6     0.897     0.520 -48.25   0
       272    564.9780    166.9120 300.3086717 +22.6109392      929.111     72.05107      1.446     2.83      6.37915     20.34854     111.3271        14     1.085     0.823 -80.02   0
       273    834.3712    166.8009 300.3927094 +22.6914975     1538.236     72.08784      1.611     2.87     6.361194     20.34854     166.0251        18     1.105     0.992  35.44   0
       274    846.4991    165.5623 300.3968951 +22.6947680     807.3502      72.1246      1.552     3.60     6.347152     20.34854     91.72152        15     1.183     0.947  68.14   0
       275   1007.2905    156.7258 300.4499475 +22.7403021     1874.009     72.28975      1.804     3.50     6.525157     20.34854     157.4206        28     1.421     1.208 -39.29   0
       276    963.1302    156.1005 300.4363632 +22.7269193      1140.34     72.23474      1.588     3.53      6.41765     20.34854     110.7559        21     1.189     1.110 -71.59   0
       277    197.4308    148.9779 300.2000367 +22.4957595     751.2244      72.1246      1.576     2.69     6.896984     20.34854     94.87559        11     0.987     0.709 -14.02   0
       278     59.1463    143.3414 300.1588513 +22.4527255     2302.262     72.17969      1.878     3.57     6.980834     20.34854     208.8618        34     1.393     1.364 -75.92   0
       279    882.0297    141.0301 300.4159364 +22.6983302     712.6049     72.10622      1.470     3.18     6.337103     20.34854     78.07634        10     0.874     0.755  75.23   0
       280      8.8257    140.6851 300.1440669 +22.4368893     497.2556     72.10622      1.559     3.55     6.993903     20.34854     55.81423         9     1.020     0.682 -40.37   0
       281    216.3737    136.7791 300.2098856 +22.4979245     5608.496     72.10622      1.701     3.33      6.87449     20.34854     558.4433        43     1.380     1.367  34.96   0
       282     64.1854    135.1048 300.1630884 +22.4518675     865.2222     72.05107      0.404     2.45      6.99872     20.34854     749.7997         5     0.748     0.241  38.75   0
       283      1.4666    130.9846 300.1449238 +22.4318972     729.1425     56.88282      1.310     4.17     7.023776     20.34854     116.1805        11     1.250     0.585  89.23  24
       284    200.0184    127.9087 300.2076722 +22.4904770     620.1566     72.05107      1.542     5.38     6.946001     20.34854     60.86942        13     1.172     0.823 -33.95   0
       285   1015.4216    124.7059 300.4628681 +22.7335109     18109.34     72.05108      1.808     3.67     6.426414     20.34854     1407.929        64     1.569     1.434 -83.19  16
       286    860.6264    118.7024 300.4164963 +22.6855013     3693.682     72.06947      1.656     3.20     6.340229     20.34854      357.446        36     1.370     1.250 -80.68   0
       287    964.3023    117.5207 300.4492374 +22.7161595     2776.157     72.25308      1.759     3.45     6.357637     20.34854     253.0422        31     1.397     1.242 -55.82   0
       288    409.9539    113.8290 300.2775864 +22.5492749     699.0921     72.16133      1.685     4.41     6.354733     20.34854     77.75179        14     1.213     0.955  83.20   0
       289    524.9700    111.3797 300.3142087 +22.5829901     358.8467      72.1246      1.811     4.18     6.345434     20.34854     30.48583         5     0.793     0.629 -85.42   0
       290    334.2180    105.4370 300.2567243 +22.5241922      514.103      72.1246      1.400     2.62     6.458793     20.34854     70.78953         7     0.807     0.597 -31.05   1
       291    338.4394    104.3945 300.2583764 +22.5251560     528.5449     72.14297      2.265     4.89     6.452859     20.34854     45.45647         8     0.987     0.686  -0.01   1
       292    100.4485    102.6556 300.1848842 +22.4534010      613.214     72.16133      1.595     3.83     7.057641     20.34854     74.93645        14     1.233     0.910 -46.43   0
       293    461.2943    101.0198 300.2977293 +22.5609551     1775.532     72.05107      1.516     2.98     6.347556     20.34854     168.6051        23     1.187     1.041  51.71   0
       294    389.1249    101.4551 300.2751110 +22.5394815     573.2486     72.16133      1.634     4.62      6.38929     20.34854     73.39911         8     1.138     0.724  65.84   0
       295    523.2056    100.3795 300.3172248 +22.5792971     329.3979     72.10622      1.019     1.95     6.343501     20.34854     54.47935         5     0.690     0.442  22.26   0
       296    749.6861     90.8877 300.3909036 +22.6443166     378.7126     72.25308      1.358     3.64     6.462333     20.34854     38.62649         7     0.998     0.536  17.01   0
       297    597.5212     86.8853 300.3447580 +22.5976488     319.6698     72.25308      1.498     5.50     6.445994     20.34854     29.27446         8     1.105     0.772  31.36   0
       298    895.2805     85.6107 300.4380378 +22.6863344     258.0233     72.10622      1.387     2.92     6.324903     20.34854      34.5571         5     0.713     0.463 -16.47   0
       299   1023.8689     81.8257 300.4794065 +22.7236848    -416.1475     54.93955    -10.289     3.97     6.323165     20.34854     111.9487         8     1.340     0.336  88.60  24
       300    235.3995     80.6351 300.2340050 +22.4874776     6127.381     72.08784      1.761     3.50     6.953602     20.34854       605.61        44     1.493     1.317 -88.92   0
       301    743.4901     82.0152 300.3918471 +22.6399094     435.3091     72.05108      2.424     4.30     6.546072     20.34854     44.70546         6     0.799     0.660 -34.76   2
       302     86.5556     80.3796 300.1877836 +22.4428370     749.6468     72.17969      2.135     4.98     7.082624     20.34854      67.4631        13     1.373     1.010 -56.31   0
       303    865.4275     78.6895 300.4309651 +22.6754156     253.4118     72.10622      1.404     3.00     6.318847     20.34854     50.67281         5     1.017     0.292 -21.64   0
       304    207.4138     74.9593 300.2271362 +22.4774670     349.1401     72.14297      1.413     3.49     7.068824     20.34854      47.3962         5     0.792     0.563  -4.42   0
       305    251.1171     72.3174 300.2415923 +22.4897911     369.1503     72.25308      1.604     4.45     6.845623     20.34854     40.87675         6     0.852     0.661  22.84   0
       306    481.5130     66.1348 300.3153348 +22.5569688     6362.175     72.21639      1.573     2.95     6.343018     20.34854     659.0114        37     1.318     1.213  80.62   0
       307    366.9409     66.0161 300.2796898 +22.5226481     625.0562     72.08784      1.451     2.91     6.426965     20.34854     70.48447        11     0.867     0.842 -51.61   0
       308    538.3818     61.3943 300.3345896 +22.5726202     184.7639     72.08784      1.183     4.01     6.343018     20.34854     33.66074         6     1.067     0.431 -55.93   0
       309    501.9487     61.1564 300.3233149 +22.5616510     246.0191     72.16133      1.628     4.35     6.343018     20.34854     47.42905         5     1.367     0.395 -71.12   0
       310    734.3298     56.1521 300.3973730 +22.6297243      849.854     72.10622      1.569     3.78     6.782302     20.34854     84.03249        14     1.127     0.951 -86.45   0
       311    826.4009     55.1805 300.4264078 +22.6569771     434.5845     72.05107      1.301     2.72     6.292823     20.34854     48.92738         5     0.718     0.455  70.89   0
       312    174.5528     49.7772 300.2250731 +22.4603878     405.0908     72.14297      1.544     4.37      7.22644     20.34854     47.19598        11     1.093     0.944 -27.22   0
       313    609.8665     46.2466 300.3617773 +22.5896461     6446.044      72.1246      1.640     2.98     6.870282     20.34854     717.0322        43     1.443     1.245  81.22   0
       314    532.7831     48.8045 300.3369253 +22.5673222     385.0434     72.06947      1.486     3.61     6.343018     20.34854     43.02356         7     1.015     0.492 -21.18   0
       315    384.7438     45.3827 300.2919203 +22.5220407     1446.893     72.10622      1.627     3.44     6.428372     20.34854      138.567        24     1.297     1.100   5.35   0
       316    650.8506     44.1140 300.3752444 +22.6012915     808.7894      72.1246      1.442     3.63     6.894924     20.34854     84.70989        13     1.174     0.748 -14.80   0
       317    667.0347     39.8417 300.3816747 +22.6049024     545.7217     72.17969      1.540     3.49     6.933596     20.34854     59.17517        12     1.091     0.735 -79.84   0
       318    937.3243     37.4356 300.4667746 +22.6850293     596.3256     72.08784      1.748     5.48     6.323165     20.34854     61.74347        11     1.324     0.821 -10.24   0
       319    133.6979     37.8805 300.2162189 +22.4447351     707.8718     72.25308      1.610     2.99     7.231748     20.34854     79.45784        11     1.019     0.695 -31.96   0
       320    705.4723     35.5696 300.3950442 +22.6151686     503.4028      72.1246      1.474     2.87     6.958093     20.34854     63.66775         9     0.941     0.671  28.62   0
       321    654.1475     31.2701 300.3804346 +22.5985805     2770.202     72.10622      1.616     3.10     7.016491     20.34854     259.5465        30     1.249     1.234 -64.40   0
       322    669.2035     30.2543 300.3854578 +22.6027912     905.7668     72.08784      1.983     6.11     7.025314     20.34854     76.95926        17     1.524     0.914  48.72   0
       323    295.2780     31.7233 300.2684927 +22.4913354     381.7433     72.23474      1.673     3.21     6.577716     20.34854     46.15879         5     0.892     0.437  82.63   0
       324    740.7361     22.9914 300.4101176 +22.6220931      1467.74     72.10622      1.522     3.62     7.002439     20.34854     146.5565        22     1.322     1.071 -30.52   0
       325    819.0187     18.1683 300.4360994 +22.6441119     485.1828      72.1246      2.295     3.48     6.252703     20.34854     39.56354         5     0.752     0.661  -4.08   0
       326    678.6642     16.0448 300.3930122 +22.6015302     697.2264     72.14297      1.593     4.25     7.148675     20.34854     73.01122        12     1.224     0.861  -9.89   0
       327     30.9176   1017.5103 299.8661653 +22.6952477     697.9612     72.23474      2.532     3.49     33.79744     20.34854     36.40854         5     0.978     0.359  46.15  18
       328     57.2299     15.6824 300.1996297 +22.4154566     490.4597     72.14297      1.507     4.13     7.107156     20.34854     60.60228         8     1.032     0.631   2.33   0
       329    283.3364   1012.0163 299.9464620 +22.7694004      775.911     72.10622      1.879     6.45     14.93589     20.34854     76.11717        20     1.668     1.191  29.58   0
       330    159.1416    996.2488 299.9129531 +22.7276215     3208.141     72.17969      6.965    27.31      80.8701     20.34854      71.3271       203     5.392     4.388  65.18  18
       331    118.3016   1006.1918 299.8970168 +22.7182215     1285.294     71.99589      2.783    13.42     89.95982     20.34854     45.51249        30     3.232     1.551  -8.59  18
