#   1 NUMBER                 Running object number                                     
#   2 X_IMAGE                Object position along x                                    [pixel]
#   3 Y_IMAGE                Object position along y                                    [pixel]
#   4 ALPHA_J2000            Right ascension of barycenter (J2000)                      [deg]
#   5 DELTA_J2000            Declination of barycenter (J2000)                          [deg]
#   6 FLUX_APER              Flux vector within fixed circular aperture(s)              [count]
#   7 FLUXERR_APER           RMS error vector for aperture flux(es)                     [count]
#   8 FLUX_RADIUS            Fraction-of-light radii                                    [pixel]
#   9 FWHM_IMAGE             FWHM assuming a gaussian core                              [pixel]
#  10 BACKGROUND             Background at centroid position                            [count]
#  11 THRESHOLD              Detection threshold above background                       [count]
#  12 FLUX_MAX               Peak flux above background                                 [count]
#  13 ISOAREA_IMAGE          Isophotal area above Analysis threshold                    [pixel**2]
#  14 A_IMAGE                Profile RMS along major axis                               [pixel]
#  15 B_IMAGE                Profile RMS along minor axis                               [pixel]
#  16 THETA_IMAGE            Position angle (CCW/x)                                     [deg]
#  17 FLAGS                  Extraction flags                                          
         1    719.6354     20.7605 300.3929243 +22.6015392     873.6374      72.2932      1.492     3.12     5.863476     20.38054     98.47206        14     1.040     0.909 -64.21   0
         2    811.0948     16.5762 300.4227976 +22.6276969     374.9076     72.12753      1.318     5.46     5.939896     20.38054     59.09185         9     1.385     0.608  52.97   0
         3    525.2753     19.9392 300.3326261 +22.5431405     1155.143      72.2932      1.460     2.60     5.262647     20.38054     137.5061        16     1.041     0.834  84.08   0
         4    747.0151     11.0114 300.4046198 +22.6069264     1060.106     72.16438      0.428     1.63     6.172326     20.38054     871.1729         5     0.306     0.286  -0.82   0
         5    768.7218      8.9168 300.4120666 +22.6128176     457.2502     72.34834      1.133     2.41     6.167242     20.38054     89.90397         8     0.938     0.494  32.34   0
         6    200.6247      7.8943 300.2354793 +22.4424772     3936.876     72.16438      1.627     2.94      5.28966     20.38054     430.3601        34     1.315     1.233  44.68  16
         7    623.1522      5.2582 300.3678771 +22.5682110     452.2491     72.07223      1.688     3.57     5.258095     20.38054     44.61179         6     0.755     0.603  38.66  16
         8    761.7783      1.2875 300.4123742 +22.6085456     534.0096     55.88878      1.055     2.90     6.244341     20.38054     126.2634         8     0.941     0.450  -3.33  24
         9    316.6159      1.2138 300.2737312 +22.4752921     451.5927     55.50695      0.966     2.47     5.390958     20.38054      126.667         7     0.920     0.405   4.59  24
        10    384.6362   1002.3215 299.9697968 +22.7830948     472.6919     72.20121      1.855     4.90     4.127601     20.38054     32.21399         7     1.193     0.569  20.04   0
        11    277.1255   1018.8726 299.9309582 +22.7555824     2902.425      72.2932      7.093    36.80     32.84998     20.38054     65.16498       229     7.257     5.180  63.12  27
        12    229.0824    990.6152 299.9252099 +22.7330635     4648.507     72.21962      8.818    36.06     63.48803     20.38054     88.51992       402     8.310     4.344 -86.18  19
        13    249.8698    988.8641 299.9322453 +22.7387996     6415.356     72.27481     13.463    50.86     45.69176     20.38054     112.1299       831    11.928     7.246 -68.70  19
        14    267.7196    978.7681 299.9410827 +22.7412611     9196.442     72.23802     12.461    41.76     28.13339     20.38054     180.7182      1070    13.405     5.891  70.60  19
        15    108.3131    952.2373 299.9001455 +22.6858162     5499.537     72.21962     22.022    84.58     33.33669     20.38054     1291.221      2410    15.338    12.941  24.81  19
        16    105.3857    921.1749 299.9093406 +22.6760333     4195.397     72.25642     19.138    53.12      11.0257     20.38054     90.94303      1063    12.587     7.679 -21.99   3
        17    955.3206    974.8987 300.1565581 +22.9463332     780.0499     72.36671      2.164     5.93     4.312136     20.38054     44.12666        14     1.545     1.000 -20.72   0
        18      5.1416   1014.8555 299.8477076 +22.6727908     3323.773     71.86908     13.724    50.43    -29.42964     20.38054     67.30141       516    11.517     6.128 -86.63  27
        19    576.1987    995.8112 300.0315605 +22.8386869     2447.058     72.05379      1.908     4.58     3.629449     20.38054     150.6077        33     1.447     1.335  -5.29   0
        20      1.3564    996.3877 299.8525409 +22.6663625     1295.921     56.29163      6.814    10.75    -25.94392     20.38054     59.62191        34     5.371     0.599  89.39  27
        21    136.4052    988.0662 299.8972212 +22.7045182     483.2914     72.23802      2.596     4.46      71.3203     20.38054     32.29964         5     1.345     0.420  78.55   1
        22    196.9302    984.0237 299.9173556 +22.7215248      1324.45     72.25642      3.085    10.05     66.20712     20.38054     49.70634        25     2.008     1.401 -28.98   2
        23    680.9443    958.0803 300.0764734 +22.8592675     6953.113     72.27481      1.912     4.19     3.713449     20.38054     394.0792        49     1.520     1.438  30.53   0
        24    196.2358    977.6959 299.9191986 +22.7195023     1353.388     72.23802      3.614    11.61     61.50689     20.38054      45.8717        15     2.842     1.320  30.92   2
        25    560.6276    952.5100 300.0408005 +22.8215933     450.6234     72.21962      1.822     6.17     3.910898     20.38054     41.84484         8     1.162     0.920  15.57   0
        26    118.2854   1012.3979 299.8836706 +22.7060535     3254.859     72.16438     14.755    88.19     89.06316     20.38054     140.2369      1551    24.416     8.838  48.33  27
        27    589.2749    948.9226 300.0508911 +22.8291542     1586.302     72.34834      1.839     4.68     3.980523     20.38054     108.2616        23     1.271     1.186 -23.25   0
        28    172.6410    959.4148 299.9178097 +22.7071803     1173.737     72.25642      3.665    11.71     50.36691     20.38054     39.85952        33     2.396     1.593  35.11   2
        29    483.4180    945.0471 300.0191839 +22.7962973      1038.32     72.27481      1.993     5.08     3.877079     20.38054     77.12817        22     1.331     1.243  29.10   0
        30    413.8730    943.2518 299.9981172 +22.7749232     6768.212     72.23802      1.853     3.98     3.863235     20.38054     504.9184        46     1.462     1.407   7.73   0
        31    724.9104    933.6605 300.0981217 +22.8654387     272.4454     72.32996      2.018     5.25     3.813815     20.38054     34.29532         7     1.403     0.556 -22.05   0
        32    447.2071    929.9742 300.0128137 +22.7811127     413.7426     72.23802      1.557     4.61     3.939152     20.38054     47.30353         8     1.219     0.739 -63.83   0
        33    960.2436    922.2014 300.1752412 +22.9326746     2226.081     72.21962      2.037     5.18     4.034416     20.38054     110.2274        30     1.434     1.374  59.04   0
        34     15.2034    993.3000 299.8578480 +22.6696350     1420.053     72.10911      9.338    18.70    -11.03809     20.38054     38.03439        44     3.842     2.529  -8.04  19
        35     10.9051    977.3389 299.8617058 +22.6637706     1865.816     72.32996      9.334    22.37    -9.944161     20.38054     61.64974        85     4.753     2.924   0.25  27
        36    458.9732    918.4472 300.0202268 +22.7813347     368.3029     72.25642      1.887     3.11     3.960794     20.38054     37.51966         5     0.758     0.583 -86.38   0
        37    740.5779    914.2319 300.1093264 +22.8645578     1990.885     72.23802      0.841     2.17     3.844308     20.38054     604.1356         8     0.840     0.433  13.68   0
        38    749.4334    911.1652 300.1130845 +22.8663318     863.0441      72.2932      2.067     6.95     3.850369     20.38054     48.04918        19     1.584     1.056  44.47   0
        39    783.8264    905.2032 300.1257464 +22.8749285     1153.688     72.20121      1.989     4.51     3.882128     20.38054     73.58687        21     1.363     1.088  -8.17   0
        40    144.5497    905.0684 299.9267550 +22.6831692     651.1268     72.23802      4.296     4.27     17.78955     20.38054     35.91846         5     0.947     0.550  46.73   0
        41    806.1089    898.9148 300.1347397 +22.8798010     11341.15     72.40343      1.796     4.00     3.919971     20.38054      704.453        51     1.462     1.394  22.25   0
        42    997.5692    898.9706 300.1944464 +22.9371846     409.6266     72.23802      2.010     4.37     4.032724     20.38054     30.08956         6     1.138     0.477  18.93   0
        43    851.7681    898.8906 300.1489862 +22.8934771     398.3033      72.1828      1.607     5.85     4.032689     20.38054     43.44749        11     1.174     0.821 -38.24   0
        44    129.7692    897.8824 299.9244972 +22.6766735     721.0918     72.23802      2.663     3.49     13.50337     20.38054     41.88499         5     1.577     0.222 -27.19   1
        45    662.6226    991.0395 300.0600387 +22.8632331     8451.512     72.27481      1.935     4.40     3.595608     20.38054     444.3014        46     1.502     1.444  39.05   3
        46    117.4906    890.4200 299.9231073 +22.6708492       954.51     72.16438      3.568     4.72     10.20269     20.38054     64.80605        18     1.230     1.195 -66.78   0
        47    857.8927    886.6904 300.1548651 +22.8918090     499.6891     72.40343      1.932     6.92     4.060169     20.38054      35.0969         8     1.343     0.998  15.49   0
        48    511.5211    886.7137 300.0469116 +22.7879883     393.3449     72.38507      1.619     5.18     4.054368     20.38054     48.54246         9     0.985     0.770  37.91   0
        49     88.7451    884.1168 299.9162218 +22.6604155     606.1059      72.2932      2.681     4.33     6.789193     20.38054     43.09346         7     0.878     0.609  67.51   0
        50    814.7140    881.0095 300.1432476 +22.8772387     1535.863     72.16438      1.828     4.37     3.972974     20.38054     105.3036        25     1.288     1.250 -85.50   0
        51    108.5410    881.5180 299.9232205 +22.6656113      482.524     72.31158      1.288     3.67     8.274666     20.38054     43.32912         6     0.987     0.393  70.20   0
        52    998.3916    879.4182 300.2010637 +22.9318145     599.2083      72.1828      2.208     7.05     4.032724     20.38054     39.94186         9     1.610     0.865  27.45   2
        53    666.9598    877.9661 300.0981789 +22.8320802     537.2036     72.27481      2.298     5.65     4.049631     20.38054     42.26662        11     1.226     0.996 -11.09   0
        54    852.6435    874.5886 300.1571646 +22.8867609      655.113     72.23802      1.827     5.40     4.062521     20.38054     42.81155        13     1.238     0.957  53.44   0
        55    960.5228    871.6609 300.1917700 +22.9182420      361.783      72.2932      1.713     5.44     4.034372     20.38054     36.84071         6     1.104     0.757 -38.60   0
        56    901.4793    865.9378 300.1752109 +22.8989091     640.1392     72.32996      1.760     6.17     4.062209     20.38054     51.43376        12     1.170     0.913 -67.10   0
        57    752.5161    864.7347 300.1291490 +22.8539258     689.4349     72.34834      1.703     4.33     3.880664     20.38054     68.93367        13     1.122     0.964  14.86   0
        58    764.4836    863.0102 300.1334408 +22.8570173     1297.655     72.20121      1.302     1.92     3.903512     20.38054     670.2125        15     1.523     0.595  62.44   0
        59     13.0664    862.4973 299.8997336 +22.6315046     288.4277     72.32996      1.679     5.13     4.277603     20.38054     34.14922         7     1.152     0.646  83.48   0
        60    465.0844    860.9362 300.0408365 +22.7666668     4323.862     72.32996      1.669     3.50     4.020164     20.38054      370.763        32     1.348     1.234 -58.01   0
        61    243.1629    849.7196 299.9754231 +22.6968864     324.1822     72.20121      1.518     4.30     5.992882     20.38054     32.90439         7     0.872     0.604  31.33   0
        62    190.7007    846.7811 299.9600625 +22.6803042     804.2917     72.14597      1.981     4.40     7.141466     20.38054     73.40104        18     1.377     1.093 -41.22   0
        63    167.5252    843.6558 299.9538722 +22.6724545     1616.166     72.27481      1.790     3.94     7.477076     20.38054     144.9379        25     1.464     1.143  61.33   0
        64    668.1976    988.7640 300.0625165 +22.8642517     9730.175     72.23802      1.991     4.38     3.592674     20.38054     575.5358        48     1.526     1.451 -15.82   3
        65    762.8907    991.4581 300.0911540 +22.8934142      612.198      72.2932      1.811     6.74     3.480967     20.38054     45.63829        14     1.356     0.941  37.99   0
        66    993.5598    831.5361 300.2151300 +22.9166121     2186.673     72.20121      1.916     4.49     4.151124     20.38054     130.9198        33     1.486     1.312  -0.02   0
        67    698.8930    831.5053 300.1232419 +22.8283142     601.8535     72.40343      2.137     5.22     3.939523     20.38054     42.39979        11     1.166     0.807 -31.76   0
        68    776.8029    825.2296 300.1495692 +22.8498610     628.9382     72.20121      1.626     3.86     3.943151     20.38054     60.94442        16     1.121     0.997   5.56   0
        69    200.5431    825.3744 299.9700844 +22.6771181     346.4262     72.23802      1.252     3.17      5.89901     20.38054     46.51994         5     0.717     0.480 -75.56   0
        70    645.1489    819.1487 300.1105118 +22.8086582     4856.232     72.27481      1.587     3.21     4.017656     20.38054     402.4257        33     1.266     1.202  32.88   0
        71    134.7418    819.7684 299.9514468 +22.6557682      453.597     72.25642      1.696     5.43     5.678591     20.38054     44.99655         6     1.221     0.682 -52.88   0
        72    447.2784    816.3079 300.0498063 +22.7485215     623.1193     72.38507      1.509     4.19      4.24147     20.38054     68.52228        14     1.064     1.015  20.29   0
        73    195.3652    812.8162 299.9725576 +22.6719631     1316.483     72.23802      1.805     3.76     5.384217     20.38054     130.5075        19     1.228     1.053  14.35   0
        74    665.7944    811.5334 300.1194216 +22.8126601     725.8636     72.23802      1.632     5.41     3.918461     20.38054     57.37256        15     1.219     0.957  14.19   0
        75    214.6434    810.1812 299.9794098 +22.6769908      348.817     72.25642      1.381     4.64     5.134391     20.38054     51.70798         8     0.929     0.657  43.58   0
        76    582.0876    802.5219 300.0962714 +22.7849824     267.7321     72.38507      1.326     4.69     4.143893     20.38054     39.83782         8     0.810     0.772 -79.20   0
        77    821.1874    798.9850 300.1719432 +22.8556236     4295.435     72.16438      1.622     3.41     4.090024     20.38054      327.174        36     1.348     1.244  14.90   0
        78    552.3014    795.6802 300.0892178 +22.7740895      282.373     72.36671      1.477     5.23     4.174499     20.38054     25.40332         6     1.152     0.670  47.02   0
        79    230.1050    793.8376 299.9895327 +22.6769413     339.7894     72.21962      1.428     3.65     4.723116     20.38054      56.7812         6     0.956     0.605 -11.75   0
        80    538.1333    791.3065 300.0862271 +22.7685867     650.1168     72.38507      1.571     5.00     4.222008     20.38054      61.2252        14     1.280     0.965  39.58   0
        81    184.4998    789.2468 299.9768420 +22.6619437     982.4804     72.25642      1.731     4.15     4.751128     20.38054     83.83454        18     1.170     1.051 -44.35   0
        82    599.6221    784.3348 300.1076474 +22.7850178     527.0264     72.21962      1.605     4.41     4.258689     20.38054     73.49878        10     1.125     0.906  67.93   0
        83    334.1819    781.3611 300.0259678 +22.7045788      53681.4     72.25642      1.639     3.18     4.502198     20.38054     5470.106        94     1.465     1.403  21.78   0
        84    592.1985    780.4661 300.1065926 +22.7816820     1575.119     72.21962      1.502     3.19     4.283686     20.38054     154.5937        19     1.102     1.043 -70.15   0
        85   1004.9850    780.0197 300.2354486 +22.9052333      891.273     72.21962      1.833     4.35     4.386224     20.38054     63.88287        17     1.160     1.095 -45.56   0
        86    262.9939    779.5640 300.0044036 +22.6827123     430.0924     72.25642      1.457     2.90     4.569746     20.38054     51.61101         6     0.767     0.487   8.94   0
        87    621.1337    776.6805 300.1168381 +22.7892682     811.3132     72.34834      1.373     3.15     4.263901     20.38054     84.01792        15     1.036     0.910  35.09   0
        88     20.3326    775.8677 299.9301591 +22.6088502     738.2145      72.2932      1.918     3.68     4.690597     20.38054     68.09401        13     1.403     0.904   0.67   0
        89    631.6694    774.8266 300.1207236 +22.7918938      636.881     72.23802      1.623     4.05     4.238198     20.38054     68.68111        11     1.124     0.911  21.02   0
        90    736.8358    771.3506 300.1546293 +22.8224127      351.596     72.25642      1.312     4.57     4.179322     20.38054     50.07196         9     1.111     0.633  -0.91   0
        91    533.1332    768.1795 300.0921892 +22.7604496     259.9775     72.21962      1.569     3.90     4.361687     20.38054     32.69582         5     1.029     0.424  46.04   0
        92    383.9405    758.6227 300.0488456 +22.7129762     31750.18     72.21962      1.573     3.05     4.435352     20.38054     3197.558        73     1.377     1.340   4.92   0
        93    775.1334    761.3835 300.1698092 +22.8310258     649.5115     72.21962      1.448     4.09     4.159384     20.38054     83.28629        13     1.092     0.877  40.66   0
        94    398.2138    759.0737 300.0531416 +22.7173856     1990.362     72.25642      1.512     3.08     4.415672     20.38054     216.0268        23     1.179     1.053  47.74   0
        95    907.1627    754.7496 300.2131418 +22.8686738     2726.276     72.21962      1.628     3.37     4.326509     20.38054     231.1542        28     1.264     1.152  30.83   0
        96    395.1088    752.9396 300.0541693 +22.7146943     606.9179     72.32996      1.427     3.17     4.425034     20.38054      59.0032        11     0.861     0.846 -39.12   0
        97    665.0150    750.7503 300.1389419 +22.7949749     848.7411     72.27481      1.450     2.85     4.330259     20.38054     108.1246        16     1.034     0.934  48.80   0
        98    501.6477    751.0615 300.0879489 +22.7460974     427.0523     72.27481      1.545     3.73      4.47543     20.38054     45.96162         7     0.866     0.605 -10.86   0
        99    266.6234    750.0471 300.0151285 +22.6753334     900.3919     72.25642      1.777     4.78     4.498499     20.38054     71.09196        18     1.176     1.082  54.35   0
       100    512.2282    745.5978 300.0930200 +22.7477010     919.6505      72.1828      1.618     2.98     4.491818     20.38054     87.04356        14     0.954     0.906   2.41   0
       101     71.3163    745.7960 299.9557795 +22.6155257     478.6211     72.16438      1.560     4.88     4.653398     20.38054      54.2024        10     1.165     0.827 -52.51   0
       102    913.2453    742.6231 300.2189819 +22.8670119     474.0552     72.27481      1.618     4.42     4.358228     20.38054     45.38343        10     1.027     0.901  51.40   0
       103    414.1991    741.7515 300.0637486 +22.7172077      326.964     72.23802      1.435     5.41     4.424125     20.38054     41.57072         8     1.084     0.761 -47.33   0
       104    370.4228    741.1851 300.0503071 +22.7039191     224.4227     72.23802      1.212     3.80     4.447662     20.38054     42.29579         9     0.965     0.725  38.88   0
       105    457.9663    739.9467 300.0779608 +22.7298119      390.587     72.25642      1.327     3.99     4.488287     20.38054     45.54929        10     0.938     0.755 -83.20   0
       106     99.1752    739.2642 299.9665622 +22.6220110     648.9284     72.21962      2.272     7.65     4.615585     20.38054     46.31186        16     1.370     1.194  27.94   0
       107    890.6197    737.1836 300.2136921 +22.8586721     383.7431     72.21962      1.762     4.65     4.380661     20.38054     41.33888         7     1.040     0.590  18.31   0
       108    264.1412    734.7919 300.0193152 +22.6702123     529.7019     72.20121      1.445     3.40     4.478681     20.38054     62.94871        11     1.063     0.744  16.58   0
       109    587.2712    725.3784 300.1229666 +22.7643903     445.1057     72.25642      1.442     4.34     4.577225     20.38054     54.18728         7     0.867     0.623 -24.85   0
       110    557.0399    723.6183 300.1141216 +22.7548240     695.0656     72.25642      1.488     3.73     4.568358     20.38054      68.0266        12     1.077     0.820  -7.51   0
       111    466.6198    722.7391 300.0862486 +22.7274672     377.7711      72.1828      1.615     5.17     4.536833     20.38054     38.66287         8     1.231     0.613  -3.49   0
       112    973.5165    720.0607 300.2451219 +22.8785806     4490.577     72.34834      1.683     3.49     4.605618     20.38054     330.8588        36     1.334     1.272  12.82   0
       113    578.8476    720.9545 300.1217806 +22.7605955     1344.538     72.25642      1.381     2.89     4.579051     20.38054     155.9296        19     1.090     1.008 -44.40   0
       114    498.1536    720.3543 300.0968428 +22.7362358     356.8577     72.27481      1.755     4.65     4.573517     20.38054     56.49453         5     1.005     0.610  33.63   0
       115    962.0010    711.3597 300.2443570 +22.8726318     1680.202     72.25642      1.583     3.36     4.626477     20.38054     154.9293        26     1.260     1.199  85.79   0
       116    324.7680    705.1913 300.0477990 +22.6799006     841.1299     72.23802      1.542     4.30     4.444987     20.38054     77.40326        19     1.299     1.074 -61.42   0
       117    788.4885    702.6606 300.1930629 +22.8181607     2768.286     72.31158      1.676     3.15     4.299824     20.38054     248.7529        33     1.553     1.086   8.93   0
       118    993.1848    701.6041 300.2572593 +22.8791669     1704.804     72.09067      1.719     3.74     4.777278     20.38054     143.2515        22     1.260     1.052 -16.21   0
       119     10.7121    692.6208 299.9542279 +22.5820936     837.1949     72.16438      1.701     5.01     4.715256     20.38054      74.3466        16     1.193     1.025  56.04   0
       120    173.8036    689.0012 300.0061011 +22.6299812     699.8251     72.01688      1.678     4.87     4.613745     20.38054     55.50414        12     1.146     1.019  13.57   0
       121    870.7861    688.1588 300.2234416 +22.8386469     490.0335     72.25642      1.621     5.08     4.409906     20.38054     49.13502         8     0.976     0.748  78.63   0
       122    906.7701    679.6065 300.2374461 +22.8469671     149141.7     72.23802      1.609     3.18     4.597366     20.38054     14449.86       159     1.477     1.466   0.42   0
       123    668.8917    683.1577 300.1621213 +22.7767269     256.9019     72.23802      1.063     3.58     4.445621     20.38054     41.24314         8     0.849     0.641  48.63   0
       124    759.2745    680.0564 300.1913016 +22.8029160     790.0516     72.27481      1.458     3.60      4.37087     20.38054     71.28197        13     0.990     0.887  46.76   0
       125    939.7408    672.6797 300.2499838 +22.8548508     374.4462     72.27481      1.407     3.52     4.787136     20.38054     40.21667         8     0.901     0.629  -6.99   0
       126    592.9172    668.3476 300.1432619 +22.7497077     1575.998     72.27481      1.433     2.83     4.657635     20.38054     180.3108        21     1.092     1.024  13.82   0
       127    774.2037    665.7168 300.2006165 +22.8032693       9524.2     72.16438      1.488     2.85     4.368721     20.38054     1020.897        38     1.201     1.176 -22.85   0
       128    256.0901    666.5259 300.0389976 +22.6482115     183.1344     72.40343      1.166     4.15     4.645323     20.38054     41.15826         5     1.080     0.455  58.87   0
       129    275.6983    660.6570 300.0470047 +22.6524074     4922.766     72.32996      1.565     3.06     4.591447     20.38054     566.9918        36     1.272     1.191 -18.89   0
       130    357.9720    658.6129 300.0732692 +22.6764895     1145.828     72.23802      1.469     2.76     4.557583     20.38054     152.4204        18     1.186     1.007 -42.06   0
       131    233.9485    656.9132 300.0352340 +22.6388135     440.0472     72.25642      1.459     2.02     4.808063     20.38054     57.79507         5     0.595     0.568  -8.29   0
       132    566.0848    654.5773 300.1393781 +22.7377125     796.1664      72.1828      1.338     2.67     4.814991     20.38054     86.97462        12     0.900     0.793  44.34   0
       133    557.6653    646.4543 300.1393951 +22.7328569     3183.297      72.2932      1.396     2.58     4.909078     20.38054     399.6513        26     1.106     1.059  15.13   0
       134    547.8583    640.0165 300.1384323 +22.7280694     1383.491     72.21962      1.437     3.78     4.981143     20.38054     146.9331        20     1.238     0.944  71.54   0
       135    476.6981    639.4508 300.1164549 +22.7065797     205.8983     72.31158      1.204     3.63      4.98105     20.38054     58.23094         8     1.052     0.723  43.04   0
       136    941.8388    638.2103 300.2618404 +22.8455736     555.0132     72.23802      1.606     4.21     4.822045     20.38054     48.89555         9     0.954     0.702  -8.77   0
       137    458.8428    637.4749 300.1115375 +22.7006606     164.8019     72.21962      1.042     3.47     4.933582     20.38054     46.69003         5     0.761     0.458 -19.16   0
       138    211.5059    636.1558 300.0349983 +22.6261275     725.9736     72.25642      1.500     3.50     4.937646     20.38054     82.05058        11     0.907     0.882   4.12   0
       139   1015.0204    635.0262 300.2857124 +22.8665706     3966.384     72.21962      0.429     2.22     5.026061     20.38054     3482.237         6     0.396     0.379  51.64   0
       140    225.3532    634.9424 300.0396995 +22.6299319     662.6892      72.2932      1.590     4.92     4.955764     20.38054      67.0404        12     1.190     0.820  27.90   0
       141    994.9208    631.3234 300.2806426 +22.8594884     437.1154     72.34834      1.513     4.16     4.970702     20.38054     51.10485        10     1.021     0.821  43.57   0
       142    251.1992    631.4379 300.0488776 +22.6366767      498.942     72.23802      1.421     3.45     4.895085     20.38054     53.23389        12     0.966     0.878  33.90   0
       143    472.5634    629.8949 300.1182725 +22.7025970     1658.725     72.23802      1.398     2.67     5.048814     20.38054     232.9492        19     1.176     0.942  68.86   0
       144    571.7213    630.4751 300.1489659 +22.7324808     504.7486     72.34834      1.554     3.53     5.025389     20.38054     47.23443         7     0.943     0.483   9.06   0
       145    126.5923    624.7212 300.0123088 +22.5973808     19952.09     72.16438      1.697     3.42     4.908345     20.38054     2086.241        59     1.449     1.336  38.74   0
       146     47.5237    626.3871 299.9871893 +22.5741419     756.6084     72.25642      1.874     3.59     4.854376     20.38054     74.77158        13     1.080     0.989 -50.03   0
       147    557.6368    625.2802 300.1462665 +22.7267684      997.738     72.20121      1.376     2.78     5.097212     20.38054     125.2965        16     1.010     0.938 -12.91   0
       148    592.9930    624.0873 300.1576681 +22.7370207     377.1186     72.14596      1.388     4.82     5.036509     20.38054     51.11758         8     0.979     0.673 -89.73   0
       149    282.3170    631.4622 300.0585503 +22.6460143     328.3831     72.32996      1.325     4.73     4.799378     20.38054     40.59816         8     0.975     0.650  12.97   0
       150    613.1224    617.6078 300.1660448 +22.7411915     276.2489     72.20121      1.316     3.86     5.022451     20.38054     34.62327         5     0.874     0.488   0.13   0
       151    311.4061    616.5765 300.0724373 +22.6504640     252.2558     72.21962      1.251     4.64     4.893412     20.38054     29.49752         7     0.882     0.694 -18.30   0
       152    641.3347    613.1657 300.1762786 +22.7483688     312.8486     72.23802      1.655     3.38      4.81733     20.38054     34.75015         5     0.750     0.442  74.20   0
       153    975.6216    611.5412 300.2810479 +22.8480244     1007.711     72.23802      1.538     3.29     4.924531     20.38054     116.5981        17     1.079     1.013  18.70   0
       154    397.4068    611.5028 300.1008503 +22.6747895     165.8563     72.12753      1.187     4.24     4.994569     20.38054     37.76287         5     1.229     0.418 -32.55   0
       155     72.7173    608.9456 300.0006862 +22.5766961     1597.533     72.27481      2.061     5.16     4.904377     20.38054     102.1653        35     1.719     1.407  85.87   0
       156    139.0483    609.3703 300.0211688 +22.5967126     445.6283     72.25642      1.500     4.27     5.021671     20.38054     59.03382         9     1.111     0.771 -82.38   0
       157    842.6278    609.3443 300.2402717 +22.8075684      501.577     72.23802      1.516     3.87     4.466521     20.38054      48.1232         9     0.889     0.755  -2.41   0
       158    521.0266    606.4285 300.1409888 +22.7103841     389.4389     72.21962      1.353     2.22     5.269894     20.38054     56.32485         6     0.746     0.495  -0.08   0
       159    313.8286    605.2040 300.0768859 +22.6479263     226.2914     72.20121      1.295     3.93     4.964455     20.38054     31.31137         6     0.805     0.550 -41.90   0
       160    915.8271    604.3317 300.2647334 +22.8280485     725.0722     72.21962      1.603     4.35      4.75755     20.38054     80.54201        11     1.115     0.876 -81.48   2
       161    910.9020    603.5439 300.2634528 +22.8263473     481.0865     72.32996      2.102     4.95     4.735517     20.38054     39.38827         9     1.007     0.737  32.53   2
       162    477.7106    598.1324 300.1301950 +22.6950206     661.4534     72.38507      1.391     2.70      5.25994     20.38054     107.5361        13     0.932     0.891 -20.60   0
       163    625.3522    597.2047 300.1764843 +22.7389961     519.1745     72.21962      1.429     2.66     5.036832     20.38054     65.75038        10     0.865     0.781 -70.01   0
       164    672.8776    595.2236 300.1919376 +22.7526656     492.2622     72.23802      1.445     5.05     4.701209     20.38054      54.4447        10     0.974     0.832 -47.18   0
       165    643.4691    594.8259 300.1829023 +22.7437408      657.838     72.23802      1.335     3.20     4.916423     20.38054      66.9708        12     1.037     0.748 -36.00   0
       166    522.1669    594.0174 300.1453762 +22.7071621     922.5878     72.21962      1.363     3.97     5.276193     20.38054       102.28        16     1.188     0.881  33.87   0
       167    955.8255    589.6909 300.2819701 +22.8358170     3320.877      72.1828      1.523     2.89     4.849227     20.38054     363.0557        32     1.255     1.150  -9.48   0
       168    487.5160    589.3741 300.1360937 +22.6954445     1652.201     72.21962      1.359     2.57     5.270175     20.38054     206.8915        20     1.075     0.952  65.27   0
       169    852.5497    585.9960 300.2509522 +22.8038307     429.3059     72.23802      2.386     3.73     4.600292     20.38054     28.39192         6     0.803     0.498  89.78   0
       170    463.0092    584.5357 300.1300346 +22.6867107     138.2951     72.21962      1.330     2.38     5.230167     20.38054     39.79719         6     0.754     0.498   1.76   0
       171     49.4347    582.9186 300.0019046 +22.5622465     5012.614     72.20121      1.748     3.58     4.917192     20.38054     487.7874        39     1.428     1.284  15.72   0
       172    516.4700    579.9933 300.1481579 +22.7014279     470.7253     72.20121      1.662     3.59      5.28129     20.38054     44.16903         5     0.968     0.507  13.33   0
       173    994.8787    579.8359 300.2973588 +22.8446765     278.1001      72.1828      1.221     3.57     4.861483     20.38054     51.39832         5     0.995     0.370  -1.34   0
       174    350.9177    576.1097 300.0978791 +22.6506941     9102.584     72.34834      1.440     2.92     5.006202     20.38054     953.5095        45     1.238     1.205 -68.80   0
       175    473.4096    573.2016 300.1369549 +22.6865734     9050.951     72.05379      1.376     2.54     5.256529     20.38054     1012.025        39     1.195     1.132  66.12   0
       176    969.7546    564.7147 300.2944308 +22.8328083     12632.24     72.21962      1.565     2.94     4.808942     20.38054     1324.896        55     1.345     1.289 -70.24   0
       177    885.1562    567.3212 300.2671896 +22.8082281     2032.366     72.21962      1.498     2.75     4.737708     20.38054     232.6669        22     1.138     1.022 -83.00   0
       178    533.9594    562.8170 300.1591847 +22.7017362     11462.69     72.25642      1.378     2.46     5.299368     20.38054     1572.709        45     1.180     1.144  57.38   0
       179    719.3384    558.8177 300.2182456 +22.7561250     205.0493     72.20121      1.311     4.38     4.570504     20.38054     32.81468         5     1.157     0.472  88.24   0
       180    703.6738    558.8554 300.2133507 +22.7514437     637.1653     72.27481      1.370     2.41     4.745147     20.38054     79.26473        11     0.849     0.790 -28.88   0
       181    261.3116    558.1779 300.0758229 +22.6186846     1572.794     72.16438      1.631     3.73     5.070018     20.38054     149.9476        23     1.371     1.030   5.25   0
       182    419.5676    557.4227 300.1253172 +22.6659065     385.2719     72.23802      1.445     3.03     5.229576     20.38054     47.89396         5     0.729     0.461 -71.14   0
       183    508.4961    555.8246 300.1535256 +22.6920981     417.5432     72.14596      1.195     2.72     5.286606     20.38054     62.20946         7     0.915     0.620  44.21   0
       184    808.6378    551.2181 300.2485556 +22.7806868      748.567     72.23802      1.327     2.89     4.765749     20.38054     98.41667        13     1.096     0.683  56.55   0
       185    465.6893    550.9767 300.1417704 +22.6778782      4419.27     72.16438      1.372     2.48     5.263683     20.38054     606.9922        28     1.078     1.065  -6.18   0
       186    443.9378    549.4269 300.1355014 +22.6709145     1303.472     72.23802      1.419     3.01     5.260606     20.38054     150.8205        18     1.073     0.934  35.39   0
       187    198.2163    548.7418 300.0592622 +22.5970591     843.9732     72.21962      1.433     3.46     5.107351     20.38054     93.80757        15     1.120     0.955  21.32   0
       188    885.4454    546.6227 300.2740037 +22.8023659     1645.441     72.27481      1.565     3.08     4.800822     20.38054      164.801        19     1.108     0.990 -15.27   0
       189    582.2784    538.5314 300.1821243 +22.7092390     203053.5     72.34834      1.367     2.42     5.286499     20.38054     25920.68       196     1.434     1.373 -10.61   0
       190    405.8516    545.0166 300.1250771 +22.6582338     267.2233     72.23802      1.422     3.95     5.231065     20.38054     40.43667         5     0.855     0.522  23.29   0
       191    765.9150    543.5251 300.2377333 +22.7656815     860.6218     72.34834      1.481     3.02     4.562675     20.38054      107.231        13     0.965     0.942  33.04   0
       192    543.1850    539.6185 300.1695936 +22.6978383     169.1977     72.21962      1.141     3.47     5.316377     20.38054     29.14332         5     0.758     0.459 -15.14   0
       193    268.3217    538.4349 300.0844163 +22.6151196     3537.112      72.1828      1.486     2.78     5.063256     20.38054     414.9826        25     1.152     1.074   6.93   0
       194    834.5721    535.2025 300.2618456 +22.7838507     510.6218      72.1828      1.327     2.16     4.805494     20.38054     57.44508         6     0.680     0.600  23.15   0
       195    472.8282    518.8518 300.1544273 +22.6707927      2842.05     72.25642      1.459     2.50      5.26616     20.38054      356.913        25     1.125     1.034 -80.39   2
       196    317.4579    521.3588 300.1052503 +22.6249476     374.9722     72.21962      1.299     2.96     5.031394     20.38054     60.47282         8     0.919     0.582 -17.85   0
       197    884.4905    515.4087 300.2838446 +22.7931086     432.2395     72.16438      1.671     3.71     4.797248     20.38054     47.88981         8     1.013     0.627 -13.13   0
       198    703.8368    514.9417 300.2276652 +22.7388762     293.0218     72.23802      1.164     3.52     4.941777     20.38054     38.02558         6     0.888     0.484  55.32   0
       199    789.9915    507.3167 300.2570007 +22.7624872     550.3547      72.1828      1.596     4.94     4.792225     20.38054     54.93701        11     1.127     0.844 -55.68   0
       200    869.9520    505.1768 300.2826327 +22.7858149     1839.247     72.25642      1.414     2.55     4.801101     20.38054     207.6721        24     1.284     0.945 -54.97   0
       201    756.5529    505.1570 300.2472763 +22.7518529     434.4687     72.27481      1.768     3.71     4.724186     20.38054     45.02713         6     0.802     0.493  84.26   0
       202    741.0296    502.7822 300.2432080 +22.7465216     2694.417     72.21962      1.390     2.27     4.704865     20.38054     402.6477        25     1.160     1.005  53.27   0
       203    985.5974    500.3980 300.3202661 +22.8190616     477.5797     72.01688      1.538     3.69     4.736638     20.38054      51.7029        13     1.032     0.848 -43.31   0
       204    951.3461    500.0123 300.3097031 +22.8086979      240.695     72.25642      1.199     4.19     4.754529     20.38054     27.68203         5     1.092     0.459 -23.04   0
       205    645.9658    499.1968 300.2147428 +22.7170188      466.604     72.23802      1.331     2.26     5.264991     20.38054     70.70297         7     0.825     0.506 -53.08   0
       206    528.3329    498.7607 300.1782374 +22.6816538     681.3976     72.20121      1.256     2.59     5.293033     20.38054     99.44849        12     0.933     0.755 -19.99   0
       207    998.4363    496.6559 300.3254883 +22.8218288     1351.751     72.23802      1.719     2.99      4.73076     20.38054     127.4494        19     1.161     0.971  88.45   0
       208    870.1409    495.2160 300.2859266 +22.7830084     2236.746     72.20121      1.649     3.37     4.800249     20.38054      253.864        27     1.579     0.962  73.56   0
       209    984.3079    495.8850 300.3213294 +22.8173782     879.1176     72.40343      1.667     3.47     4.737047     20.38054     97.11842        13     1.120     0.788 -34.09   0
       210    623.4963    492.0104 300.2100750 +22.7082238     846.4394     72.16438      2.051     7.49     5.266656     20.38054     74.50646        17     1.906     0.825  87.43   0
       211    908.4310    490.2702 300.2994774 +22.7930503      4296.47     72.23802      1.471     2.64     4.770872     20.38054      518.594        31     1.244     1.109 -39.17   0
       212    461.7773    491.9902 300.1597098 +22.6597675     408.8047     72.23802      1.187     1.96     5.235371     20.38054     67.27608         7     0.672     0.636 -86.05   0
       213    645.8309    486.5892 300.2187951 +22.7133564     324.1534     72.23802      1.392     3.12     5.265375     20.38054     43.47393         5     0.727     0.460  18.01   0
       214    569.1765    486.2774 300.1950134 +22.6903047     456.4398     72.23802      1.259     2.56     5.281913     20.38054     57.11233         7     0.828     0.548 -27.46   0
       215   1000.4393    480.4969 300.3313613 +22.8177824     852.9788     72.21962      1.728     4.59     4.731134     20.38054     78.95783        17     1.258     0.976 -43.89   0
       216    140.5248    480.4448 300.0635015 +22.5601616     858.5247     72.21962      1.386     3.45     4.916639     20.38054     97.70118        16     1.127     0.940 -12.23   0
       217    406.2377    474.1882 300.1481994 +22.6380126     298.9278     72.23802      1.445     3.92     5.077263     20.38054     34.14853         6     0.805     0.546  49.87   0
       218    132.8429    470.9955 300.0641812 +22.5551466     440.8596     72.25642      1.320     3.37     4.924971     20.38054     78.73508        10     1.156     0.618 -52.17   0
       219    996.2229    470.4438 300.3333100 +22.8136299     387.8856      72.2932      1.635     3.45     4.726567     20.38054     46.31908         5     0.882     0.487   7.86   0
       220    740.4502    464.9397 300.2553165 +22.7354738     487.0372      72.2932      1.338     2.45     4.896781     20.38054      66.1494         7     0.835     0.588 -30.55   0
       221    629.5484    462.8647 300.2214252 +22.7016633     520.1301     72.27481      1.737     3.03     5.301166     20.38054     56.40145         5     0.994     0.333   4.87   0
       222    681.8412    460.7256 300.2384159 +22.7167109     659.3573     72.21962      1.252     2.77     5.214478     20.38054     101.2496        13     0.997     0.779  48.26   0
       223    742.5598    452.8866 300.2598879 +22.7326418     936.1843     72.21962      1.447     2.57     4.910427     20.38054     126.4748        17     1.136     0.877  88.08   0
       224    996.3215    453.3658 300.3388864 +22.8087489     568.5755      72.1828      1.435     3.84     4.717401     20.38054     73.99608         9     0.991     0.729  36.67   0
       225    899.7429    449.3739 300.3100472 +22.7786930      1022.53     72.23802      1.341     2.94     4.793919     20.38054     121.4332        15     1.107     0.758  37.16   0
       226    857.5201    447.1760 300.2975900 +22.7654212     258.4456     72.20121      1.351     4.54       4.8302     20.38054     27.89241         6     0.992     0.591  22.92   0
       227    883.9562    445.6483 300.3063322 +22.7728962     579.8124     72.25642      1.259     2.59     4.810603     20.38054     90.26519        12     0.959     0.757  84.06   0
       228    864.7370    446.1296 300.3001809 +22.7672809     272.4266     72.27481      1.257     2.43      4.82793     20.38054     62.56662         6     0.851     0.606 -13.62   0
       229    628.3726    443.4814 300.2273525 +22.6957422     3200.633     72.25642      1.292     2.31     5.342766     20.38054     421.1849        26     1.069     1.003 -71.24   0
       230    988.8798    442.6670 300.3400379 +22.8034454      552.113     72.34834      1.374     3.30     4.718242     20.38054     70.48685        11     1.006     0.796  13.57   0
       231    104.8864    434.8069 300.0672385 +22.5363790     291.6006     72.16438      1.256     4.48     4.957518     20.38054     38.17414         7     0.975     0.585 -14.31   0
       232    633.2694    431.5006 300.2327681 +22.6937666     220.9297     72.32996      1.382     5.48     5.353899     20.38054     31.82043         7     1.075     0.788 -35.75   0
       233    468.1332    430.4026 300.1816861 +22.6439840      360.831     72.23802      1.188     3.06     5.258046     20.38054     56.07384        10     0.858     0.822  36.18   0
       234    400.2933    431.3694 300.1602514 +22.6239352     310.2882     72.16438      1.527     3.95     5.027937     20.38054     34.67196         5     0.815     0.700 -50.26   0
       235    911.4926    422.5441 300.3224240 +22.7744968     565.0656      72.2932      1.399     2.76     4.802044     20.38054     76.08068        10     0.913     0.721  30.69   0
       236    998.0785    421.4809 300.3497875 +22.8001063     916.3242     72.36671      1.435     2.95     4.697553     20.38054     98.67303        15     0.990     0.899   3.13   0
       237    738.9328    417.5764 300.2702215 +22.7214080     1118.203     72.21962      1.388     2.36     4.963912     20.38054     160.4749        19     1.173     1.002 -79.43   0
       238    534.9900    417.9688 300.2065436 +22.6604413     418.3924     72.23802      1.415     3.06     5.317513     20.38054      68.1116         8     0.930     0.639  58.58   0
       239    243.1051    415.5755 300.1164647 +22.5722932      653.974     72.14596      1.524     3.29      4.88371     20.38054     89.81441        13     1.047     0.902 -76.80   0
       240    305.3008    411.2280 300.1372261 +22.5896855     3850.324     72.16438      1.395     2.63     4.882435     20.38054     422.0827        29     1.155     1.071  49.79   0
       241    252.4367    405.9773 300.1224833 +22.5723345      7617.15     72.25642      1.478     2.69     4.887207     20.38054      948.342        38     1.246     1.156  37.75   0
       242    757.1319    406.4657 300.2795022 +22.7236639     308.3484      72.2932      1.523     3.76     4.934915     20.38054      52.0378         5     1.222     0.458  35.20   0
       243    631.4479    406.0277 300.2404702 +22.6859018     228.2568     72.25642      0.952     2.99     5.381006     20.38054     63.06252         5     0.997     0.398 -24.56   0
       244   1018.4433    401.1025 300.3627596 +22.8003405     1854.002     72.23802      1.434     2.84     4.764609     20.38054     202.7335        21     1.106     0.996  75.56  16
       245    393.2642    400.2797 300.1681560 +22.6129005     4913.157     72.34834      1.361     2.52     5.047042     20.38054     553.4434        31     1.162     1.063  51.36   0
       246    637.5196    397.0618 300.2452728 +22.6851439     18496.06     72.34834      1.334     2.41     5.350627     20.38054     2310.539        44     1.174     1.092  70.99   0
       247    655.1950    397.1020 300.2507678 +22.6904488     886.1825     72.12753      1.886     5.72     5.287258     20.38054     70.67913        20     1.686     1.024 -35.26   0
       248    484.8224    398.5106 300.1972361 +22.6398234     310.0683     72.16438      1.392     4.99     5.325255     20.38054     31.26735         8     1.056     0.666  36.34   0
       249    881.3034    393.5188 300.3224291 +22.7571155     273.9602     72.38507      1.315     3.18     4.889707     20.38054     37.03971         5     0.720     0.467 -19.01   0
       250    834.0348    387.2808 300.3097105 +22.7411727     371.4052      72.1828      1.407     3.71     4.871236     20.38054     37.83544         7     0.812     0.701  57.03   0
       251    257.4611    384.2487 300.1310993 +22.5676019     344.0812      72.2932      1.339     2.72     4.890919     20.38054     44.93762         5     0.705     0.473  72.62   0
       252    971.2388    379.7160 300.3549698 +22.7800640     777.5908     72.20121      1.429     3.56     4.918831     20.38054     83.54263        13     1.059     0.859 -54.74   0
       253    681.4500    377.7080 300.2652457 +22.6927377     179.4829     72.27481      1.431     3.70     5.148477     20.38054     39.90733         6     1.062     0.463 -79.05   0
       254    192.1364    377.0590 300.1131136 +22.5459589     2172.057     72.27481      1.464     2.87      4.89199     20.38054     236.0331        24     1.182     1.025  45.52   0
       255    205.8380    371.7619 300.1190943 +22.5485449     233.8817     72.31158      1.481     4.07     4.886461     20.38054      35.1659         5     0.756     0.701 -36.57   0
       256    578.1588    366.5076 300.2366954 +22.6585867      6715.02     72.23802      1.291     2.30     5.448345     20.38054     976.5293        31     1.144     0.981  67.72   0
       257    991.8037    366.9615 300.3655278 +22.7825502      1221.01     72.27481      1.474     2.86     4.978079     20.38054     133.1552        20     1.106     1.005  63.63   0
       258    293.0398    365.6672 300.1481995 +22.5729288     583.3466     72.20121      1.281     2.78      4.91469     20.38054     81.65664        10     0.946     0.659 -55.02   0
       259    150.6075    359.0207 300.1060533 +22.5283327     671.2766     72.21962      1.725     3.19     4.944362     20.38054     78.89144        10     0.925     0.822 -87.59   0
       260    837.7803    358.6552 300.3201703 +22.7340644     385.6208     72.21962      1.323     2.85     4.889877     20.38054     47.62918         5     0.739     0.439  17.91   0
       261    691.8805    356.9232 300.2752430 +22.6898874     400.7039     72.34834      1.441     4.11     5.077371     20.38054     53.22346        11     1.130     0.820  16.68   0
       262    782.2648    355.4421 300.3039008 +22.7165221      1162.59     72.21962      1.455     3.10     4.844711     20.38054     155.3783        17     1.117     0.917  64.51   0
       263    484.8119    352.7368 300.2120901 +22.6266709     6330.449     72.21962      1.365     2.46     5.375047     20.38054     914.2468        33     1.128     1.068  61.89   0
       264    974.1833    347.5011 300.3663453 +22.7716808      577.457     72.14596      1.293     2.97      5.04882     20.38054     83.08018        12     0.976     0.862  11.36   0
       265    876.8661    347.2661 300.3360582 +22.7424889     1361.824      72.2932      1.336     2.51     4.966211     20.38054     182.2752        17     0.995     0.973 -87.35   0
       266    469.2398    341.5952 300.2108569 +22.6188056     420.8128     72.25642      1.190     3.37     5.348795     20.38054     51.05101         5     0.728     0.461 -17.54   0
       267    552.1190    339.3087 300.2374111 +22.6429727     427.1893     72.36671      1.246     3.11     5.410816     20.38054      51.7739         6     0.872     0.456  38.88   0
       268    849.6680    334.8579 300.3316017 +22.7307807     577.5441     72.25642      1.352     2.46     4.887992     20.38054     92.27795        10     0.819     0.801  13.91   0
       269    372.3781    331.8899 300.1838515 +22.5870007      2543.98     72.16438      1.390     2.42     5.234992     20.38054     322.9413        23     1.112     1.025  65.35   0
       270     90.7548    329.0821 300.0971600 +22.5017975     992.5173     72.20121      1.582     3.80     5.209654     20.38054     93.89342        16     1.069     1.049  58.23   0
       271    341.6744    321.3052 300.1777303 +22.5747617     30040.36     72.38507      1.395     2.50     5.205482     20.38054     3841.899        64     1.265     1.199  72.62   0
       272    876.3748    318.9995 300.3450786 +22.7342141     1439.127      72.1828      1.442     2.68     4.880444     20.38054     178.7355        21     1.092     1.023 -88.48   0
       273    831.5382    316.8973 300.3317759 +22.7201901     426.2344     72.32996      1.372     4.72     4.827654     20.38054     47.42776         8     1.013     0.660  55.45   0
       274     38.0144    309.0385 300.0872700 +22.4802342     5113.865     72.25642      1.641     3.15     5.422462     20.38054     484.3694        40     1.386     1.311  36.43   0
       275    791.7340    308.0325 300.3222396 +22.7057272     618.2557     72.23802      1.467     3.39     4.802267     20.38054     80.30802        14     1.024     0.983   3.45   0
       276    216.1180    307.3535 300.1431932 +22.5331330     475.1556     72.21962      1.518     3.20     4.907868     20.38054      56.2234         9     0.959     0.707 -64.74   0
       277    440.4791    306.3916 300.2133257 +22.6000772     476.2896      72.1828      1.321     3.01     5.311037     20.38054     72.83871        12     1.004     0.830  36.77   0
       278    752.2936    301.1459 300.3121769 +22.6919413     2023.621      72.2932      1.440     2.97     4.846639     20.38054     228.9859        23     1.138     1.079  28.78   0
       279    967.3114    294.0836 300.3815363 +22.7542613     583.6589     72.34834      1.416     3.59     4.955685     20.38054     69.17479        13     1.148     0.768  57.74   0
       280    560.2944    295.7120 300.2541051 +22.6328936     339.1676     72.42178      1.144     1.89     5.245006     20.38054     60.02515         5     0.670     0.445  -9.42   0
       281    413.8510    285.6505 300.2117653 +22.5861424     2137.896     72.27481      1.555     3.43      5.31555     20.38054     252.1093        25     1.450     0.915  64.51   0
       282    625.6802    284.3000 300.2781793 +22.6491931     356.9512     72.36671      1.139     3.46     4.938746     20.38054     60.40541         5     0.755     0.458 -81.56   0
       283    845.2481    279.5839 300.3481598 +22.7135644      252.636     72.27481      1.275     4.35     4.791864     20.38054     41.85525         6     0.924     0.584  65.46   0
       284    853.1948    278.9204 300.3508536 +22.7157518     684.8128     72.16438      1.275     2.30     4.792086     20.38054     98.57691        10     0.858     0.692  -9.35   0
       285    735.2573    276.3940 300.3148970 +22.6797257     426.7346     72.20121      1.127     1.93      4.83998     20.38054     77.59189         6     0.681     0.556  52.30   0
       286    704.3521    275.7752 300.3054637 +22.6702962     284.3503     72.23802      1.319     4.41      4.83998     20.38054     40.70586         6     0.946     0.586  20.26   0
       287    489.6987    264.9111 300.2421105 +22.6029013     1310.998     72.40343      1.438     2.83     5.320586     20.38054     148.4702        20     1.218     0.946  83.76   0
       288    898.7870    260.1456 300.3711673 +22.7239962     1451.951     72.23802      0.623     1.09     4.880047     20.38054     761.2984         6     0.517     0.399  -1.37   0
       289    230.2312    260.4197 300.1628104 +22.5238846     301.5266     72.23802      1.343     3.53      5.17498     20.38054     34.11052         5     0.811     0.444  18.58   0
       290    734.6079    256.9130 300.3210150 +22.6739306      2216.94     72.14596      1.369     2.69      4.83998     20.38054     288.8521        24     1.250     1.001  79.04   0
       291    995.9557    251.5690 300.4042702 +22.7506022     3138.858      72.2932      1.441     2.52     5.271739     20.38054     431.4505        26     1.138     1.085  60.62   0
       292    443.0102    240.7728 300.2354030 +22.5819827     650.8438     72.23802      1.389     2.83     5.371349     20.38054     102.4289        12     0.933     0.881   4.76   0
       293    117.8406    234.8201 300.1361623 +22.4828544     1518.533     72.27481      1.820     3.63     5.591392     20.38054     134.6794        25     1.300     1.228 -19.79   0
       294    148.5790    235.0549 300.1456438 +22.4921334     552.5748     72.25642      1.341     4.13     5.552773     20.38054     75.32542        13     1.176     0.964 -46.64   0
       295    865.4326    232.3450 300.3697815 +22.7060199     213.3168     72.25642      1.321     3.65     4.802511     20.38054     36.46272         5     1.304     0.294 -44.65   0
       296   1011.9612    232.0113 300.4156107 +22.7497641     497.2615     72.21962      1.262     2.80     5.446633     20.38054     83.09471        10     0.920     0.723 -57.16   0
       297    855.2166    228.9789 300.3676869 +22.7019948       299.63     72.21962      1.222     4.21     4.803176     20.38054     40.90197         7     0.734     0.687  72.06   0
       298    201.6096    226.8158 300.1648084 +22.5056581     449.4503     72.16438      1.267     2.87     5.534463     20.38054     67.84033        10     0.913     0.822 -69.28   0
       299     57.3409    224.1866 300.1208036 +22.4616696     163.4767     72.21962      1.164     4.94     5.686758     20.38054     36.49901         8     1.150     0.602 -12.36   0
       300    877.9934    220.7635 300.3774567 +22.7064476     400.9884     72.23802      1.197     2.56     4.906025     20.38054     58.37854         7     0.759     0.613 -11.54   0
       301    806.2411    218.7062 300.3557447 +22.6843845     664.5676     72.25642      1.228     2.79     4.851048     20.38054     91.08887        10     0.897     0.748  11.07   0
       302    396.7038    218.3977 300.2282447 +22.5616849     370.3191     72.14597      1.673     3.07      5.41641     20.38054     65.24649         7     0.966     0.673  -6.39   0
       303    897.0055    212.0124 300.3862264 +22.7096193     297.6238     72.10911      1.092     2.30     5.069883     20.38054      62.6173         7     0.845     0.498 -49.02   0
       304    904.4528    207.6287 300.3899717 +22.7105866     1981.645     72.25642      1.434     2.59     5.131462     20.38054     247.5636        22     1.154     0.993  70.75   0
       305    322.9396    204.6403 300.2097482 +22.5356380     2216.782     72.23802      1.421     2.92      5.43554     20.38054     282.7911        27     1.192     1.067  73.01   0
       306    400.9114    199.9318 300.2355439 +22.5576395     1024.065     72.40343      1.378     2.99     5.377085     20.38054      131.745        16     1.075     0.898 -43.50   0
       307    152.3137    199.8440 300.1582256 +22.4831415     316.2101     72.21962      1.470     2.95      5.66357     20.38054     57.79355         7     1.032     0.739  65.74   0
       308    802.8544    199.1333 300.3610374 +22.6777423     515.9243      72.2932      1.241     2.81     5.006986     20.38054     79.09816        10     0.904     0.728  53.31   0
       309    909.5277    196.2993 300.3952298 +22.7088461     399.3778     72.40343      1.328     3.91     5.238605     20.38054     52.86866         8     0.899     0.770  52.56   0
       310    217.6450    191.8811 300.1811267 +22.5004294     813.1161     72.21962      1.441     2.95     5.507213     20.38054     106.9645        12     1.020     0.766  40.60   0
       311    335.9842    191.2851 300.2181392 +22.5357086     261.5735     72.20121      1.428     5.00     5.432749     20.38054     37.88334         8     1.059     0.669  34.64   0
       312    820.5403    188.6495 300.3699533 +22.6800198     622.9758      72.2932      1.350     2.43     5.090642     20.38054     97.09078        12     0.918     0.811 -34.60   0
       313    755.5188    188.7600 300.3496421 +22.6605934     1593.037     72.20121      1.369     2.66     5.050018     20.38054     210.2505        18     1.020     0.969 -74.32   0
       314    239.0132    185.3279 300.1898989 +22.5049489     582.3193     72.25642      1.252     3.36       5.4676     20.38054      67.1803         8     0.796     0.673  28.19   0
       315    759.8146    180.4476 300.3536775 +22.6594887     720.2961     72.25642      1.404     2.51     5.109576     20.38054     92.63446        12     0.953     0.779  56.52   0
       316    528.9584    181.4210 300.2814197 +22.5906641     432.1077     72.27481      1.288     4.36     5.140217     20.38054     47.84946         6     0.815     0.662 -17.27   0
       317    680.2196    179.5928 300.3291422 +22.6354207     1297.987     72.20121      1.365     2.40     5.084377     20.38054     210.1553        19     1.128     0.941  66.95   0
       318    501.4552    176.4831 300.2744551 +22.5810100     478.3519      72.2932      1.921     3.55     5.235189     20.38054     46.03233         8     1.031     0.498  -2.71   0
       319    875.5558    171.1723 300.3927814 +22.6914544     1348.721     72.25642      1.251     2.43     5.290637     20.38054     195.6083        17     0.996     0.870  88.00   0
       320    606.4414    171.5447 300.3087608 +22.6110224     1065.601     72.20121      1.305     2.22     5.216133     20.38054     145.9486        12     0.838     0.774 -74.90   0
       321    887.6368    170.2903 300.3968361 +22.6948152     894.7756     72.21962      1.479     3.06     5.337484     20.38054     103.0639        16     1.130     0.874  89.72   0
       322    767.0449    171.9648 300.3586830 +22.6592131     1542.001      72.2932      0.428     2.10      5.16953     20.38054     1265.809         5     0.406     0.334 -18.70   0
       323     72.6558    170.2747 300.1430485 +22.4507804      191.485     72.27481      1.309     4.50     5.915027     20.38054     26.62185         6     1.064     0.542 -58.57   0
       324    933.4884    169.3341 300.4114515 +22.7082575     337.7265     72.34834      1.624     4.18      5.48171     20.38054     43.08593         7     0.974     0.537  34.21   0
       325    767.1943    167.3187 300.3602363 +22.6579217     1025.031     72.16438      0.674     0.97     5.202209     20.38054     517.0735         5     0.470     0.448  63.47   0
       326   1004.4063    160.5835 300.4364209 +22.7269536     1127.497     72.16438      1.393     2.51     5.594797     20.38054     174.4792        17     1.070     0.936  77.48   0
       327     28.2116    157.2236 300.1334661 +22.4337140     524.0166     72.23802      1.482     3.47     5.977989     20.38054     52.38942         7     0.793     0.756  53.39   0
       328    238.1887    153.5302 300.1999540 +22.4955682     678.3138     72.25642      1.399     3.96     5.454082     20.38054     90.83365        14     1.163     0.814  65.12   0
       329    100.2190    148.1475 300.1587923 +22.4526860     2119.679     72.21962      1.605     3.39     5.966818     20.38054     220.4868        27     1.287     1.180  37.06   0
       330    923.3356    145.5381 300.4160008 +22.6983745     633.3576     72.27481      1.295     2.53     5.481792     20.38054     98.60336        13     0.956     0.825   5.49   0
       331     49.7519    145.2451 300.1440451 +22.4367298     474.7544     72.27481      1.425     2.99     6.033249     20.38054     57.51669         8     0.931     0.576  18.65   0
       332    257.5992    141.4754 300.2099014 +22.4979198     5822.582     72.12753      1.535     2.75     5.422965     20.38054     726.9539        38     1.288     1.180  58.38   0
       333    239.2868    142.7262 300.2037989 +22.4927936      406.988     72.38507      1.601     2.78     5.442114     20.38054     56.99738         8     0.877     0.757 -67.85   0
       334     41.6936    135.8014 300.1446024 +22.4316033     1405.471     72.14597      1.778     3.91     6.089422     20.38054     135.6442        19     1.238     1.115  59.20   0
       335      3.4112    137.3726 300.1321952 +22.4205820     247.3311     66.56922      1.068     3.45     6.135794     20.38054     30.78421         5     1.023     0.337 -21.05  16
       336    241.2014    132.6321 300.2076674 +22.4904675     512.2382     72.20121      1.212     2.50     5.430794     20.38054     74.30962         7     0.749     0.633 -66.11   0
       337    901.7991    123.3305 300.4164828 +22.6855430     3554.857      72.1828      1.419     2.49     5.412728     20.38054     480.0357        30     1.194     1.092 -85.93   0
       338   1005.5551    122.0995 300.4492592 +22.7162237     2774.401     72.25642      1.505     2.74     5.482215     20.38054     316.6928        28     1.224     1.136 -80.82   0
       339    451.0003    118.4995 300.2775454 +22.5492379     639.8154     72.07223      1.421     3.07     5.314394     20.38054     82.17378        13     1.029     0.858 -28.12   0
       340    204.3216    119.0989 300.2005833 +22.4755323     245.3902     72.36671      1.161     2.50     5.461109     20.38054     50.83051         7     0.797     0.595 -63.60   0
       341    565.5096    116.4915 300.3138605 +22.5829427     383.4808     72.40343      1.104     3.71     5.221226     20.38054     47.85192         6     0.931     0.424 -18.63   0
       342    375.3672    110.0565 300.2567366 +22.5241642     625.9462     72.25642      1.521     3.47     5.386719     20.38054     70.73257        11     1.124     0.725 -74.47   0
       343    502.5455    105.7257 300.2977385 +22.5609988     1775.362     72.25642      1.396     2.65     5.264232     20.38054     232.9828        20     1.114     0.985  55.86   0
       344    141.3706    107.0200 300.1849218 +22.4532041     651.1788     72.23802      1.595     4.81     5.684829     20.38054     64.01936        11     1.060     0.870 -79.76   0
       345    564.2171    105.3496 300.3170702 +22.5793526     393.4441     72.23802      1.383     3.93     5.245682     20.38054      50.3331         7     1.010     0.539  45.10   0
       346    430.6335    106.0125 300.2752526 +22.5395508     543.7837     72.21962      1.397     3.05     5.356297     20.38054     61.45485         9     0.814     0.773  14.08   0
       347    245.9322    101.3675 300.2192756 +22.4829028     367.2442     72.23802      1.230     2.92     5.400018     20.38054     65.38448         8     0.995     0.519 -25.02   0
       348    791.1878     95.3955 300.3910398 +22.6444154     288.7167     72.10911      1.087     2.04     5.508572     20.38054     51.83937         5     0.675     0.465  18.10   0
       349    937.3203     89.5527 300.4385175 +22.6864500     369.6358     72.25642      1.571     4.72     5.391242     20.38054     42.42835         7     0.934     0.676 -57.96   0
       350    783.3618     86.3464 300.3915332 +22.6394710     427.8569     72.23802      1.441     5.61     5.555884     20.38054     53.41913         8     1.394     0.637 -33.54   0
       351    687.2814     87.2484 300.3612868 +22.6109808      341.679     72.27481      1.588     4.30     5.335414     20.38054     35.67104         5     0.773     0.681 -22.83   0
       352    276.6095     85.3795 300.2340029 +22.4874976     6074.309     72.21962      1.516     2.73     5.387165     20.38054     750.7215        35     1.247     1.149  67.26   0
       353    128.1486     85.0946 300.1879183 +22.4429454     734.0357     72.31158      1.785     4.84     5.813762     20.38054     74.55367        12     1.308     0.789  38.89   0
       354    248.5604     79.3820 300.2272205 +22.4773736     394.4432     72.25642      1.194     2.83     5.377367     20.38054     49.47066         5     0.704     0.457 -68.72   0
       355    292.3914     76.8405 300.2416815 +22.4897707     352.2094     72.23802      1.166     3.86     5.385464     20.38054     45.27566         6     1.038     0.411  74.01   0
       356     38.5758     76.3103 300.1629197 +22.4135857      369.558      72.1828      1.026     2.98     6.319736     20.38054     69.72464         6     0.991     0.404 -35.78   0
       357    522.6976     70.8721 300.3153142 +22.5570122     6391.427     72.36671      1.413     2.62     5.266635     20.38054      826.913        35     1.264     1.050  83.42   0
       358    408.2776     70.9772 300.2796504 +22.5227876     535.2126     72.20121      1.376     3.30      5.41002     20.38054      76.9214        11     1.092     0.666 -16.40   0
       359    716.9111     62.2844 300.3786157 +22.6126675     250.2647     72.36671      1.156     3.70     5.558218     20.38054     44.14645         7     0.896     0.663  -4.31   0
       360    775.2382     60.8542 300.3972642 +22.6297078      840.923     72.23802      1.534     2.61     5.739352     20.38054     98.52746        11     0.915     0.741 -36.63   0
       361    867.5168     59.4208 300.4265083 +22.6569011     430.2297     72.20121      1.211     3.30     5.287452     20.38054     71.89716        11     1.062     0.711  80.39   0
       362    215.7020     54.7235 300.2249919 +22.4604475      506.703     72.38507      1.347     2.69     5.347952     20.38054     70.04372         8     0.982     0.574 -12.91   0
       363    651.0992     50.9306 300.3617831 +22.5897088     6188.266     72.32996      1.389     2.87     5.273023     20.38054     777.4369        37     1.254     1.106  80.55   0
       364    573.8994     53.2099 300.3369893 +22.5672601     406.5498     72.14596      1.407     4.53     5.263598     20.38054     49.63444         8     1.046     0.678  36.09   0
       365    426.0669     49.8385 300.2920408 +22.5220379     1327.274     72.20121      1.401     2.77     5.400477     20.38054     191.4832        20     1.137     0.967 -60.37   0
       366    692.3571     48.3300 300.3754851 +22.6013070     858.9725     72.20121      1.298     2.60     5.436872     20.38054     111.4343        14     0.961     0.870 -33.71   0
       367    762.0146     46.0486 300.3979403 +22.6214926     392.2961     72.27481      1.402     4.16     5.853285     20.38054     39.56017         7     0.912     0.542 -45.06   0
       368    708.0577     44.4309 300.3816430 +22.6048835     566.6685     72.25642      1.304     3.63      5.59274     20.38054     77.29732         9     0.964     0.683  41.86   0
       369    174.9992     42.6897 300.2162325 +22.4447989      606.127     72.12753      1.378     2.76     5.367084     20.38054     76.95646        12     0.936     0.811 -55.04   0
       370     22.1989     43.2450 300.1685470 +22.3991830     221.6165     72.23802      1.196     4.23     6.340112     20.38054     37.34536         7     0.932     0.661  12.21   0
       371   1016.9626     42.1071 300.4787535 +22.6966144     269.9055     72.21962      1.086     2.32     5.407731     20.38054      59.6969         6     0.870     0.428  34.45   0
       372    978.1730     42.3737 300.4665603 +22.6850916     547.7769     72.20121      1.306     3.29      5.34095     20.38054     56.76945         8     0.932     0.620   1.83   0
       373    746.7823     40.1879 300.3950907 +22.6152495     440.9227     72.20121      1.210     2.39     5.900689     20.38054     76.84996         8     0.775     0.661  24.77   0
       374    695.4106     35.8280 300.3804892 +22.5986249     2850.671     72.23802      1.430     2.84     5.496447     20.38054     353.3719        30     1.212     1.093  75.53   0
       375    336.5805     36.4615 300.2685210 +22.4914000     524.3705     72.20121      1.670     5.13     5.413478     20.38054     56.92107        13     1.198     0.844 -72.53   0
       376    710.6365     34.7022 300.3856003 +22.6028568     962.0313     72.23802      1.763     5.42     5.669701     20.38054     83.40691        16     1.487     0.908  55.38   0
       377    781.7206     27.4201 300.4101228 +22.6220293     1547.306     72.23802      1.460     2.60     6.012985     20.38054     213.2413        23     1.209     1.067 -64.56   0
       378    761.6198   1018.1415 300.0820737 +22.9006919     550.3297     72.21962      2.230     6.85     3.323043     20.38054     32.33671        13     1.208     1.090  35.84  16
       379    429.2214     17.9922 300.3033447 +22.5138281     965.4678     72.21962      1.438     3.13     5.407085     20.38054     102.0032        13     0.997     0.848  48.10   0
       380    324.3518   1016.5510 299.9464064 +22.7690880     1179.149     72.27481      1.940     5.15     11.48863     20.38054     79.16208        23     1.392     1.346 -50.16  16
       381    161.3358   1010.7480 299.8975915 +22.7185027     1180.624     72.27481      2.790    13.12     94.91274     20.38054     48.09501        32     2.701     1.773 -24.11  18
       382    205.8837   1007.6722 299.9124447 +22.7309914     1791.333     72.34834      4.149    14.53     84.08067     20.38054     56.65108        38     3.496     1.679 -61.85  19
       383    202.1568   1002.2646 299.9130454 +22.7283227     2575.619     72.21962      4.745    13.39     79.93737     20.38054     62.47274        46     2.418     2.064 -88.61   3
       384    201.4736    996.8299 299.9146014 +22.7265596     1913.989     72.25642      5.544    21.28     76.04993     20.38054     68.54063        69     4.735     2.655 -41.13  19
       385     98.2411     20.0843 300.1996907 +22.4153124     472.1874     72.20121      1.427     2.84     6.363801     20.38054     64.87119         8     0.827     0.640 -38.99   0
       386    177.7595   1011.5119 299.9024496 +22.7236511     414.3172     72.21962      1.725     6.01      92.5582     20.38054     39.13167         9     1.101     0.924   7.17   0
       387    212.5031   1003.1046 299.9159896 +22.7316685     515.0976     72.42178      3.336     5.32     78.69835     20.38054     32.04767         5     1.435     0.557  48.98   1
