#   1 NUMBER                 Running object number                                     
#   2 X_IMAGE                Object position along x                                    [pixel]
#   3 Y_IMAGE                Object position along y                                    [pixel]
#   4 ALPHA_J2000            Right ascension of barycenter (J2000)                      [deg]
#   5 DELTA_J2000            Declination of barycenter (J2000)                          [deg]
#   6 FLUX_APER              Flux vector within fixed circular aperture(s)              [count]
#   7 FLUXERR_APER           RMS error vector for aperture flux(es)                     [count]
#   8 FLUX_RADIUS            Fraction-of-light radii                                    [pixel]
#   9 FWHM_IMAGE             FWHM assuming a gaussian core                              [pixel]
#  10 BACKGROUND             Background at centroid position                            [count]
#  11 THRESHOLD              Detection threshold above background                       [count]
#  12 FLUX_MAX               Peak flux above background                                 [count]
#  13 ISOAREA_IMAGE          Isophotal area above Analysis threshold                    [pixel**2]
#  14 A_IMAGE                Profile RMS along major axis                               [pixel]
#  15 B_IMAGE                Profile RMS along minor axis                               [pixel]
#  16 THETA_IMAGE            Position angle (CCW/x)                                     [deg]
#  17 FLAGS                  Extraction flags                                          
         1    584.9672     19.4854 300.3948546 +22.5626824     1259.129     72.57154      1.340     2.39     4.716134     20.48507      196.389        19     1.114     0.874  66.14   0
         2    925.3931     14.9497 300.5024033 +22.6632784     240.0177     72.60854      1.304     4.06     4.537321     20.48507     35.11884         6     1.089     0.433  76.95   0
         3    405.2539     13.4823 300.3408643 +22.5071351     2271.971     72.64552      1.405     2.42     4.391693     20.48507     273.1824        20     1.103     0.923  56.43   0
         4    896.1295     10.9272 300.4945826 +22.6533646     254.8315     72.68248      1.214     4.02     4.475144     20.48507     48.74818         8     1.051     0.703  77.97   0
         5     52.4061     11.3644 300.2318525 +22.4007982     1331.763     72.62703      1.458     2.66     4.270282     20.48507     133.8736        19     1.124     0.944  32.66   0
         6    536.2151      7.7461 300.3834816 +22.5447093     466.8436     72.62703      1.285     3.09     4.454603     20.48507     64.69317         8     0.916     0.603  72.01   0
         7    674.9889      4.3985 300.4277814 +22.5852980     298.2846     70.27784      1.439     4.09     5.060393     20.48507     38.89311         7     0.868     0.709  65.32  16
         8    194.6356      5.2055 300.2780470 +22.4416560     268.9418     72.36771      1.350     4.65      4.29225     20.48507     35.47338         6     1.013     0.605  21.79  16
         9    880.0998      2.1096 300.4924433 +22.6460313      345.454     60.92304      1.273     4.81     4.455117     20.48507     53.09526         8     0.966     0.679 -22.06  24
        10     38.1211    980.7034 299.9125723 +22.6745325     2177.664     72.71942      6.612    21.98     32.29093     20.48507     57.16722       126     5.317     2.524 -19.40   3
        11    611.3339   1023.4910 300.0768919 +22.8588815     2844.747     57.61516      1.291     3.49     2.845329     20.48507     438.8622        18     1.334     0.705   1.96  24
        12    177.3614   1023.4006 299.9419317 +22.7285853     820.0264     58.03317      4.547     5.98     15.51717     20.48507     50.09472        11     1.656     0.607  -6.80  27
        13    183.3904   1023.5978 299.9437411 +22.7304523     683.8321     56.74625      4.579     6.41     14.32641     20.48507     48.47261        13     1.721     0.670  11.62  27
        14    186.5239   1019.0051 299.9462099 +22.7300772     1360.935     72.51601      5.571    10.60     12.97907     20.48507     38.94572        27     2.605     1.202 -86.97  19
        15    191.9265   1021.6501 299.9470279 +22.7324576     1833.787     66.64925      6.211    13.28      12.1965     20.48507      60.6205        48     2.686     1.826  45.91  27
        16    123.1002   1019.1531 299.9264543 +22.7110722     1723.134     72.62703      6.736    15.51     25.39914     20.48507     46.77403        47     2.699     2.477 -71.28  25
        17    102.1420   1023.7679 299.9184410 +22.7060996     969.6461     55.98388      3.350     3.58     30.56911     20.48507      51.8768         5     0.952     0.388   6.78  27
        18     80.5488   1020.5250 299.9127889 +22.6986848     1682.561     70.63995     16.543    21.66     36.73141     20.48507     52.51173        92     5.224     2.495  10.92  27
        19     51.0097    998.0820 299.9109190 +22.6833826     1378.468     72.55304      6.669     7.75     37.40886     20.48507     74.07076        29     1.836     1.376 -36.47   3
        20     61.2351   1012.4260 299.9094261 +22.6905633     1805.718     72.62703     13.472    20.93     40.46651     20.48507     53.04292        84     4.088     2.976  59.72  19
        21     70.9065   1009.0286 299.9135360 +22.6924950     2101.269     72.53452     13.660    17.19     35.97793     20.48507     57.69289        79     3.341     2.467  21.98  19
        22     39.2159   1014.1098 299.9020393 +22.6844316     3184.369     72.53452      9.118    37.58     48.88677     20.48507     78.09169       403     6.934     5.651  64.00  27
        23     76.4049    989.4738 299.9216086 +22.6885440     511.3875     72.55304      1.805     3.50     27.28525     20.48507     34.14685         5     1.143     0.310 -69.75   0
        24    890.7350    988.6528 300.1752796 +22.9326932      2027.21     72.64552      1.724     3.94     3.077209     20.48507     141.5785        29     1.349     1.236  44.64   0
        25    540.9813    986.0244 300.0671871 +22.8270257     395.9183     72.62703      1.579     3.80     2.988779     20.48507     48.80555         8     0.867     0.739  60.67   0
        26     37.3404    992.2527 299.9085709 +22.6776067     2402.917       72.664      7.711    25.87     38.19024     20.48507     68.73627       171     5.985     3.105 -11.62  19
        27     56.3733   1022.0621 299.9047795 +22.6918635     975.1443     64.81059      7.438     8.51     46.52592     20.48507     43.12453        17     2.350     0.861 -30.46  25
        28    679.4667    977.5656 300.1130586 +22.8661484     777.4078     72.60854      1.816     4.95     2.964411     20.48507     60.62815        13     1.227     0.819  60.35   0
        29    655.3639   1000.2980 300.0981525 +22.8654391     290.6525     72.60854      1.682     4.21     2.874885     20.48507     30.22975         6     1.129     0.448  -5.13   0
        30    377.0560    997.0668 300.0125879 +22.7809943     483.6688       72.664      1.478     3.82     3.051256     20.48507     56.94036        10     1.078     0.680 -68.59   0
        31   1006.2864    976.4191 300.2152929 +22.9638257     430.4773     72.55304      1.609     3.61     3.189495     20.48507     52.67695         8     1.115     0.724  41.66   0
        32    491.5602    972.8531 300.0560930 +22.8084180     411.9127     72.59004      1.940     5.63     3.027095     20.48507     35.72276         7     1.229     0.726 -71.18   0
        33    714.1140    971.8857 300.1256990 +22.8749118      1120.74     72.73788      1.617     3.70     2.937649     20.48507     94.92429        18     1.206     1.009  67.26   0
        34     81.2167    997.8356 299.9203817 +22.6923850     754.2872     72.60854      6.212     6.12     29.08019     20.48507     29.40714         6     1.591     0.661 -35.12   1
        35    736.5024    965.5127 300.1347477 +22.8797986      11389.8      72.7748      1.634     3.20     2.954936     20.48507     974.3501        48     1.338     1.267 -76.87   0
        36    782.0276    965.2510 300.1490167 +22.8933776     526.2788     72.62703      1.495     3.08     3.044163     20.48507     49.65184        10     0.875     0.760  78.15   0
        37    927.5837    964.6788 300.1945715 +22.9368604     329.3772     72.60854      1.520     5.82     3.282821     20.48507     51.13907        10     1.258     0.757   3.43   0
        38     48.8176    957.5656 299.9234243 +22.6711162     251.1228     72.60854      1.329     3.85     19.27888     20.48507     50.05329         8     1.092     0.733  29.53   0
        39    442.0157    953.6587 300.0469239 +22.7880452     532.9532     72.57154      1.440     4.68     3.144948     20.48507      56.1526         8     0.863     0.719  65.48   0
        40    788.3248    952.9932 300.1549685 +22.8917484     330.6876     72.53452      1.429     4.46     3.140351     20.48507     40.22491         6     0.894     0.632 -47.95   0
        41    745.0527    947.5323 300.1432635 +22.8772036     1509.634     72.62703      1.621     3.33     3.135868     20.48507     128.6502        20     1.122     1.059  78.87   0
        42    927.8811    946.7619 300.2004958 +22.9318063     503.9085     72.57154      1.726     5.75     3.430358     20.48507     45.20176        10     1.091     0.853  67.74   0
        43    596.8632    944.3361 300.0981515 +22.8318348     504.9218     72.64552      2.377     6.55      3.08766     20.48507     46.33862        10     1.530     1.012  89.31   0
        44    783.1550    941.3027 300.1571625 +22.8868431     845.6906     72.62703      1.793     4.41     3.222978     20.48507     71.64734        12     1.047     0.880 -73.98   0
        45    831.3347    932.2927 300.1751089 +22.8987051     525.5535     72.71942      1.460     4.39     3.306232     20.48507     61.53444        13     1.056     0.959  22.82   0
        46    682.9524    931.1852 300.1292394 +22.8538869      736.244     72.64552      1.552     4.42     3.241697     20.48507     65.44979        16     1.199     0.976 -83.38   0
        47    286.4815    931.6769 300.0057030 +22.7350591     193.0022     72.71942      1.294     3.43     3.870459     20.48507     38.46984         5     0.755     0.450 -69.00   0
        48    395.5599    927.8345 300.0408756 +22.7666979     4080.786     72.64552      1.547     2.83     3.494799     20.48507     437.3627        33     1.253     1.155 -59.30   0
        49    693.8947    928.4948 300.1335231 +22.8563970     632.6887      72.7748      1.627     5.22     3.267296     20.48507     52.37105        11     1.143     0.810 -22.39   0
        50     57.4963    916.4719 299.9394916 +22.6619481     429.0421     72.71942      1.496     3.81     5.467045     20.48507     35.02114         6     1.019     0.409  72.07   0
        51    438.8353    915.7844 300.0582595 +22.7762294     350.5045     72.60854      1.395     3.99     3.382806     20.48507     50.87381         8     0.934     0.643 -79.91   0
        52    174.2086    916.5264 299.9757342 +22.6970100      366.206     72.59004      1.964     3.20     4.482097     20.48507     37.72228         5     0.737     0.465 -18.48   0
        53    120.8232    913.8713 299.9600099 +22.6802196     867.7342     72.64552      1.711     5.22     5.368621     20.48507     75.84673        18     1.389     0.983 -22.36   0
        54     28.6156    912.4594 299.9318274 +22.6521248     545.1697     72.57154      2.440     4.29     5.066441     20.48507     39.62019         6     1.511     0.347 -34.89   0
        55     98.0157    910.7501 299.9539399 +22.6724764      1645.83     72.64552      1.726     3.38     5.716543     20.48507     143.5225        24     1.217     1.162  20.76   0
        56    969.7081    899.4521 300.2289349 +22.9307626     1950.092       72.664      1.616     3.55     3.793597     20.48507     152.7568        26     1.201     1.170  30.49   0
        57    923.8581    897.9043 300.2151416 +22.9165739     1964.723     72.68248      1.579     3.25     3.654119     20.48507     170.2344        24     1.183     1.133  76.93   0
        58    629.5159    898.3234 300.1232917 +22.8284295     380.8506     72.71942      1.696     4.35     3.225499     20.48507     41.80128         7     0.910     0.613 -18.27   0
        59    400.3019    897.4253 300.0522456 +22.7594008      217.808     72.57154      1.088     2.67     3.754967     20.48507     46.12399         5     0.790     0.647 -51.77   0
        60    707.2922    892.0683 300.1495496 +22.8499626     758.7965     72.73788      1.578     4.05     3.356371     20.48507     71.35229        16     1.205     0.962   2.74   0
        61    130.1327    892.3727 299.9698971 +22.6768534     388.7541     72.59004      1.537     4.19     4.719205     20.48507     45.60126         7     0.774     0.647   5.19   0
        62    575.5751    885.8863 300.1105439 +22.8086805       4696.9     72.55304      1.439     2.62     3.247599     20.48507     525.3802        32     1.169     1.108 -50.26   0
        63     65.2965    886.8177 299.9515624 +22.6557928      461.821     72.51601      1.904     2.78     4.714607     20.48507      48.9994         5     0.833     0.622 -37.19   0
        64    377.7400    882.9202 300.0499469 +22.7484703     649.8294       72.664      1.501     4.69      3.93468     20.48507     66.38905        12     1.041     0.878  85.79   0
        65    125.8374    880.0216 299.9725808 +22.6720238     1399.501     72.62703      1.659     3.50     4.491579     20.48507     122.9163        21     1.142     1.095  89.85   0
        66    595.9591    878.3085 300.1193555 +22.8126212     807.3668     72.60854      1.546     3.73     3.254829     20.48507     76.77383        13     1.039     0.937 -50.98   0
        67    145.1278    876.9243 299.9795822 +22.6769279     456.2898     72.68248      1.508     4.41     4.291785     20.48507     48.06918        10     1.087     0.700  20.76   0
        68    448.8740    871.7627 300.0757061 +22.7666161     1816.178     72.55304      0.666     1.24     3.697273     20.48507     961.7209         5     0.618     0.369  25.33   0
        69    511.0761    870.2932 300.0955405 +22.7848574     342.9069     72.75635      1.858     4.95     3.376249     20.48507     28.08458         6     1.148     0.605 -31.75   2
        70    727.6764    869.3640 300.1632867 +22.8495599     226.8693     72.57154      1.345     4.88      3.46404     20.48507     27.80036         5     1.125     0.600 -34.51   0
        71    751.5029    865.5522 300.1719498 +22.8556109     4107.362     72.64552      1.480     2.68     3.556458     20.48507     424.5745        31     1.191     1.118  21.86   0
        72    968.4023    865.7704 300.2394872 +22.9206999     1192.816     72.57154      1.695     3.92     3.821519     20.48507     95.31136        20     1.222     1.066 -44.89   0
        73   1006.4600    866.1313 300.2512392 +22.9322102     403.1464     72.62703      1.538     4.39     3.891543     20.48507      38.1542         7     0.906     0.605  -7.49   0
        74    160.3276    859.4806 299.9899799 +22.6764912     514.4633     72.73788      1.591     3.77     4.037312     20.48507     57.39494        13     1.068     0.884 -23.43   0
        75    468.6313    858.2714 300.0862428 +22.7686744     636.3104     72.60854      1.508     2.91     3.617379     20.48507     94.16223        10     1.059     0.735  13.60   0
        76    114.8868    856.3262 299.9768869 +22.6619444      911.609     72.75635      1.556     3.58     4.140109     20.48507     88.22581        18     1.098     1.068  30.16   0
        77    264.6037    848.3416 300.0260144 +22.7045998     52980.06     72.57154      1.561     2.81      3.92665     20.48507     5441.203       107     1.454     1.427 -50.51   0
        78    530.1783    851.5519 300.1075830 +22.7852118     621.0826     72.62703      1.397     3.52      3.45548     20.48507     75.32411        12     0.971     0.913  82.61   0
        79    522.4443    847.2137 300.1065870 +22.7816470     1655.208     72.62703      1.490     2.65     3.511935     20.48507     179.7394        22     1.130     1.074  -4.60   0
        80    935.3395    846.3552 300.2354940 +22.9052147     862.0162     72.62703      1.583     3.40      3.83819     20.48507     80.64695        15     1.124     0.845 -82.42   0
        81    193.0509    846.4069 300.0044021 +22.6825671      510.181     72.60854      1.526     4.02      3.94907     20.48507     61.34313         9     1.046     0.843 -21.41   0
        82    551.4727    843.2044 300.1169268 +22.7892049     817.3472     72.55304      1.236     2.45     3.468167     20.48507     111.4918        13     0.896     0.815  -1.35   0
        83    562.3193    841.4163 300.1208849 +22.7919455      681.614     72.62703      1.384     3.24     3.454474     20.48507     71.21732        14     1.047     0.919 -80.33   0
        84    881.6356    838.6898 300.2212444 +22.8869158     391.4014     72.59004      1.553     5.51     3.806233     20.48507     43.21815         9     1.083     0.790  37.31   0
        85    667.6072    838.0664 300.1547582 +22.8225636     436.1482     72.62703      1.401     4.54     3.547045     20.48507     48.77323        10     1.125     0.675 -41.59   0
        86    462.3266    834.5229 300.0920065 +22.7599707      273.766     72.71942      1.471     3.97     3.828059     20.48507     22.96861         6     0.961     0.469 -89.39   0
        87    705.2159    828.1127 300.1697101 +22.8309853     827.6883     72.55304      1.409     3.80     3.702813     20.48507     98.02742        15     1.226     0.857 -52.15   0
        88    314.2974    825.5676 300.0488733 +22.7129839     30965.75     72.59004      1.494     2.71     4.030394     20.48507     3137.012        82     1.362     1.342 -81.62   0
        89    328.5608    826.0178 300.0531624 +22.7173935     1946.017     72.62703      1.456     2.73     4.052099     20.48507     228.7201        21     1.123     0.975 -81.64   0
        90    837.4427    821.2308 300.2131487 +22.8686551     2678.937     72.64552      1.474     2.63     3.871697     20.48507     276.9407        27     1.168     1.073  46.52   0
        91    867.8676    820.2133 300.2229631 +22.8774837     241.8678     72.62703      1.478     4.54     3.827359     20.48507     30.93395         5     0.836     0.702  41.19   0
        92    325.6728    819.8315 300.0542764 +22.7147527     579.5861     72.60854      1.524     2.97     4.055963     20.48507     62.61182        11     0.970     0.754  65.61   0
        93    595.2779    817.2285 300.1390137 +22.7948911     926.5823     72.60854      1.379     2.86     3.462561     20.48507     107.3362        15     1.020     0.871 -82.56   0
        94    196.7186    817.2715 300.0150188 +22.6753153     723.5751     72.73788      1.249     3.48     3.905722     20.48507     90.11581        11     0.950     0.843  22.43   0
        95    431.8080    817.2912 300.0881160 +22.7458713       301.83     72.51601      1.050     3.97     4.044808     20.48507      58.2354         7     1.022     0.510  26.20   0
        96      1.9375    813.2776 299.9558058 +22.6156922     254.0494     59.92296      1.242     3.34     3.804883     20.48507     38.89467         7     0.722     0.680 -57.59  24
        97    442.7056    812.0710 300.0932044 +22.7476435     679.0541     72.71942      1.254     2.58     4.029325     20.48507     99.33263        11     0.884     0.798 -27.71   0
        98    591.0250    809.7123 300.1401344 +22.7914588     327.5626     72.55304      1.476     3.92     3.505569     20.48507     41.40824         6     0.945     0.465 -38.30   0
        99    843.4547    808.9491 300.2190176 +22.8669313     539.2766     72.64552      1.377     3.37     3.891902     20.48507     57.11156         8     0.800     0.700  -3.79   0
       100    388.1556    807.3076 300.0777833 +22.7299102     467.1283     72.60854      1.551     2.42     4.102197     20.48507     58.58916         7     0.935     0.473 -66.83   0
       101     28.9580    806.4935 299.9664035 +22.6218614     515.5942     72.62703      2.079     7.68     3.842104     20.48507     41.60556        13     1.725     0.957  29.45   0
       102    596.7031    806.2738 300.1430206 +22.7921751     266.1987     72.73788      1.047     2.93     3.493523     20.48507      42.9697         7     0.805     0.617  65.44   0
       103    821.2919    803.6285 300.2138408 +22.8587598     401.6905     72.57154      1.198     3.54     3.959279     20.48507     52.29786         7     0.902     0.573 -56.36   0
       104    194.4701    801.9059 300.0193174 +22.6702350     522.8405     72.73788      1.338     4.80     3.889224     20.48507     60.04751         9     1.023     0.639  36.51   0
       105    524.6439    790.5611 300.1256991 +22.7660530     276.7437     72.70095      1.478     3.47     3.861591     20.48507     34.36348         5     1.098     0.317 -21.29   0
       106    487.4117    790.0430 300.1142800 +22.7547359     629.3206     72.60854      1.264     2.47     3.998144     20.48507     82.50308         9     0.827     0.676 -33.51   0
       107    903.7909    786.5303 300.2451180 +22.8785798     4428.269     72.59004      1.451     2.64       3.9605     20.48507     477.7317        30     1.173     1.124  70.84   0
       108    509.2828    787.6713 300.1218580 +22.7606162     1262.597     72.73788      1.304     2.64     3.920948     20.48507     171.2193        16     0.970     0.902  24.41   0
       109    429.1039    787.7360 300.0968873 +22.7365819     215.3015     72.70095      1.051     3.70     4.081812     20.48507     44.75733         6     0.898     0.460 -36.83   0
       110    590.7628    782.2394 300.1489882 +22.7834965     319.7911     72.68248      1.289     3.86     3.650199     20.48507     37.65827         6     0.776     0.550 -43.46   0
       111    892.1041    777.8441 300.2442997 +22.8725825     169.8025     72.62703      1.411     2.69      3.95629     20.48507     198.1611        22     1.126     1.032 -47.89   0
       112    660.3602    777.5258 300.1721930 +22.8030153     216.6311     72.59004      1.823     4.69     3.854788     20.48507     24.31933         6     1.050     0.593  59.85   0
       113    255.2814    772.0366 300.0479338 +22.6799219     876.8905     72.57154      1.449     2.97     3.919849     20.48507     103.8271        13     1.010     0.865 -10.76   0
       114    718.3950    769.2450 300.1929626 +22.8180399     2517.723     72.60854      1.398     2.39     3.925354     20.48507     274.4475        23     1.092     0.980  55.28   2
       115    923.4691    768.2148 300.2572102 +22.8792177     1596.839     72.62703      1.421     2.81     3.996695     20.48507     178.5558        21     1.078     1.026 -59.42   0
       116    937.1882    758.3933 300.2646821 +22.8805086     278.4879     72.47897      1.231     3.44     4.004268     20.48507     33.74286         5     1.164     0.294 -54.60   0
       117    103.8022    755.9807 300.0060780 +22.6298523     612.4897     72.53452      1.623     4.44     4.157784     20.48507     56.69164        13     1.167     0.982  47.56   0
       118    800.9816    755.1182 300.2232885 +22.8387434     636.2108     72.59004      1.557     2.80     4.244346     20.48507      77.7058         9     0.909     0.659  32.78   0
       119    837.0050    746.1462 300.2374330 +22.8469654     146319.9     72.59004      1.398     2.41     4.136005     20.48507     18478.31       175     1.473     1.379 -89.58   0
       120    599.2077    750.0794 300.1620760 +22.7767998     452.6611     72.53452      1.373     2.38     3.826603     20.48507     64.86295         6     0.841     0.441 -56.32   0
       121    984.0427    747.9163 300.2827008 +22.8915401     1263.217     72.57154      1.506     3.17     3.995607     20.48507     125.7355        21     1.108     1.062  21.51   0
       122    689.4509    746.5312 300.1913331 +22.8028415     737.3057     72.59004      1.319     2.63     3.924862     20.48507     81.20045        12     0.877     0.826   9.04   0
       123    869.9185    739.1117 300.2499798 +22.8548104     433.6342     72.71942      1.485     4.01     4.035527     20.48507     56.60499         8     0.975     0.660  20.51   0
       124    523.2960    735.0829 300.1433208 +22.7497298     1667.156      72.7748      1.315     2.28     3.936368     20.48507     210.6181        18     1.005     0.874  86.83   0
       125    704.5105    732.3323 300.2006411 +22.8032807     9347.064     72.75635      1.301     2.27     3.954779     20.48507       1105.6        42     1.173     1.116 -79.32   0
       126    186.2574    734.0974 300.0388149 +22.6483274     201.2354     72.70095      1.298     4.61     4.132423     20.48507     36.16255         6     1.109     0.544 -61.56   0
       127    206.0412    727.7009 300.0470435 +22.6524306     4951.604     72.59004      1.443     2.63     4.069273     20.48507     539.7831        34     1.192     1.155  40.22   0
       128    288.1225    725.7983 300.0731791 +22.6765162     1294.511     72.51601      1.465     2.69     3.936407     20.48507     144.4255        16     0.993     0.885  30.94   0
       129    163.5996    723.0543 300.0353638 +22.6383606     572.4202     72.53452      1.563     5.27     4.326676     20.48507     56.27726        13     1.337     0.815  17.21   0
       130    496.3441    721.0572 300.1394929 +22.7376214     785.2048     72.68248      1.362     2.66      3.98762     20.48507     105.9313        13     1.033     0.765 -59.47   0
       131    487.9735    713.3074 300.1394076 +22.7328870      3261.44     72.55304      1.335     2.23     4.010012     20.48507     456.8336        24     1.082     0.959  75.09   0
       132    478.2553    707.1785 300.1383759 +22.7282135     1481.226     72.62703      1.320     2.26      4.03121     20.48507     193.8359        17     1.038     0.844 -35.14   0
       133    141.7410    703.6370 300.0348839 +22.6262324     619.5554     72.62703      1.400     4.14     4.406178     20.48507     81.40055        13     1.254     0.819  83.75   0
       134    871.9144    704.2272 300.2619450 +22.8453903     452.5415     72.60854      1.306     4.25     4.244382     20.48507     64.93781         9     0.964     0.729 -28.10   0
       135    155.7837    701.6204 300.0399031 +22.6298688     662.5819     72.59004      1.580     3.41     4.445153     20.48507      79.0225        12     1.090     0.784  60.28   0
       136    212.3886    698.7383 300.0584324 +22.6460296     231.2939     72.55304      1.245     3.14     4.324313     20.48507     39.31924         5     0.719     0.465 -74.51   0
       137    181.6205    698.2993 300.0490121 +22.6366704     417.0309     72.53452      1.232     2.78     4.418687     20.48507      68.0789        10     0.892     0.760 -50.32   0
       138    925.0172    697.8657 300.2805690 +22.8594766     372.6346     72.59004      1.304     3.00     4.208097     20.48507     63.67742        10     0.891     0.713 -79.78   0
       139    402.9457    696.8693 300.1182956 +22.7026662     1741.461     72.64552      1.302     2.23     4.087635     20.48507      242.508        19     0.995     0.929  31.69   0
       140    502.0616    697.1498 300.1490451 +22.7324757     395.9498       72.664      1.125     2.23     4.015071     20.48507     79.95164         8     0.786     0.627  41.18   0
       141    978.9061    693.9619 300.2986429 +22.8745023     705.0547     72.59004      1.445     3.29     4.122015     20.48507     87.78316        13     1.049     0.819  68.02   0
       142     56.9662    691.9063 300.0123599 +22.5974237     19780.61     72.57154      1.555     2.92     4.268632     20.48507     1901.431        67     1.400     1.357  54.71   0
       143    523.2798    691.3277 300.1575418 +22.7371683     373.9432     72.73788      1.220     3.25     3.992778     20.48507     52.51645         8     0.933     0.586 -77.90   0
       144    241.3079    683.6354 300.0723315 +22.6503760     299.2989     72.57154      1.204     3.00     4.357261     20.48507     39.94116         5     0.716     0.466 -12.95   0
       145    905.8801    678.1129 300.2810242 +22.8480684     1058.551      72.7748      1.348     2.54     4.346114     20.48507     126.8692        16     1.034     0.846 -11.07   0
       146      3.0174    676.2041 300.0007085 +22.5767276     1466.398     65.16187      1.874     5.08     4.331645     20.48507     106.3627        27     1.554     1.087  83.98  24
       147    487.8548    691.9916 300.1463006 +22.7267346     984.3404     72.60854      1.281     2.33      4.04289     20.48507     150.0519        13     0.895     0.828  67.10   0
       148    772.6703    676.3386 300.2400813 +22.8076366      498.695     72.64552      1.431     2.78     4.377945     20.48507     66.08243         8     0.871     0.661   7.79   0
       149    451.3361    672.7375 300.1411959 +22.7102566     466.4165     72.64552      1.246     2.10     4.094801     20.48507     81.10166         6     0.683     0.567 -32.85   0
       150    243.4012    671.6785 300.0768691 +22.6475746      289.589     72.49749      1.406     2.79     4.442473     20.48507     43.24963         6     0.806     0.517  43.88   0
       151    846.1202    670.6525 300.2648202 +22.8280174     893.1423     72.62703      1.848     3.55     4.450585     20.48507     86.90582        15     1.143     0.921  -5.68   2
       152    590.4591    669.7610 300.1854659 +22.7511233     195.1668     72.60854      1.108     3.46     3.995128     20.48507     35.85427         5     0.763     0.453 -70.27   0
       153    407.9687    664.9246 300.1302427 +22.6950073     773.0651     72.60854      1.334     2.69     4.153428     20.48507     110.0248        13     1.013     0.830  61.46   0
       154    555.9851    663.5669 300.1767468 +22.7390083      507.925     72.59004      1.208     2.66     4.024778     20.48507     66.11208         8     0.811     0.663  46.45   0
       155    603.1993    662.2270 300.1918817 +22.7527806     575.4019     72.57154      1.571     2.86     4.035161     20.48507      71.9024         9     0.919     0.618 -71.89   0
       156    573.7381    661.8857 300.1828200 +22.7438490     612.5432     72.73788      1.398     2.54     4.034872     20.48507     82.43897         9     0.896     0.628 -37.67   0
       157    452.3669    660.6198 300.1454556 +22.7070885       1019.2     72.60854      1.567     2.60     4.212193     20.48507     121.0852        15     0.985     0.894  62.30   0
       158    885.9803    656.1570 300.2819577 +22.8357988     3200.294     72.62703      1.338     2.27     4.465647     20.48507     433.3537        26     1.088     1.017 -48.80   0
       159    417.7338    656.3340 300.1360730 +22.6954713     1711.664       72.664      1.287     2.30     4.207193     20.48507     231.9074        18     0.937     0.926  12.56   0
       160    983.8600    654.2223 300.3131073 +22.8645699       717.36     72.59004      1.312     2.64     4.144372     20.48507     93.71422        11     0.886     0.786 -47.34   0
       161    446.6497    646.8750 300.1481443 +22.7014295     355.9496     72.60854      1.296     1.94     4.336459     20.48507     52.73655         5     0.705     0.425  67.41   0
       162    281.1751    643.1239 300.0978942 +22.6507171     9241.154     72.62703      1.352     2.33     4.132106     20.48507      1163.48        42     1.186     1.135 -75.67   0
       163    403.6394    640.0683 300.1369751 +22.6865764     9009.002     72.57154      1.320     2.28     4.298357     20.48507     1238.525        41     1.164     1.083  77.36   0
       164    808.0265    637.3907 300.2637597 +22.8070483       322.58     72.60854      1.120     4.34     4.537745     20.48507     45.01334         6     1.071     0.500 -51.96   0
       165     47.8628    636.3026 300.0276051 +22.5787491      398.748     72.70095      1.506     4.23     4.383517     20.48507      40.0637         9     0.994     0.776 -38.98   0
       166   1008.2159    635.0514 300.3269357 +22.8663583     926.7141     72.60854      1.416     2.84     3.933295     20.48507     132.7506        18     1.152     0.951  77.14   0
       167    815.2614    633.8657 300.2671603 +22.8082040     1927.165     72.64552      1.299     2.26     4.546857     20.48507      267.454        20     1.169     0.910 -82.70   0
       168    899.9320    631.2669 300.2943980 +22.8328296     12317.51       72.664      1.325     2.28     4.537253     20.48507     1608.916        48     1.194     1.135 -72.06   0
       169    464.1949    629.6597 300.1591991 +22.7017510     11494.92     72.57154      1.291     2.21     4.571267     20.48507     1607.448        42     1.191     1.061  62.09   0
       170    191.6569    625.5269 300.0757850 +22.6188112     1355.471     72.64552      1.395     2.58     4.594681     20.48507        152.8        17     1.161     0.882  87.25   0
       171    633.8507    625.3370 300.2134169 +22.7513798     564.8172       72.664      1.230     2.43     4.243343     20.48507     82.80545         9     0.876     0.626  53.56   0
       172    349.7634    624.0178 300.1254331 +22.6658110     298.8033     72.60854      1.173     1.95     4.374879     20.48507     56.89952         5     0.729     0.457  31.81   0
       173    438.7488    622.5265 300.1535996 +22.6920726     382.0062     72.62703      1.222     3.28     4.515187     20.48507     57.66816         8     0.900     0.697  84.09   0
       174    395.8929    617.8580 300.1417837 +22.6778797     4367.323       72.664      1.315     2.13     4.425895     20.48507     659.4684        35     1.164     1.090  77.08   0
       175    738.6947    617.6288 300.2485791 +22.7805939      649.829     72.53452      1.260     2.49     4.338126     20.48507     111.0305        12     0.922     0.775 -39.87   0
       176    374.1422    616.3489 300.1355082 +22.6709230     1279.248       72.664      1.328     2.39     4.437489     20.48507     165.1232        15     0.976     0.834  22.92   0
       177    128.4049    615.6175 300.0593490 +22.5969892     683.2592     72.57154      1.365     3.11     4.564486     20.48507     89.33218        14     1.083     0.844 -17.45   0
       178    815.6616    613.2120 300.2739979 +22.8023919      1672.89     72.57154      1.365     2.56     4.605496     20.48507     174.1408        21     1.103     0.973 -33.69   0
       179    512.4756    605.3759 300.1821168 +22.7092591     197245.2     72.62703      1.251     2.16     4.607372     20.48507     24271.11       216     1.468     1.416 -77.03   0
       180    336.0467    611.5682 300.1252129 +22.6581245     341.2577     72.64552      1.091     2.22     4.346165     20.48507      55.6758         6     0.742     0.495  -2.56   0
       181    696.1727    610.1764 300.2377545 +22.7657087     851.3329     72.59004      1.206     2.39     4.308002     20.48507      115.932        10     0.795     0.728  11.14   0
       182    789.8573    608.6255 300.2674468 +22.7933417     259.8499     72.60854      1.204     4.11     4.567297     20.48507     32.77075         6     0.771     0.625 -45.14   0
       183    198.5738    605.4282 300.0844664 +22.6151216     3295.262     72.59004      1.401     2.36     4.555055     20.48507     392.9085        30     1.163     1.084  63.66   0
       184    281.1307    605.3555 300.1101548 +22.6398687     251.4297     72.57154      1.342     4.63     4.088191     20.48507     30.81931         6     1.026     0.593  61.95   0
       185    764.2792    601.0765 300.2619300 +22.7835081     495.9991     72.71942      1.183     3.26     4.439154     20.48507     78.70972         8     0.909     0.608  60.38   0
       186    783.2802    599.0577 300.2685068 +22.7886227     252.9667     72.64552      1.114     3.83     4.514237     20.48507     37.66792         7     0.726     0.695  78.87   0
       187    543.7696    592.1770 300.1961468 +22.7148534     367.8089     72.60854      1.292     3.16     4.304884     20.48507     46.33391         6     0.740     0.630  31.91   0
       188    402.9337    585.8792 300.1543662 +22.6708144     2945.151     72.71942      1.453     2.45     4.478069     20.48507     391.3356        32     1.533     0.983  87.56   0
       189    247.2034    588.1533 300.1051965 +22.6247557     432.8102     72.59004      1.290     3.03     4.263786     20.48507     50.38009         6     0.743     0.564  34.32   0
       190    559.7086    582.8067 300.2041536 +22.7169421     418.0222     72.51601      2.195     5.69     4.297653     20.48507     33.65336         8     1.261     0.723 -35.62   0
       191    814.6081    582.0571 300.2837945 +22.7931275     360.4844     72.59004      1.205     2.45     4.556677     20.48507     54.17026         5     0.705     0.454 -70.59   0
       192    720.5546    574.1945 300.2570430 +22.7626836     356.4189     72.60854      1.088     1.96     4.309583     20.48507     62.25797         5     0.683     0.437 -63.29   0
       193    800.0820    571.6910 300.2826360 +22.7857971     1538.022     72.71942      1.235     2.05     4.508336     20.48507     273.7929        17     0.950     0.853  20.59   0
       194    671.3361    569.4272 300.2432606 +22.7465629     2562.069     72.60854      1.186     2.07     4.296899     20.48507     351.7364        21     1.027     0.898 -52.59   0
       195    915.7066    566.7656 300.3202788 +22.8190251     536.0011     72.57154      1.205     1.92     4.616901     20.48507     75.12016         6     0.681     0.536  41.41   0
       196    880.5000    565.9815 300.3095571 +22.8082523     272.6189     72.51601      1.108     3.72     4.616748     20.48507     39.23933         6     0.804     0.495  83.75   0
       197    576.1588    565.9762 300.2147439 +22.7170419     414.2487     72.64552      1.261     2.24      4.29858     20.48507     70.72601         8     0.790     0.681  87.07   0
       198    458.4748    565.3464 300.1783188 +22.6815770      723.592     72.62703      1.278     2.70     4.582465     20.48507     95.60066        13     0.921     0.893  83.41   0
       199    928.5919    563.3635 300.3254020 +22.8219077      1238.83     72.60854      1.231     2.36     4.616954     20.48507     149.1357        15     0.987     0.821  45.53   0
       200    800.3774    561.7480 300.2859590 +22.7830296     2288.037     72.60854      1.477     2.75     4.480298     20.48507       304.75        25     1.500     0.893  85.52   0
       201    914.1996    562.5930 300.3211648 +22.8173748     690.0432     72.42336      1.406     2.90     4.616887     20.48507     83.74931        10     0.937     0.703  52.21   0
       202    553.7805    559.9572 300.2097328 +22.7086050     547.7264     72.62703      1.180     2.91     4.297305     20.48507     94.72656         9     0.872     0.779  41.97   0
       203    339.3386    559.7676 300.1430690 +22.6442481     303.1829     72.64552      1.460     5.11     4.373482     20.48507     39.38576         8     1.119     0.712  46.46   0
       204    838.4373    556.8599 300.2994093 +22.7930294     4134.198     72.62703      1.264     2.18     4.554273     20.48507     581.3373        26     1.072     0.963  80.59   0
       205    391.8157    558.7287 300.1597294 +22.6596883     313.1742     72.60854      1.233     2.68     4.478069     20.48507     61.18859         6     0.706     0.631   0.53   0
       206    499.1490    552.9734 300.1949969 +22.6902211     465.0195     72.62703      1.521     3.14     4.488554     20.48507      52.2162         9     0.897     0.777 -80.72   0
       207    635.1790    552.1517 300.2376132 +22.7307646     246.7958     72.62703      1.453     4.48     4.298986     20.48507     28.41773         5     0.799     0.714 -49.92   0
       208     70.3662    547.5479 300.0634346 +22.5600510      989.226     72.62703      1.390     3.11     4.066659     20.48507     128.7198        17     1.112     0.922  57.31   0
       209    930.2913    547.1047 300.3312150 +22.8177451     714.7921     72.79325      1.223     3.33     4.605136     20.48507      108.834        11     1.069     0.677 -66.99   0
       210    731.3981    541.0330 300.2711963 +22.7564092     383.4438     72.57154      1.486     3.40     4.269947     20.48507     40.31764         7     0.825     0.702  21.42   0
       211    117.8055    539.7767 300.0806976 +22.5720567     76.88876     72.59004      1.137     3.93     4.035642     20.48507     30.98538         6     0.757     0.584  43.57   0
       212     63.2018    537.9050 300.0643417 +22.5551356     402.9571     72.51601      1.460     3.39     4.046016     20.48507     58.73342         5     0.795     0.488  45.84   0
       213    870.0596    544.6572 300.3132314 +22.7989980     406.2195     72.68248      1.548     2.38     4.616585     20.48507      58.3935         5     0.742     0.574 -79.58   0
       214    670.6304    531.3661 300.2554075 +22.7354213      467.274     72.62703      1.252     2.51     4.195192     20.48507      61.6233         8     0.750     0.739 -82.33   0
       215    559.6060    529.4792 300.2214487 +22.7016010     360.0151     72.53452      1.216     3.08     4.282516     20.48507     47.22167         7     0.850     0.636 -75.26   0
       216    279.7625    529.5917 300.1343462 +22.6177204     289.5928     72.62703      1.541     3.43     3.995686     20.48507      31.9377         5     0.732     0.466  16.08   0
       217    611.7427    527.3049 300.2383878 +22.7166050      722.902     72.68248      1.172     2.31     4.292937     20.48507     111.7324        12     0.917     0.801 -67.52   0
       218   1019.5673    525.0909 300.3662108 +22.8381591     997.6558     72.55304      1.371     2.67     3.614852     20.48507     151.4073        16     1.083     0.905  33.67  16
       219    926.4279    519.6221 300.3389396 +22.8086908     614.6188     72.60854      1.225     3.68     4.343902     20.48507      88.5211        11     1.164     0.654  31.93   0
       220    672.8198    519.6312 300.2599018 +22.7327073     889.9785     72.60854      1.219     2.26     4.109355     20.48507     133.7431        12     0.891     0.730 -86.70   0
       221    829.8361    515.8332 300.3100582 +22.7786660     1000.566     72.62703      1.302     2.16     4.335537     20.48507     164.7313        15     1.021     0.811  49.70   0
       222    814.1038    512.1281 300.3063586 +22.7728882     704.9223     72.71942      1.244     2.17     4.288474     20.48507     117.3795        11     0.906     0.701  86.28   0
       223    558.4947    510.2954 300.2273349 +22.6957598     3207.868      72.7748      1.188     2.08     4.263163     20.48507     430.3237        23     1.070     0.856  81.66   0
       224    918.7554    508.9395 300.3400177 +22.8033229     363.6406     72.64552      1.196     3.11     4.236556     20.48507     73.96114         7     0.878     0.643  86.12   0
       225     34.0941    501.0380 300.0672760 +22.5358277     378.9591     72.59004      1.412     5.29      4.05029     20.48507       34.968         7     1.223     0.646  48.91   0
       226    330.3336    498.3080 300.1602345 +22.6239100     370.2446     72.75635      1.191     3.85     4.164664     20.48507     44.55035         6     0.900     0.471  89.52   0
       227    563.9622    498.4454 300.2328864 +22.6939961     308.8697       72.664      1.359     3.41     4.256815     20.48507     38.15472         6     0.786     0.496   3.47   0
       228    398.1138    497.0652 300.1817212 +22.6438785     344.3588     72.70095      1.199     3.73     4.256884     20.48507      49.8688         5     0.646     0.618 -77.45   0
       229    946.4397    495.8058 300.3529170 +22.8078408      357.519     72.64552      1.935     3.46     4.009612     20.48507     24.95536         5     1.229     0.281  35.73   0
       230    969.9435    489.1923 300.3623953 +22.8129797     1362.434     72.59004      1.366     2.53     3.887961     20.48507     158.1281        17     0.963     0.928  37.49   0
       231    841.5534    489.1927 300.3223648 +22.7745224     411.9739     72.62703      1.136     2.63      4.17074     20.48507     78.25336         7     0.877     0.487 -81.96   0
       232    928.2723    487.8602 300.3498330 +22.8001160     935.6597     72.64552      1.268     2.09     3.988626     20.48507     147.2506        13     1.012     0.779  33.07   0
       233    669.0419    484.2135 300.2702306 +22.7214029     1143.628     72.62703      1.253     1.98     3.868038     20.48507     189.0076        13     0.964     0.696  87.64   0
       234    464.7717    485.0906 300.2063509 +22.6604268     467.8951     72.59004      1.113     2.39     4.228318     20.48507     82.03261         7     0.810     0.564  61.38   0
       235    173.0929    482.8322 300.1163755 +22.5723077     691.3015     72.53452      1.305     2.85      3.99311     20.48507     90.38655        10     0.949     0.684  83.79   0
       236    235.4105    478.3358 300.1372063 +22.5897100     3567.361     72.55304      1.260     2.26     3.994073     20.48507     453.0525        25     1.045     0.972  67.95   0
       237     12.4973    480.6497 300.0671903 +22.5234997     208.2528     72.68248      0.947     3.29     4.064705     20.48507     44.72862         5     1.026     0.305  21.97   0
       238    968.5020    476.4168 300.3660956 +22.8088762     4339.317     72.53452      1.286     2.22     3.853398     20.48507     520.6281        33     1.235     1.037 -84.43   0
       239    182.6180    473.0905 300.1224998 +22.5723699     7359.676     72.53452      1.378     2.38     3.978631     20.48507     980.2994        40     1.206     1.101  60.87   0
       240    561.1075    472.6843 300.2403654 +22.6857432     255.4085     72.79325      1.017     2.96     4.243188     20.48507     46.53284         6     0.740     0.616  65.40   0
       241    948.4045    467.5663 300.3627029 +22.8003135     1840.971     72.60854      1.307     2.28     3.876549     20.48507     216.6701        18     1.018     0.879 -31.54   0
       242    323.4338    467.3041 300.1681588 +22.6129427     4886.992     72.60854      1.271     2.22     4.131574     20.48507     591.4981        34     1.139     1.035  73.84   0
       243    567.5825    463.8496 300.2452508 +22.6851470     17929.64     72.62703      1.239     2.11       4.2549     20.48507     2775.621        55     1.227     1.065  68.48   0
       244    585.1256    463.8896 300.2506996 +22.6904165     848.1636      72.7748      1.835     6.11     4.270045     20.48507     67.61736        15     1.594     0.659 -41.33   0
       245    410.6290    463.7077 300.1964494 +22.6380557     263.9657     72.57154      1.066     3.03     4.205499     20.48507     45.96929         5     0.914     0.475  83.66   0
       246    194.2469    462.1041 300.1296823 +22.5727057     223.0443     72.62703      1.245     4.29     3.968522     20.48507     34.14694         5     0.750     0.699 -49.40   0
       247    811.3538    459.9452 300.3224523 +22.7570719     197.9338     72.64552      1.160     3.71     4.035996     20.48507     36.50898         6     0.832     0.623 -53.16   0
       248    764.5757    454.1712 300.3097503 +22.7413988      391.619     72.60854      1.109     2.35     3.901485     20.48507     75.47407         8     0.840     0.605 -71.68   0
       249    187.7453    450.9872 300.1312718 +22.5675658     472.1522     72.60854      1.508     4.87     3.947705     20.48507     46.71994        10     1.277     0.669 -47.54   0
       250    901.0858    446.1159 300.3549154 +22.7799766     689.0149     72.71942      1.265     2.59     3.936056     20.48507     108.3467        11     0.962     0.669 -83.90   0
       251    438.2414    445.6181 300.2109156 +22.6411408     421.5537     72.62703      1.162     2.60     4.236265     20.48507       52.162         5     0.715     0.452 -18.74   0
       252    122.3047    444.1379 300.1131593 +22.5459710     1873.202     72.70095      1.313     2.49     3.901622     20.48507     236.2224        19     1.029     0.952  77.15   0
       253    508.2464    433.3324 300.2366911 +22.6585986     6417.147     72.59004      1.238     2.14     4.262671     20.48507     901.3926        34     1.128     0.989  69.52   0
       254    921.7762    433.5072 300.3654616 +22.7825498     1302.383     72.53452      1.286     2.16     3.885716     20.48507     196.6453        16     0.961     0.861  64.86   0
       255    223.1520    432.7777 300.1481909 +22.5729600     683.2029     72.62703      1.373     3.37     3.988221     20.48507       81.641        13     1.082     0.778  88.80   0
       256     80.8622    426.3861 300.1060477 +22.5284460     484.8146     72.59004      1.397     2.36     3.895127     20.48507      72.5897         8     0.794     0.673 -77.03   0
       257    768.0859    424.8741 300.3203588 +22.7340332     370.1908     72.73788      1.328     3.61     3.855272     20.48507     46.25252         8     0.847     0.713  27.37   0
       258    712.3866    422.3134 300.3038364 +22.7166101     1232.136     72.55304      1.395     2.53     3.816967     20.48507     137.0084        17     1.093     0.840 -77.61   0
       259    622.0142    423.1921 300.2754031 +22.6897833     558.7368     72.51601      1.224     2.93     4.185203     20.48507     88.15608         8     0.924     0.585 -68.11   0
       260    414.9271    419.6167 300.2121053 +22.6266865     6010.425     72.60854      1.265     2.14     4.263329     20.48507     937.8553        32     1.119     0.969  63.63   0
       261    806.9708    413.7986 300.3360732 +22.7424993     1509.076     72.57154      1.370     2.15     3.891404     20.48507     225.7103        19     1.316     0.868 -75.10   0
       262    904.2189    413.9208 300.3663479 +22.7716622     599.1819     72.60854      1.339     3.03      3.89697     20.48507     102.9813        12     1.031     0.798 -75.28   0
       263    399.5480    408.1911 300.2110307 +22.6187957     498.8685     72.60854      1.048     2.79     4.271033     20.48507     68.84967         6     0.754     0.601 -66.98   0
       264    481.1804    405.2441 300.2373883 +22.6424202     1586.599     72.62703      0.517     2.63     4.298657     20.48507     1061.906         8     0.696     0.296  47.24   0
       265    462.4876    403.9753 300.2319830 +22.6364528      218.497     72.55304      1.086     3.74     4.291954     20.48507     40.48939         6     0.816     0.492 -82.25   0
       266    779.4009    401.5275 300.3314662 +22.7307146     608.3226     72.49749      1.407     3.44     3.971598     20.48507     68.07115        10     0.974     0.769 -14.03   0
       267    302.4372    398.8299 300.1838652 +22.5869927     2421.477     72.62703      1.294     2.34     4.286936     20.48507     304.0174        21     1.064     0.924  64.80   0
       268     20.7632    396.2715 300.0971571 +22.5017772     1061.691     72.59004      1.501     3.08     4.272421     20.48507     106.2391        17     1.052     0.980  21.50   0
       269    650.1600    393.2852 300.2938798 +22.6896266      225.596     72.59004      1.198     2.74     4.149347     20.48507     49.03682         6     0.736     0.569  47.55   0
       270    271.7460    388.3316 300.1777302 +22.5747766     29463.64     72.64552      1.321     2.32     4.262625     20.48507      3732.63        76     1.351     1.183  64.19   0
       271    249.3249    391.9808 300.1695744 +22.5691007     269.8737     72.60854      1.417     3.86     4.192912     20.48507     34.58514         5     0.911     0.468 -88.57   0
       272    806.4128    385.5768 300.3450634 +22.7342224     1350.611     72.60854      1.164     2.18     4.103316     20.48507     190.5381        13     0.919     0.762  66.12   0
       273    761.6461    383.7311 300.3317122 +22.7202824     329.2223     72.59004      1.161     1.84     4.121846     20.48507     62.51994         5     0.658     0.462  74.59   0
       274    721.6290    374.5052 300.3222396 +22.7056437     595.8948     72.53452      1.153     2.70       4.2119     20.48507     81.04089        11     0.926     0.742  72.34   0
       275    146.0481    374.6340 300.1431046 +22.5331502     402.0177     72.64552      1.133     1.94     3.832645     20.48507     66.24662         7     0.667     0.640 -10.00   0
       276    370.3719    373.5887 300.2131892 +22.6001147     564.7462     72.60854      1.396     2.56     4.290205     20.48507     69.87977        10     0.898     0.726 -71.41   0
       277    682.0645    367.8641 300.3120708 +22.6918826     1823.881     72.64552      1.308     2.01      4.28652     20.48507     302.8099        21     1.025     0.908  62.64   0
       278    490.3367    362.1845 300.2542184 +22.6327993     405.4148     72.59004      1.267     2.67     4.375338     20.48507     61.75194         6     0.776     0.596  60.56   0
       279    897.3271    360.6698 300.3814900 +22.7542926     523.1902     72.68248      1.304     2.53     4.191521     20.48507      79.8509        12     0.908     0.797 -73.63   0
       280    343.8939    352.6550 300.2117492 +22.5861668     2058.792       72.664      1.489     2.69     4.311167     20.48507     262.4066        22     1.302     0.886  58.08   0
       281    556.0571    351.5522 300.2781272 +22.6494412     320.3705       72.664      1.100     2.39     4.396588     20.48507     66.80885         6     0.725     0.628 -30.28   0
       282    783.0237    345.3125 300.3508469 +22.7156459     556.9788     72.55304      1.131     2.43     4.364767     20.48507     102.4431        10     0.911     0.655  76.58   0
       283    665.5328    343.0801 300.3149676 +22.6798093      390.203     72.71942      1.147     3.18     4.431504     20.48507     62.06215         9     0.963     0.665  58.85   0
       284    419.7072    332.0632 300.2420179 +22.6029802     1124.516     72.71942      1.287     2.42     4.344647     20.48507     168.4538        14     0.942     0.777 -80.86   0
       285    227.2457    332.1827 300.1821227 +22.5453165     255.8409     72.62703      1.227     3.25     4.349401     20.48507     43.09862         7     0.835     0.624 -60.97   0
       286    931.1179    327.5467 300.4027794 +22.7548893     325.2624     72.64552      1.205     3.60     4.159766     20.48507     44.37627         8     0.896     0.639 -62.86   0
       287    803.1121    325.3923 300.3635740 +22.7159377     262.2704     72.51601      1.059     4.32     4.328331     20.48507     59.72721         6     0.986     0.539 -66.22   0
       288    664.5814    323.7649 300.3209414 +22.6739748      2119.39     72.60854      1.190     2.25     4.431852     20.48507     317.3041        16     0.939     0.802  63.36   0
       289    925.8662    317.9675 300.4042514 +22.7505630     3114.473     72.60854      1.291     2.08     4.168507     20.48507     509.0313        22     1.045     0.919  79.62   0
       290    987.1533    312.6869 300.4250787 +22.7673938     407.2989     72.57154      1.377     2.56     4.276077     20.48507      66.3147         9     0.843     0.721 -77.11   0
       291    372.8462    307.6392 300.2353670 +22.5819208     572.1911       72.664      1.280     2.47     4.374765     20.48507     81.83298        10     0.874     0.714 -43.72   0
       292    995.3502    305.8622 300.4298508 +22.7678854     1571.073       72.664      1.307     2.19     4.300966     20.48507     246.7624        19     1.002     0.949  68.27   0
       293     78.5447    302.1069 300.1456720 +22.4920922     595.5408       72.664      1.495     2.53     4.416786     20.48507     83.19234        11     0.943     0.750  43.32   0
       294     47.9184    302.0880 300.1361640 +22.4829012     1431.551     72.73788      1.614     2.95     4.490919     20.48507     144.7754        22     1.278     1.051 -21.05   0
       295    941.8680    298.4236 300.4155852 +22.7497352     480.8866     72.59004      1.245     2.64     4.226255     20.48507     63.04608         9     0.806     0.759  78.13   0
       296    132.0968    294.1480 300.1648942 +22.5058683     550.9053     72.68248      1.485     2.62     4.381245     20.48507     84.41314        11     0.873     0.824 -74.44   0
       297    785.4152    295.2619 300.3678389 +22.7019778      365.198     72.55304      1.615     3.98     4.325084     20.48507     41.54702         7     0.956     0.527  31.34   0
       298    807.8534    287.2836 300.3774213 +22.7064045     388.1377     72.64552      1.381     1.99     4.260439     20.48507     52.89817         6     0.687     0.549 -55.11   0
       299    736.2283    285.1602 300.3557910 +22.6843432     558.3548     72.64552      1.069     1.85      4.35322     20.48507     115.9189         8     0.740     0.590 -54.28   0
       300    326.9157    284.8143 300.2284885 +22.5615991     340.2339     72.57154      1.184     3.07     4.371335     20.48507     51.12635         7     0.742     0.659  21.30   0
       301    834.3996    274.1680 300.3899520 +22.7105840     2202.641     72.57154      1.286     2.26     4.067812     20.48507     284.6692        18     0.984     0.870  76.50   0
       302    252.9763    271.6757 300.2097599 +22.5356616     2176.908     72.64552      1.319     2.33     4.380662     20.48507     309.1853        22     1.103     0.916  49.47   0
       303    330.6789    266.7656 300.2355160 +22.5575447     952.6046     72.55304      1.361     2.40     4.377892     20.48507     142.0132        16     0.946     0.935 -73.06   0
       304     82.8203    266.9392 300.1584129 +22.4832822     283.9059     72.55304      1.254     3.45     4.519641     20.48507     53.97033         6     0.958     0.635  15.40   0
       305    732.6612    265.8035 300.3609616 +22.6777118     513.2966     72.59004      1.109     2.20     4.348506     20.48507     88.93947         9     0.768     0.714   8.59   0
       306    488.9842    265.9552 300.2850319 +22.6047556     305.8458     72.62703      1.428     3.43     4.425904     20.48507     29.60419         5     0.628     0.605 -88.55   0
       307    839.8006    262.6900 300.3953605 +22.7089017      463.049     72.49749      1.426     3.01     4.013268     20.48507     52.09187         7     0.872     0.562  60.32   0
       308    147.5617    258.8200 300.1811643 +22.5003658      752.864     72.62703      1.489     2.76     4.461331     20.48507     88.15914        12     0.952     0.785  65.23   0
       309    265.6284    258.2119 300.2180627 +22.5355891     324.2538     72.60854      1.606     3.46     4.390037     20.48507     26.09365         5     0.770     0.449 -73.52   0
       310    685.5572    255.7159 300.3495609 +22.6607045     1676.838     72.57154      1.261     2.25     4.410417     20.48507     218.0088        17     1.043     0.827  67.96   0
       311    750.3588    255.0401 300.3699687 +22.6799186     667.6234     72.70095      1.292     2.79      4.33214     20.48507     100.6471        12     1.003     0.795  18.81   0
       312    169.1265    252.1561 300.1900287 +22.5049189     579.7456     72.59004      1.457     3.69      4.46289     20.48507      68.5352        12     1.030     0.813  87.11   0
       313    956.8522    248.0868 300.4365949 +22.7397478     940.2647     72.64552      1.419     2.61     4.323946     20.48507     117.3206        13     0.955     0.804  75.66   0
       314    459.1257    247.9980 300.2815667 +22.5906503     260.2082     72.51601      1.234     2.55     4.408853     20.48507     52.50542         7     0.837     0.619 -33.74   0
       315    689.4443    247.0938 300.3535697 +22.6593909     765.6442     72.62703      1.239     2.26     4.404294     20.48507     91.19205         9     0.805     0.673 -23.09   0
       316    609.9328    246.2868 300.3290676 +22.6353421     1143.367     72.71942      1.190     2.85     4.427542     20.48507     184.0056        14     1.094     0.703  79.38   0
       317    431.1473    242.8328 300.2745366 +22.5807827     419.0093     72.62703      1.373     3.36     4.404184     20.48507     46.27881         8     0.801     0.693  36.97   0
       318    536.1898    238.0890 300.3087679 +22.6108945     947.1993     72.55304      1.254     2.16     4.418195     20.48507     138.6265        14     1.009     0.787  66.57   0
       319    817.5704    236.9625 300.3967804 +22.6948494     805.2436     72.62703      1.257     2.62     4.169409     20.48507     112.7317        13     0.983     0.770  66.35   0
       320    805.5258    237.6463 300.3928045 +22.6914394     1314.264     72.60854      1.208     2.25     4.268381     20.48507     193.4935        16     1.031     0.817  57.06   0
       321    978.3721    227.6676 300.4499326 +22.7403177      1553.08     72.59004      1.296     2.23     4.353909     20.48507     229.5671        18     1.049     0.886  69.76   0
       322    934.3126    227.0570 300.4363900 +22.7269533     1033.567     72.68248      1.304     2.47     4.352478     20.48507     160.6685        14     0.925     0.857  52.74   0
       323    168.4026    220.6084 300.2000397 +22.4956458     583.6108     72.42336      1.276     2.97     4.544255     20.48507     75.18152        11     1.001     0.760 -53.40   0
       324     30.1434    215.2772 300.1588112 +22.4526586     2238.659     72.64552      1.501     2.80     4.509004     20.48507     213.1453        24     1.195     1.057  69.55   0
       325    853.2789    212.1260 300.4159698 +22.6984008     820.0531     72.71942      1.315     2.23     3.858475     20.48507     118.9734        11     1.026     0.712  36.37   0
       326    187.5770    208.6538 300.2098777 +22.4979623     5606.464     72.62703      1.391     2.39     4.542318     20.48507     743.7669        35     1.222     1.041  60.22   0
       327    169.3626    209.6564 300.2038912 +22.4927895     305.6461     72.60854      1.313     3.49      4.55612     20.48507     46.37341         5     0.944     0.424 -74.38   0
       328    171.0703    199.6612 300.2076645 +22.4904320     603.7162     72.64552      1.291     2.49     4.565467     20.48507     81.28394         9     0.905     0.606 -53.26   0
       329    986.4347    195.7828 300.4627929 +22.7335612     18155.29     72.60854      1.366     2.32     4.355003     20.48507     2468.346        57     1.263     1.162  89.88   0
       330    831.6305    189.8811 300.4164389 +22.6855238     3473.078     72.60854      1.278     2.31     3.991628     20.48507     472.6476        25     1.095     0.946  83.82   0
       331    381.1459    185.1523 300.2776939 +22.5492316     585.9642     72.64552      1.282     2.49     4.437124     20.48507     100.2463        11     0.959     0.669 -81.79   0
       332    133.8812    185.9365 300.2005591 +22.4753426     362.8119     72.71942      1.342     3.44     4.593188     20.48507     53.64903         7     1.076     0.489  52.40   0
       333    495.5032    182.9124 300.3140050 +22.5828528     246.6767     72.79325      1.395     4.19     4.393034     20.48507     36.76376         6     1.002     0.499  88.08   0
       334    305.0126    177.1260 300.2566171 +22.5241105      733.093     72.62703      1.980     2.87     4.458677     20.48507     70.03748        10     0.892     0.718 -15.38   0
       335    935.3361    188.5008 300.4492191 +22.7161723     2701.792     72.70095      1.279     2.28     4.340997     20.48507     433.2733        21     1.089     0.899  85.39   0
       336     71.4373    174.2567 300.1849457 +22.4532677      564.705     72.60854      1.379     3.53     4.569026     20.48507     67.98647        12     1.069     0.783  61.54   0
       337    432.4839    172.5740 300.2977469 +22.5610016     1776.514     72.59004      1.323     2.28     4.424551     20.48507     205.4508        16     0.985     0.835  80.09   0
       338    360.3253    172.9174 300.2751860 +22.5394782     412.4037     72.71942      1.203     2.74     4.461451     20.48507     69.37498         8     0.863     0.611  77.84   0
       339    494.1821    171.8009 300.3171983 +22.5792646     404.5067     72.53452      1.270     3.83     4.391919     20.48507     59.63944         8     0.949     0.655  37.47   0
       340    175.7297    168.3143 300.2192813 +22.4828292     464.3982     72.71942      1.284     4.03     4.592219     20.48507     48.82442         6     0.727     0.653  79.17   0
       341    648.3633    166.1127 300.3670477 +22.6238133     147.3454     72.59004      1.277     3.40     4.455322     20.48507      29.9973         5     0.773     0.433  70.84   0
       342    720.8571    161.7529 300.3910440 +22.6442697     300.7154       72.664      1.267     2.73     4.362459     20.48507     55.83601         5     0.689     0.685 -36.49   0
       343    866.7558    156.1298 300.4383375 +22.6863348     378.3126     72.57154      1.327     3.65     3.815614     20.48507      49.1462         8     0.900     0.647  78.15   0
       344    996.9543    152.9644 300.4799651 +22.7243941     3570.701     72.64552      1.393     2.51     4.363987     20.48507      459.107        29     1.205     1.034 -81.23   0
       345    206.4978    152.4675 300.2339851 +22.4875022     6066.781     72.70095      1.375     2.38     4.530264     20.48507     733.2239        33     1.224     1.035  59.73   0
       346    713.1051    152.7376 300.3915533 +22.6393569      347.201     72.70095      1.247     2.90     4.415832     20.48507     55.83021         8     0.878     0.635   8.50   0
       347     57.5509    152.1331 300.1878076 +22.4427536     815.0938     72.60854      1.415     3.05     4.540738     20.48507     96.50922        10     0.961     0.719  71.16   0
       348    178.3141    146.5318 300.2271498 +22.4773498     384.4265     72.70095      1.285     2.49     4.574824     20.48507     47.56802         5     0.691     0.454 -23.39   0
       349    221.7901    144.1752 300.2414285 +22.4897048     277.1461     72.60854      1.237     2.34     4.484605     20.48507     54.09207         5     0.704     0.636  25.82   0
       350    452.5274    137.6972 300.3152967 +22.5569871     5979.178     72.73788      1.267     2.23     4.395148     20.48507     846.4953        35     1.190     0.991  69.61   0
       351    338.0142    137.2541 300.2798139 +22.5225489     612.4998     72.60854      1.373     3.42     4.445282     20.48507     90.13554        11     1.035     0.790  76.51   0
       352    509.3727    131.9843 300.3348415 +22.5723749     352.8962     72.62703      1.110     3.61     4.380982     20.48507     51.73051         6     0.971     0.419  74.04   0
       353    705.2285    127.7971 300.3971891 +22.6298288     787.0549     72.55304      1.594     4.39     4.550916     20.48507     104.0068        12     1.412     0.602 -68.77   0
       354    646.7200    128.7581 300.3786524 +22.6125847     293.0922     72.59004      1.051     2.83     4.577482     20.48507     46.34552         5     0.880     0.353 -46.03   0
       355    797.3759    125.8876 300.4265210 +22.6568691     442.9503     72.57154      1.236     3.03     4.260581     20.48507     68.56613         8     0.891     0.603  74.24   0
       356    106.1966    123.6271 300.2121663 +22.4491548     259.7163     72.57154      1.717     4.64      4.62611     20.48507     32.43897         5     1.206     0.508  59.03   0
       357    866.0069    123.7069 300.4486208 +22.6767869     358.2029     72.51601      1.454     3.89     4.032762     20.48507     42.86365         6     1.038     0.418  10.93   0
       358    145.4127    121.8739 300.2249211 +22.4604074     489.3333     72.62703      1.362     2.51     4.589977     20.48507     55.69624         7     0.725     0.639 -75.72   0
       359    580.9052    117.7754 300.3617191 +22.5897176     6094.836     72.53452      1.283     2.15      4.43795     20.48507     972.4611        33     1.142     0.979  76.13   0
       360    504.2509    119.7387 300.3372188 +22.5673219     312.7093       72.664      1.185     2.32     4.369977     20.48507     84.49889         7     0.898     0.476 -59.30   0
       361    355.8717    116.6672 300.2920452 +22.5219863     1469.495     72.64552      1.337     2.38     4.414622     20.48507     221.2415        16     1.038     0.841  61.85   0
       362    621.9738    115.0025 300.3754068 +22.6012202     810.8427     72.55303      1.282     2.88     4.520722     20.48507     114.5303        12     1.022     0.709  77.70   0
       363    691.7369    112.7681 300.3978604 +22.6214687     425.2414     72.60854      1.487     2.43     4.674374     20.48507       43.841         6     0.715     0.555  44.82   0
       364    638.1436    110.9466 300.3817580 +22.6048967     629.0469       72.664      1.396     2.73     4.603058     20.48507      89.7314        11     0.919     0.770 -30.62   0
       365    907.9665    108.7425 300.4665564 +22.6850424     561.9166     72.62703      1.489     3.02     4.305206     20.48507     79.23428        10     0.975     0.755 -62.27   0
       366    104.7490    109.2335 300.2163842 +22.4445885     765.1028     72.62703      1.473     3.06     4.627625     20.48507     95.34582        13     1.130     0.734  56.87   0
       367    947.5963    107.7580 300.4792335 +22.6966198     220.8665     72.62703      1.169     3.25     4.391336     20.48507     41.46246         6     0.862     0.492 -44.47   0
       368    676.4958    106.4843 300.3951507 +22.6150985     449.3645     72.79325      1.033     2.99     4.782221     20.48507     63.78328         6     0.853     0.454  73.18   0
       369    625.1204    102.6364 300.3803972 +22.5986081      2695.17     72.55304      1.282     2.18     4.558741     20.48507     428.5116        26     1.106     0.942  88.47   0
       370    265.7589    103.2245 300.2683795 +22.4911222     344.0721     72.64552      1.231     4.14     4.393733     20.48507     52.78052         8     1.049     0.611  81.52   0
       371    640.2857    101.5467 300.3854736 +22.6028363     965.1868     72.64552      1.912     5.43     4.641461     20.48507      94.7027        17     1.539     0.772  55.04   0
       372    711.5994     94.2994 300.4100377 +22.6221064     1529.841      72.4419      1.231     3.92     4.667608     20.48507     201.0638        20     1.208     0.910  73.68   0
       373    871.6045     92.3350 300.4605404 +22.6694403     421.0128     72.60854      1.326     3.68     4.250481     20.48507       59.914         6     0.893     0.584  27.16   0
       374    649.5646     87.4900 300.3929220 +22.6015742      679.661     72.59004      1.202     2.39     4.748527     20.48507      107.648        12     0.860     0.816  53.73   0
       375    455.0566     86.7474 300.3326071 +22.5431058     941.8325       72.664      1.238     2.06     4.368947     20.48507     163.1632        13     0.932     0.753  50.01   0
       376    359.0395     85.0624 300.3032795 +22.5138564     890.0899     72.60854      1.378     3.31     4.385522     20.48507     110.7605        12     1.095     0.714  72.43   0
       377     28.0780     86.9878 300.1997784 +22.4152167     581.2154     72.60854      1.506     2.32     4.302819     20.48507     63.27005         9     0.783     0.701   3.04   0
       378    741.2507     83.4945 300.4227798 +22.6278773     550.4905     72.68248      1.237     2.62     4.579386     20.48507     64.76661         7     0.875     0.528  56.62   0
       379   1001.9678     81.4388 300.5047273 +22.7053192     2372.443     72.64552      1.417     2.41     4.431095     20.48507      335.402        25     1.159     0.988  85.72   0
       380    698.4976     75.4664 300.4120632 +22.6127692     762.7766     72.70095      1.263     2.73      4.79326     20.48507     89.13156        14     0.989     0.833 -69.31   0
       381    130.3797     74.9701 300.2354589 +22.4424337     3810.483     72.60854      1.484     2.56     4.491186     20.48507     418.9633        33     1.337     1.045  45.84   0
       382    552.9991     71.9755 300.3678829 +22.5681968     261.3931     72.55303      1.177     2.36     4.443536     20.48507     58.21489         5     0.896     0.366 -63.52   0
       383    456.2729     72.4610 300.3376181 +22.5393650     359.0686     72.64552      1.298     3.40     4.382014     20.48507     43.12379         5     0.743     0.450  21.26   0
       384    691.7253     67.2102 300.4126306 +22.6083679     775.6378     72.60854      1.195     2.15     4.841835     20.48507      132.578        11     0.884     0.709  75.89   0
       385    246.3521     67.0928 300.2740614 +22.4749290     1251.255     72.62703      1.422     2.74     4.383413     20.48507     131.3701        19     1.119     0.891  74.13   0
       386    657.2658     66.3043 300.4021905 +22.5977899     343.7009     72.71942      1.394     5.27     4.849407     20.48507     50.03682         8     0.949     0.825  40.19   0
       387    729.4966     61.6715 300.4261939 +22.6180838     739.4958     72.71942      1.626     5.14     4.714191     20.48507     74.52399        14     1.475     0.731  82.00   0
       388    652.9319     62.0154 300.4022313 +22.5952592     402.2675     72.60854      1.256     3.14      4.84457     20.48507     71.27347         9     0.922     0.720 -17.61   0
       389    749.5803     58.5688 300.4334577 +22.6232041     2126.288     72.60854      1.246     2.36     4.626842     20.48507     257.3355        19     1.042     0.897  54.16   0
       390    455.3948     56.6779 300.3424624 +22.5345667     405.2809     72.51601      1.287     3.60     4.396193     20.48507     65.39058         8     0.929     0.737  69.73   0
       391    132.7414     53.8455 300.2430419 +22.4370757      952.518     72.64552      1.490     3.18     4.394912     20.48507     99.95875        13     0.990     0.864  36.25   0
       392    924.4971     51.7332 300.4901980 +22.6735918     694.6438     72.70095      1.293     2.75     4.468946     20.48507     101.9998        11     0.880     0.804 -41.41   0
       393    697.8934     51.0466 300.4197931 +22.6055674     888.0214     72.62703      1.368     2.20      4.86715     20.48507     132.6865        14     0.990     0.891 -72.73   0
       394    405.1860     49.3730 300.3292076 +22.5174276     316.7103     72.62703      1.215     2.20     4.396692     20.48507     56.90104         5     0.727     0.419  23.96   0
       395    148.1691     43.8455 300.2510785 +22.4388280     290.7712       72.664      1.421     3.36     4.344371     20.48507     44.80472         5     0.778     0.521  39.49   0
       396    456.0669     43.2860 300.3470135 +22.5309197     294.4029     72.70095      1.236     3.88     4.409175     20.48507     49.53814         7     0.879     0.706  17.14   0
       397    282.9191     40.7427 300.2939747 +22.4783175      432.442     72.64552      1.459     2.90     4.383413     20.48507     51.80005         7     0.710     0.673  10.54   0
       398    550.4590     36.0535 300.3787391 +22.5571114     812.2555       72.664      1.256     3.06     4.465414     20.48507     109.3014        13     1.026     0.830  45.52   0
       399    782.6970     34.6878 300.4515204 +22.6262501     292.6386     72.79325      1.305     2.62     4.479451     20.48507     59.18174         6     0.870     0.456  85.62   0
       400    285.0999     34.2669 300.2967523 +22.4771106     318.7627     72.70095      1.508     4.08     4.383413     20.48507     34.31971         6     1.204     0.396 -61.27   0
       401    685.6895     33.6973 300.4216164 +22.5969256     313.4065     72.79325      1.148     2.15      4.95556     20.48507     53.35297         5     0.683     0.456  80.89   0
       402    159.9463     33.5980 300.2580608 +22.4394149     426.2736     72.55304      1.315     3.66     4.300715     20.48507     48.28355        10     0.898     0.815  10.97   0
       403    713.6300     30.7114 300.4312887 +22.6044317     778.6367     72.59004      1.320     2.97     4.882063     20.48507     103.0672        12     1.047     0.734  78.47   0
       404    522.1432     29.0162 300.3722057 +22.5466088     1907.828     72.59004      1.283     2.36     4.440403     20.48507     277.0771        16     1.031     0.783  57.68   0
       405    244.5928     26.5381 300.2866625 +22.4627532     689.2296     72.59004      1.366     2.91     4.383413     20.48507     101.8328        11     1.044     0.686  17.64   0
       406    479.4608     22.9073 300.3609008 +22.5320701      1284.63     72.68248      1.261     2.36      4.44713     20.48507     180.6399        18     1.025     0.902 -86.45   0
       407    110.0143   1022.5911 299.9212697 +22.7081269     1108.582     62.29619      6.895     8.29     28.77452     20.48507      53.1265        18     1.782     1.200  11.18  27
       408    180.4692     18.9386 300.2691918 +22.4413552     558.8311     72.64552      1.464     3.89     4.284542     20.48507     58.76416         8     0.824     0.708  15.45   0
       409    228.7823     16.4982 300.2850016 +22.4551318     497.3088     72.53452      1.334     4.52     4.383413     20.48507     64.44654         8     0.940     0.617  61.54   0
       410    202.7514   1018.9870 299.9512590 +22.7349451     722.2574     72.62703      2.032     4.39     9.664861     20.48507     64.12232        13     1.143     0.927  21.32  18
       411    491.4922   1019.2816 300.0409590 +22.8217116     414.6285     72.75635      1.538     4.34     2.898159     20.48507     37.41292         5     1.102     0.486 -30.46  16
       412    763.5302   1018.0095 300.1260793 +22.9029683     498.1386     72.59004      2.217     4.77     2.571876     20.48507     34.09842         5     1.069     0.603 -16.65  16
       413    519.8898   1015.5630 300.0510071 +22.8291677     1577.147     72.59004      1.711     3.60     2.910306     20.48507     121.4828        24     1.280     1.092  84.88  16
       414    108.6598   1014.0413 299.9236319 +22.7052705     748.4803     72.59004      5.385     5.78      26.7708     20.48507      39.0625         8     1.272     0.740  65.87  17
       415    413.8097   1012.0788 300.0191338 +22.7963306     1052.936     72.57154      1.650     4.07     2.871138     20.48507      84.8159        17     1.203     0.946  29.57   0
       416    344.3546   1010.1634 299.9981544 +22.7749322     6441.471     72.64552      1.678     3.27      3.10201     20.48507     614.7567        41     1.345     1.307  13.70   0
