#   1 NUMBER                 Running object number                                     
#   2 X_IMAGE                Object position along x                                    [pixel]
#   3 Y_IMAGE                Object position along y                                    [pixel]
#   4 ALPHA_J2000            Right ascension of barycenter (J2000)                      [deg]
#   5 DELTA_J2000            Declination of barycenter (J2000)                          [deg]
#   6 FLUX_APER              Flux vector within fixed circular aperture(s)              [count]
#   7 FLUXERR_APER           RMS error vector for aperture flux(es)                     [count]
#   8 FLUX_RADIUS            Fraction-of-light radii                                    [pixel]
#   9 FWHM_IMAGE             FWHM assuming a gaussian core                              [pixel]
#  10 BACKGROUND             Background at centroid position                            [count]
#  11 THRESHOLD              Detection threshold above background                       [count]
#  12 FLUX_MAX               Peak flux above background                                 [count]
#  13 ISOAREA_IMAGE          Isophotal area above Analysis threshold                    [pixel**2]
#  14 A_IMAGE                Profile RMS along major axis                               [pixel]
#  15 B_IMAGE                Profile RMS along minor axis                               [pixel]
#  16 THETA_IMAGE            Position angle (CCW/x)                                     [deg]
#  17 FLAGS                  Extraction flags                                          
         1     56.4909     18.7519 300.2318116 +22.4007398      1487.33     72.50632      1.544     2.75     5.219408     20.45103     182.1051        20     1.235     0.919  65.76   0
         2    883.8831      9.1599 300.4924190 +22.6457889     297.1128     72.45093      1.281     3.61     4.872873     20.45103     50.79137         5     0.778     0.537  36.13   0
         3    680.4024      5.0891 300.4303267 +22.5837141     236.1435     71.87598      1.178     3.43     5.657059     20.45103       39.059         5     0.750     0.454  72.00  16
         4    117.9117      1.2557 300.2565671 +22.4141249     383.9702     56.01043      0.901     2.16     6.122777     20.45103     140.8129         8     0.970     0.434   3.21  24
         5    701.1190   1019.2852 300.1072574 +22.8812260     309.1248     72.61699      1.847     5.36     3.448307     20.45103     29.70867         6     1.059     0.767  -8.21  16
         6    524.1891   1022.7371 300.0510461 +22.8291284     1384.885     61.45662      1.532     3.52     1.871426     20.45103     134.2723        18     1.163     0.970  14.81  24
         7    185.7375   1022.6284 299.9458239 +22.7274919     656.5278     62.02025      2.443     3.38     13.01291     20.45103     34.28138         5     1.165     0.284 -54.57  27
         8    193.4288   1022.5931 299.9482256 +22.7297916     848.0073     62.23568      3.845     6.44     11.46566     20.45103     41.81176        13     1.119     1.042  -0.41  27
         9    189.8171   1020.7980 299.9476876 +22.7281925     1020.051     69.64409      4.003     7.14       11.956     20.45103     35.24002        13     1.728     0.826  82.41  27
        10     73.9725   1018.3925 299.9124789 +22.6927109     2790.383     72.48786     14.552    35.44     24.93185     20.45103     77.84582       280     6.529     5.341 -25.19  27
        11     40.6399    996.0927 299.9093855 +22.6763098     3269.294     72.48786     11.980    47.97     19.99677     20.45103     72.40828       704    10.922     5.847 -37.13  19
        12    381.1315   1004.4627 300.0124860 +22.7809506     562.1539     72.54323      1.643     4.97     3.022276     20.45103     56.71066        11     1.140     0.933  66.58   0
        13    822.2710   1001.3328 300.1508483 +22.9124145     241.0921     72.52478      1.192     4.76     3.077677     20.45103     32.12953         6     0.949     0.678 -31.80   0
        14    894.9770    996.1306 300.1752038 +22.9327249     2104.399     72.50632      1.649     3.87     3.028638     20.45103     153.2501        26     1.271     1.188 -80.95   0
        15     81.2117    996.6669 299.9218000 +22.6886606     1143.149     72.48786      6.830     7.67     20.17294     20.45103     50.58518        13     2.094     0.786  48.94   3
        16    129.4520   1022.2867 299.9284458 +22.7104902     878.7876     63.72325      3.349     5.27     21.98013     20.45103     39.68811         8     1.215     0.645  57.03  26
        17    545.3029    993.5502 300.0671202 +22.8270936     443.8905     72.56168      1.843     4.58     2.122626     20.45103     38.76813         9     1.104     0.887  25.73   0
        18    393.2836    991.8739 300.0203641 +22.7809890      277.668     72.58012      1.402     3.51     2.994973     20.45103     35.31552         5     1.020     0.348  44.82   0
        19    577.5067    990.3455 300.0781880 +22.8358375     138.6684     72.54324      1.331     4.88     2.726502     20.45103     32.49591         6     0.961     0.702  20.49   0
        20    683.5794    984.5807 300.1130935 +22.8660075     676.5156     72.48786      1.826     6.90      3.33159     20.45103     45.32827        16     1.255     1.063  29.83   0
        21   1010.7231    983.8418 300.2152965 +22.9639002     369.6818     72.45093      1.635     5.73     3.231397     20.45103     32.66164         8     0.997     0.927 -34.48   0
        22    718.7866    978.9978 300.1258772 +22.8749668     1021.923      72.3215      1.571     3.06     3.263043     20.45103      98.9182        16     1.024     0.979 -84.02   0
        23    495.8414    979.9940 300.0561396 +22.8083630     422.5891     72.52478      1.426     4.28     2.261551     20.45103     43.86216         7     1.136     0.460  33.46   0
        24    740.8195    972.8753 300.1347339 +22.8798188     11266.84     72.48786      1.563     3.07     3.215959     20.45103      970.256        51     1.337     1.264  70.33   0
        25    786.2838    972.6166 300.1489830 +22.8933805     520.9017     72.45093      1.482     5.38     3.145511     20.45103     53.41977        10     1.376     0.594  70.31   0
        26    931.5898    972.4146 300.1943395 +22.9368952     505.9138     72.39548      1.558     5.70     3.163121     20.45103     46.91528        13     1.208     0.902 -67.74   0
        27    873.6533    966.4641 300.1782148 +22.9178154     331.6466     72.52478      1.687     5.67     2.964296     20.45103     40.95783         7     1.188     0.763  26.53   0
        28    439.8608    966.8110 300.0430123 +22.7877821     12142.55     72.43245      0.570     0.98     2.767794     20.45103     7699.428         7     0.458     0.339 -60.85   0
        29     52.1421    964.4513 299.9232571 +22.6706989     493.5763     72.54323      1.748     5.08     12.47215     20.45103     51.86783        11     1.298     0.882  13.74   0
        30    445.9976    961.0189 300.0468069 +22.7879628     634.0492     72.41397      1.728     3.87     2.761215     20.45103     53.71637         9     0.891     0.783   7.82   0
        31    749.1163    954.9525 300.1431530 +22.8771641     1447.179     72.48786      1.539     3.34     3.152748     20.45103     132.6452        19     1.154     1.040  57.77   0
        32    793.0224    960.8334 300.1549186 +22.8920199     505.4435     72.48786      1.487     5.18     3.119546     20.45103     48.01067        11     1.128     0.853  48.97   0
        33    932.3536    953.6933 300.2006722 +22.9317498     331.8998     72.50632      1.320     6.03     3.179556     20.45103     38.86521        10     1.239     0.826 -24.32   0
        34    601.2750    952.3071 300.0979702 +22.8320572     525.2438     72.65385      1.717     4.08     2.923628     20.45103     41.99872        10     1.025     0.709 -38.97   0
        35    787.3160    948.3371 300.1572083 +22.8867221     758.8653     72.58012      1.523     3.41     3.107347     20.45103      72.5325        12     1.023     0.850  -7.54   0
        36    896.1235    945.3425 300.1920951 +22.9184900     453.2298     72.52478      1.647     5.79      3.05332     20.45103     34.94229        11     1.106     0.853   9.93   0
        37    835.7402    939.5565 300.1751568 +22.8987234     535.5313     72.48786      1.455     3.89     3.003385     20.45103     55.42008        12     0.938     0.908  59.05   0
        38    687.3323    938.7347 300.1291862 +22.8539789     662.9637     72.54324      1.404     2.99      3.12383     20.45103     85.61236        12     0.957     0.824 -25.70   0
        39    698.5167    935.8679 300.1336029 +22.8565110     539.0836     72.59856      1.536     4.56     3.108547     20.45103      56.7935        14     1.153     0.917  61.45   0
        40    399.7786    935.1850 300.0408370 +22.7666833     4068.295      72.4694      1.474     2.91      3.19906     20.45103     446.1727        30     1.190     1.138  78.55   0
        41    443.5939    923.3496 300.0583197 +22.7764384     375.6843      72.4694      1.708     5.23     3.042389     20.45103     36.76648         8     1.336     0.578  63.73   0
        42    178.1669    924.1453 299.9755277 +22.6969931     274.7144     72.50632      1.383     3.21      4.04443     20.45103     49.77108         6     0.884     0.489  30.92   0
        43     42.6490   1016.4351 299.9033873 +22.6827412     4757.721     72.52478     13.475    51.20     24.75995     20.45103     87.68768       756    12.573     5.787 -12.38  27
        44     42.4525    923.1310 299.9336955 +22.6559489     276.3582     72.48786      1.611     4.57     3.964204     20.45103      28.4835         6     1.027     0.578  26.17   0
        45    124.9614    921.0712 299.9599958 +22.6801363     888.7089     72.45093      1.698     3.96     4.704772     20.45103     90.53974        14     1.225     0.845 -43.11   0
        46    102.2354    918.1541 299.9538848 +22.6724760     1568.511     72.52478      1.663     3.61     5.000803     20.45103     167.6416        25     1.304     1.115  51.49   0
        47     33.9538    919.6983 299.9321731 +22.6524129     412.9356     72.52478      1.646     4.49     3.770747     20.45103     50.14804         7     1.041     0.550 -55.62   0
        48    730.1364    913.9663 300.1505808 +22.8597096     302.6347     72.48786      1.505     3.21     3.077248     20.45103     38.60643         5     0.907     0.622  57.64   0
        49    973.9492    906.8051 300.2289046 +22.9307572      2023.24      72.4694      1.547     3.48     3.284078     20.45103     159.3771        26     1.229     1.131 -82.89   0
        50    928.1465    905.1906 300.2151478 +22.9165634     2064.006     72.48786      1.548     3.37     3.212434     20.45103     171.8927        23     1.222     1.049  84.71   0
        51    633.6054    905.4271 300.1232950 +22.8283059     479.9995      72.4694      1.523     2.67     2.913216     20.45103     67.17897         6     0.964     0.494  -0.93   0
        52    405.0420    905.2574 300.0522141 +22.7596804     126.4238      72.4694      1.244     3.08     3.337992     20.45103     34.12429         5     0.784     0.496 -56.15   0
        53    711.6434    899.1861 300.1496303 +22.8499216     564.6199     72.50632      1.522     3.70     3.063214     20.45103     57.83802        12     0.958     0.849 -19.25   0
        54    134.2918    898.8460 299.9701271 +22.6765680     464.6419     72.48786      1.837     4.19     4.165955     20.45103     58.78574         7     1.143     0.674  37.61   0
        55    579.7994    893.2463 300.1105064 +22.8086704     4814.459     72.48786      1.434     2.62     2.784955     20.45103     553.4265        30     1.128     1.111  79.20   0
        56     69.2899    893.6659 299.9516192 +22.6555648     392.3717     72.59856      1.553     5.59     4.079506     20.45103      49.3715         8     1.465     0.602  49.53   0
        57    382.0460    890.3829 300.0499013 +22.7485134     698.8542     72.50632      1.378     3.76     3.487736     20.45103      76.8536        12     1.071     0.876 -11.72   0
        58    130.0729    887.3703 299.9725504 +22.6720120      1419.77     72.48786      1.651     3.24      3.97967     20.45103     133.7047        21     1.186     1.036  14.77   0
        59    600.3378    885.6486 300.1193731 +22.8126516     665.5084     72.54324      1.350     2.90     2.818001     20.45103     77.13838        12     0.892     0.835 -27.50   0
        60    398.9140    884.9977 300.0569006 +22.7520310      211.446     72.41397      1.227     4.14     3.466755     20.45103     38.78312         7     0.897     0.547  38.41   0
        61    149.0817    884.2374 299.9794760 +22.6768214     333.3889     72.45093      1.276     4.09     3.809303     20.45103     50.26079         7     0.882     0.706   5.61   0
        62    517.1094    876.5789 300.0964165 +22.7850814     350.6416     72.41397      1.295     4.21     2.880298     20.45103     45.11744         7     0.847     0.713  73.83   0
        63    238.0056    876.8087 300.0095295 +22.7013879     628.5388        72.34      0.480     0.83     3.571196     20.45103     396.0279         5     0.441     0.345 -43.67   0
        64    972.8975    873.0608 300.2395584 +22.9207522     1159.404     72.56168      1.652     3.93     3.290575     20.45103     101.4175        21     1.271     1.095  73.88   0
        65    755.8354    872.9481 300.1719357 +22.8556440     4105.023     72.50632      1.414     2.77     3.079532     20.45103     470.9916        28     1.132     1.084  65.05   0
        66    787.8016    874.4547 300.1814054 +22.8656618     220.5341     72.41397      1.311     4.19     3.079532     20.45103     36.56752         5     1.094     0.498   0.77   0
        67   1011.1873    872.8748 300.2515607 +22.9321751     318.0693     72.50632      1.457     3.81     3.334776     20.45103     38.81948         5     1.094     0.651 -11.30   0
        68    487.1839    870.0117 300.0892402 +22.7742191     301.2021     72.43245      1.631     3.81     3.003143     20.45103     26.47451         5     0.817     0.509 -31.73   0
        69    164.4559    867.3596 299.9897448 +22.6765991      592.904      72.4694      1.573     4.87     3.563207     20.45103     56.95878        14     1.322     0.888  56.14   0
        70    472.8090    865.5165 300.0862297 +22.7686167     631.2633     72.43245      1.467     3.08      3.09895     20.45103     79.50118        11     1.071     0.678  42.25   0
        71    119.1063    863.7452 299.9768299 +22.6619476     943.3984     72.54323      1.563     3.24     3.570196     20.45103     94.36534        16     1.051     0.987  83.10   0
        72    534.5371    859.0513 300.1075439 +22.7852814     527.7451     72.54323      1.403     3.78     2.914967     20.45103      55.3664        11     0.952     0.840  41.40   0
        73    268.8448    855.6714 300.0259937 +22.7045844     53002.04     72.45093      1.501     2.80      3.51753     20.45103     5750.055        95     1.378     1.343  55.93   0
        74    526.7007    854.6671 300.1065313 +22.7816727     1643.279     72.58012      1.397     2.56     2.973253     20.45103     187.7737        19     1.049     0.978 -83.82   0
        75    940.0760    853.9005 300.2355585 +22.9054122     883.5236     72.61699      1.565     3.57     3.318363     20.45103     91.96272        13     1.037     0.920   3.04   0
        76    197.5933    853.6549 300.0045018 +22.6826184     486.5806     72.48786      1.411     4.36     3.540619     20.45103     52.68159        11     1.297     0.790  -4.40   0
        77    555.7112    850.5139 300.1169125 +22.7891839     852.0381     72.65385      1.314     2.69     2.960917     20.45103     109.8382        13     0.903     0.872  73.76   0
        78    566.6973    849.2299 300.1207502 +22.7921110     694.3595     72.43245      1.387     4.03     2.979901     20.45103     84.87679        13     1.170     0.743  38.35   0
        79    887.2474    846.4714 300.2215052 +22.8874432     309.8183      72.4694      1.442     4.80     3.299477     20.45103     33.42041         6     0.963     0.679 -61.96   0
        80    671.9551    845.3743 300.1547790 +22.8225754     434.5204     72.50632      1.288     3.87     3.127765     20.45103     46.47025         7     0.768     0.633   0.75   0
        81    709.7075    835.4589 300.1697638 +22.8310511     871.6255     72.54323      1.451     2.94     3.170948     20.45103     89.95148        15     1.071     0.856  78.32   0
        82    318.5208    832.8818 300.0488536 +22.7129586     30966.73     72.61699      1.444     2.56     3.574988     20.45103     4018.709        71     1.316     1.240  67.52   0
        83    332.7891    833.4225 300.0531147 +22.7173957     2009.053     72.48786      1.576     2.61     3.606754     20.45103     225.5644        23     1.125     1.056  59.27   0
        84    207.8671    831.6228 300.0148625 +22.6793858     229.9106      72.4694      1.287     2.60     3.538167     20.45103     38.43008         5     0.725     0.443  20.01   0
        85    841.6562    828.6060 300.2131069 +22.8686463     2847.674      72.4694      1.491     2.72     3.255352     20.45103     306.0487        25     1.123     1.069  82.05   0
        86    329.4938    827.3486 300.0540659 +22.7146648     749.1626     72.56168      1.673     3.32     3.597789     20.45103     79.27268        13     1.083     0.865  57.70   0
        87    870.9934    826.5336 300.2229254 +22.8768459     308.8999     72.48786      1.412     3.07     3.324811     20.45103     31.82052         6     0.779     0.499   1.16   0
        88    599.5093    824.6479 300.1389630 +22.7948994     1047.327     72.48786      1.436     2.61     3.207714     20.45103     135.8534        13     0.907     0.866 -71.95   0
        89    435.9876    824.6556 300.0880669 +22.7458476     348.1803     72.48786      1.206     2.77     3.480122     20.45103     52.16651         7     0.879     0.631  85.21   0
        90    201.1173    824.6397 300.0150363 +22.6753575     651.8474     72.45093      1.344     3.46     3.534462     20.45103     79.37181        13     1.037     0.834  41.11   0
        91    446.4885    819.5963 300.0929799 +22.7475468     911.8652     72.39548      1.345     2.81     3.452824     20.45103     116.8141        16     1.046     0.910  18.17   0
        92      5.9269    820.3806 299.9557825 +22.6155347     410.3106     72.48786      1.615     3.61     3.569048     20.45103     54.36749         7     0.980     0.584 -22.77  16
        93    847.7903    816.2086 300.2190521 +22.8669257      429.705       72.377      1.226     2.79     3.296804     20.45103     67.21091         8     0.818     0.639  54.13   0
        94    348.9630    815.7932 300.0638798 +22.7171932     344.0539     72.50632      1.137     2.94     3.643111     20.45103     47.87749         7     0.886     0.592 -74.99   0
        95    305.1016    815.2656 300.0504116 +22.7038793      274.679     72.58012      1.200     2.44     3.543888     20.45103      53.6939         7     0.805     0.574 -31.64   0
        96    392.4593    814.4120 300.0778579 +22.7298488     485.9528      72.4694      1.262     2.98     3.599405     20.45103      69.7829         7     0.812     0.662 -15.88   0
        97     34.7885    814.0832 299.9667940 +22.6223962     465.0003     72.45093      1.342     2.69     3.570887     20.45103     68.45478         7     0.833     0.576  72.23   0
        98    825.8300    811.0666 300.2138806 +22.8588660     384.6352     72.48786      1.412     3.05     3.260605     20.45103     49.46508         7     0.798     0.682 -31.12   0
        99    199.0088    808.9728 300.0194773 +22.6702326     552.3201     72.48786      1.246     2.55     3.529855     20.45103     73.00738         7     0.805     0.557 -47.38   0
       100    521.7691    799.3282 300.1229997 +22.7643157     439.7761     72.48786      1.152     2.37     3.442225     20.45103     83.63844         9     0.932     0.612  -6.23   0
       101    491.3227    797.7211 300.1140469 +22.7547214     697.4127     72.59856      1.377     2.81     3.449482     20.45103     87.06521        12     1.028     0.747 -44.12   0
       102    401.0581    796.6583 300.0863078 +22.7273362     310.6811     72.56168      1.213     2.72     3.596235     20.45103     54.11001         7     0.722     0.659   1.08   0
       103    511.9468    795.5714 300.1211647 +22.7602914     3488.373     72.50632      1.232     5.79     3.452985     20.45103     2176.461        19     1.505     0.626 -25.92   0
       104    908.0172    793.8264 300.2451079 +22.8785518     4430.848     72.50632      1.396     2.71     3.532717     20.45103     537.9853        26     1.106     1.053  84.69   0
       105    433.2333    794.6527 300.0969699 +22.7364143     327.6428     72.50632      1.232     3.75      3.55411     20.45103     46.72501        10     0.954     0.719  31.69   0
       106    595.0366    789.9822 300.1488474 +22.7836098     396.6706     72.48786      1.435     3.64     3.447817     20.45103       47.279         5     0.672     0.566   0.29   0
       107    896.4778    785.2796 300.2442906 +22.8726387     1581.774     72.59856      1.399     2.63     3.489121     20.45103     170.2074        18     1.039     0.941 -69.09   0
       108    275.6167    780.2235 300.0526423 +22.6849812     223.5153     72.48786      1.074     3.76     3.496441     20.45103     30.32433         5     1.000     0.406   5.92   0
       109    259.5483    779.3522 300.0479300 +22.6799090     800.2336     72.52478      1.299     2.70     3.501252     20.45103     116.4389        11     0.898     0.805  29.56   0
       110    722.9620    776.6307 300.1930302 +22.8181389     2693.613     72.48786      1.406     2.50     3.352376     20.45103     341.2312        26     1.335     0.952  13.35   0
       111    927.6196    775.3013 300.2572457 +22.8791067     1600.684     72.41397      1.293     2.41     3.609303     20.45103     189.5672        21     1.246     0.889  73.36   0
       112    108.3113    763.2350 300.0061702 +22.6298938     554.4036      72.4694      1.277     3.33     3.645471     20.45103      88.5175        10     1.023     0.719  63.66   0
       113    805.0352    762.2302 300.2232861 +22.8386100     590.2217     72.50632      1.425     2.99     3.381555     20.45103     73.01946        10     0.891     0.774  46.96   0
       114    841.2673    753.5120 300.2374137 +22.8469674     146670.1     72.59856      1.338     2.39     3.397059     20.45103     18455.04       165     1.445     1.317  73.04   0
       115    603.6432    757.3431 300.1621433 +22.7768236      323.817     72.45093      1.045     3.75     3.476767     20.45103     55.76538         5     0.827     0.488 -44.74   0
       116    988.2914    755.2867 300.2826757 +22.8915400     1231.863     72.65385      1.422     2.93      3.61298     20.45103     125.0762        16     1.066     0.847  35.71   0
       117    693.6272    753.8285 300.1913090 +22.8027975     812.3947     72.45093      1.291     2.41     3.454338     20.45103     92.72049        12     0.904     0.747  39.05   0
       118    874.0554    746.2833 300.2499849 +22.8547191     418.8502     72.56168      1.360     2.86     3.422933     20.45103     57.44371         7     0.763     0.595 -17.73   0
       119    527.4501    742.5986 300.1432194 +22.7497410     1581.998      72.4694      1.199     2.27     3.594245     20.45103     209.3506        18     1.021     0.914  87.49   0
       120    173.4164    744.2455 300.0325754 +22.6439913     192.4377     72.50632      1.273     3.41     3.463288     20.45103     28.64514         5     0.774     0.434  68.55   0
       121    708.7517    739.7059 300.2006133 +22.8032779     9245.392     72.50632      1.250     2.15     3.475206     20.45103     1438.855        37     1.086     1.025  65.17   0
       122    190.0220    741.1978 300.0387271 +22.6481013      269.898     72.43245      1.477     3.82     3.461331     20.45103     31.37416         5     0.817     0.513 -56.73   0
       123    210.2623    735.0007 300.0470332 +22.6523986     4912.884     72.45093      1.403     2.49     3.470596     20.45103     639.7622        29     1.128     1.088  46.90   0
       124    292.3910    733.0638 300.0731949 +22.6764889     1203.728      72.4694      1.389     2.59     3.465327     20.45103       150.79        14     0.981     0.820  42.41   0
       125    168.0402    730.4391 300.0353942 +22.6384187     434.5466     72.56168      1.326     3.53     3.508624     20.45103     65.87463        10     1.116     0.716  69.24   0
       126    500.5372    728.4921 300.1394306 +22.7376209     698.8997     72.59856      1.146     2.30     3.760113     20.45103     100.9519        12     0.911     0.725 -68.56   0
       127    492.1752    720.6422 300.1393809 +22.7328601     3161.487     72.54323      1.234     2.26     3.846827     20.45103     429.9281        21     1.005     0.891  48.33   0
       128    482.4711    714.2969 300.1384244 +22.7281287     1497.148     72.59856      1.211     2.09     3.930626     20.45103     204.4344        16     1.078     0.778  58.15   0
       129    876.1105    711.9855 300.2617798 +22.8454848     455.6996     72.43245      1.023     2.47     3.565995     20.45103     82.17221         6     0.716     0.562  52.44   0
       130    145.7451    710.8530 300.0348347 +22.6261108     896.3228     72.52478      1.674     3.50     3.695627     20.45103      83.2145        18     1.190     0.995 -18.81   0
       131    392.9633    711.4736 300.1114936 +22.7004695     183.9897     72.43245      1.215     3.72     3.813921     20.45103     37.16071         6     0.797     0.499   2.53   0
       132    160.2040    709.2200 300.0398586 +22.6299820     640.5585     72.45093      1.356     3.77     3.668705     20.45103     67.87861        12     1.118     0.761 -44.60   0
       133    929.0699    705.3088 300.2804620 +22.8594377     404.2249     72.61699      1.290     3.25     3.692843     20.45103     63.21451         9     0.966     0.722 -39.13   0
       134    407.3249    704.1470 300.1183436 +22.7026756     1725.049     72.50632      1.271     2.22     3.909693     20.45103     248.9355        18     1.049     0.840  66.23   0
       135    185.4060    705.6389 300.0488551 +22.6365186      600.885     72.52478      1.397     3.26     3.676422     20.45103     69.27209        13     0.983     0.902 -67.69   0
       136    506.5910    704.7974 300.1490197 +22.7326367     418.3771     72.28448      1.212     2.32     3.989748     20.45103      66.4677         7     0.721     0.627  75.11   0
       137     61.2096    699.2669 300.0123386 +22.5974148      19841.6     72.48786      1.500     2.67     3.929651     20.45103     2294.821        61     1.373     1.266  54.51   0
       138    441.4044    703.3215 300.1292146 +22.7126614     244.7948     72.39548      1.110     2.72     3.984962     20.45103     59.78018         7     0.898     0.510  31.53   0
       139    983.0127    701.2823 300.2985928 +22.8744445     894.0276      72.4694      1.352     2.84     3.759431     20.45103     116.6209        13     0.928     0.862 -32.94   0
       140    492.2042    699.3563 300.1463115 +22.7267604     996.9597     72.50632      1.252     2.50     4.065986     20.45103      128.115        12     0.858     0.815   0.85   0
       141    527.3397    698.5599 300.1575057 +22.7370693     368.2197     72.48786      1.233     3.25     4.034766     20.45103     46.75358         7     0.898     0.540 -58.44   0
       142    216.3006    705.9518 300.0583556 +22.6458798     262.7693     72.52478      1.208     3.04       3.6612     20.45103      51.7012         6     0.874     0.478 -49.89   0
       143    245.5223    691.2694 300.0722130 +22.6504374     369.6796     72.59856      1.529     4.07     3.668263     20.45103     44.61987         7     0.947     0.548  34.56   0
       144    910.1461    685.4825 300.2810086 +22.8480720     1087.929     72.52478      1.271     2.36     3.730693     20.45103     153.2729        13     0.883     0.821 -81.44   0
       145      7.2060    683.5445 300.0006776 +22.5766960     1498.442      72.4694      1.876     4.72     3.982074     20.45103     107.4722        22     1.438     1.020 -79.40  16
       146    777.0016    683.5963 300.2401225 +22.8076270     412.7963     72.26596      1.229     2.52     3.625623     20.45103     68.22534         7     0.971     0.517  65.06   0
       147     73.6194    683.8054 300.0212202 +22.5967068     420.7785     72.45093      1.544     3.42     3.943971     20.45103      62.5497         7     1.217     0.619  37.00   0
       148    455.3488    680.1813 300.1410772 +22.7102037      401.283      72.4694      1.208     3.34     4.200694     20.45103     56.50758         9     0.940     0.702 -41.57   0
       149    850.3403    677.9933 300.2648000 +22.8279986     982.4423     72.45093      2.040     2.92     3.737243     20.45103     104.1782        11     1.047     0.683  50.26   0
       150    248.1594    679.2786 300.0769312 +22.6477893     277.9547      72.4694      1.307     4.29     3.713096     20.45103      32.6489         7     1.283     0.409  25.18   0
       151    594.6355    676.6862 300.1855671 +22.7509711     277.6281      72.4694      1.219     2.70     3.944314     20.45103     40.93346         5     0.708     0.462  75.37   0
       152    412.3447    672.4492 300.1302112 +22.6950862     828.3818     72.52478      1.221     2.44     4.145699     20.45103     100.8289        11     0.904     0.711  75.10   0
       153    560.2513    670.5366 300.1768618 +22.7388956     508.1225     72.54323      1.302     2.66     4.222867     20.45103     69.01241         8     0.904     0.585 -74.89   0
       154    607.5508    669.3336 300.1919789 +22.7527329     360.4962      72.4694      0.961     1.92     3.909754     20.45103     85.27742         6     0.726     0.489  43.20   0
       155    577.9539    668.6604 300.1829828 +22.7436653     562.3904     72.52478      1.326     2.48     4.107533     20.45103     103.7543        10     0.946     0.646  68.03   0
       156    456.5999    668.1034 300.1453933 +22.7071129     1008.365     72.35851      1.380     2.34     4.277087     20.45103     127.6216        12     0.987     0.744 -22.99   0
       157    643.2146    667.4047 300.2037114 +22.7628719     181.4798     72.35851      0.999     2.20     3.734303     20.45103     43.78259         5     0.695     0.453  21.08   0
       158    890.2498    663.5669 300.2819314 +22.8358146     3312.452     72.52478      1.228     2.15     3.774068     20.45103     478.6284        25     1.057     0.976  -4.99   0
       159    421.9819    663.6276 300.1360774 +22.6954454     1817.468     72.48786      1.219     2.12     4.196582     20.45103      291.495        16     0.981     0.809  83.05   0
       160    988.1658    661.7757 300.3130459 +22.8646382     622.0821     72.50632      1.193     2.55     3.882654     20.45103     100.4255         9     0.886     0.642  13.72   0
       161    787.0689    660.6872 300.2507080 +22.8040655     292.6264     72.61699      1.427     4.22     3.742498     20.45103     34.71285         7     0.752     0.674  -8.36   0
       162    397.5247    658.8180 300.1300324 +22.6867294     304.4742     72.48786      1.367     3.47     4.115404     20.45103     54.91443         6     0.944     0.581  15.00   0
       163    929.5290    653.3587 300.2974968 +22.8446518     484.4928     72.45093      1.231     3.67      3.77457     20.45103     70.71183         9     0.993     0.730 -46.52   0
       164    451.0933    654.2575 300.1481811 +22.7014879      305.325     72.54323      1.392     3.20     4.293011     20.45103     51.89587         6     0.886     0.456  38.80   0
       165    285.4213    650.4584 300.0978852 +22.6507018     9085.174     72.48786      1.250     2.26     3.654601     20.45103     1120.219        37     1.114     1.062  79.29   0
       166    407.8345    647.4503 300.1369351 +22.6865598     9029.037     72.50632      1.252     2.15     4.183176     20.45103     1294.573        34     1.092     1.004  64.20   0
       167    812.4506    644.8849 300.2637552 +22.8071340      173.587      72.4694      0.948     3.59      3.79616     20.45103     45.56316         5     0.856     0.552  44.16   0
       168    173.0079    645.0726 300.0646921 +22.6154277     324.0589      72.4694      1.389     3.46     3.929355     20.45103     38.08539         7     0.855     0.652  64.12   0
       169   1012.4465    642.5918 300.3268561 +22.8664001       862.97     72.50632      1.304     2.53     3.927379     20.45103     110.2198        14     1.022     0.813  53.84   0
       170    654.1929    643.7930 300.2148065 +22.7593842     305.7962        72.34      1.253     2.86     3.864513     20.45103     49.43522         6     0.750     0.545 -52.06   0
       171    819.5153    641.2888 300.2671259 +22.8082184     1774.575     72.61699      1.184     2.22     3.800172     20.45103     254.4556        18     1.008     0.837  72.88   0
       172     52.3478    643.2955 300.0277815 +22.5787064     141.0045     72.56168      1.048     3.50     3.949434     20.45103     41.01366         5     1.182     0.298 -36.94   0
       173    904.1498    638.5889 300.2943855 +22.8328043     12327.66     72.52478      1.290     2.22     3.776002     20.45103     1852.674        43     1.176     1.044  80.72   0
       174    468.4285    637.0228 300.1591779 +22.7017406     11233.67     72.48786      1.217     2.02     4.378823     20.45103     1643.414        37     1.101     0.982  70.54   0
       175    637.9771    632.6898 300.2133661 +22.7513349     441.5077     72.41397      1.118     1.80     4.026617     20.45103      87.9006         7     0.661     0.621 -23.19   0
       176    195.8948    632.4520 300.0759075 +22.6186753     1301.854     72.56168      1.298     2.16     3.930415     20.45103     199.2878        16     0.949     0.866  82.66   0
       177    353.8274    631.6077 300.1252855 +22.6658143     355.6919     72.48786      1.071     2.43     4.053876     20.45103     54.55519         5     0.707     0.455  19.15   0
       178    442.8133    630.0538 300.1534728 +22.6920584     484.2631     72.48786      1.207     2.55     4.323032     20.45103     77.69849         8     0.802     0.633  45.78   0
       179    400.1645    625.2663 300.1417602 +22.6778933       4345.3     72.48786      1.235     2.03     4.210496     20.45103     689.7811        30     1.062     1.010  58.59   0
       180    742.8441    625.1132 300.2484931 +22.7805940     710.6144      72.4694      1.168     2.35     4.073893     20.45103     125.0794         9     0.816     0.664  32.74   0
       181    378.3396    623.6715 300.1354895 +22.6708895     1250.362     72.52478      1.246     2.28     4.153726     20.45103     167.6798        17     0.970     0.921  70.30   0
       182    132.6925    623.1544 300.0592885 +22.5970433     793.9717     72.50632      1.346     2.44     3.937246     20.45103     122.5865        13     1.036     0.744 -28.55   0
       183    819.9028    620.4054 300.2740355 +22.8023361     1641.611     72.39548      1.349     2.53     3.834316     20.45103     213.0509        19     1.004     0.964 -57.09   0
       184     66.8604    619.9437 300.0398795 +22.5763660     244.4719     72.56168      1.467     5.09      3.93709     20.45103     28.14495         9     1.005     0.729  79.53   0
       185    516.7053    612.7269 300.1820996 +22.7092439     201171.1     72.63542      1.204     1.96     4.391901     20.45103     34090.42       200     1.383     1.343  57.36   0
       186    340.6062    618.7354 300.1253576 +22.6581549      287.297     72.45093      1.057     2.20     4.053033     20.45103     54.80202         5     0.715     0.424  65.12   0
       187    700.2515    617.2851 300.2377691 +22.7655795      803.668     72.48786      1.223     2.44     4.087607     20.45103     133.4979        11     0.832     0.805 -27.03   0
       188    904.6559    614.0394 300.3025238 +22.8259032     227.7041     72.48786      1.238     3.38     3.778197     20.45103     39.33183         5     0.784     0.421 -70.61   0
       189    202.7787    612.7760 300.0844424 +22.6150968     3482.529     72.48786      1.337     2.44     3.947386     20.45103      492.907        26     1.109     1.000  70.58   0
       190    477.9410    613.4733 300.1697929 +22.6978341     210.7393     72.52478      1.301     3.74     4.466822     20.45103     33.53265         6     0.817     0.493  -7.01   0
       191    382.6025    609.0618 300.1415641 +22.6679757     371.7271      72.4694      1.629     4.45     4.215723     20.45103     34.98021         6     0.833     0.675 -64.64   0
       192    768.4482    608.3759 300.2619112 +22.7834608     517.8531     72.48786      1.383     2.61     4.096266     20.45103      72.3809         6     0.670     0.638  18.01   0
       193    787.2133    606.9519 300.2682214 +22.7886756     176.4464     72.50632      1.099     3.77     3.982677     20.45103      36.3047         5     0.829     0.493 -30.17   0
       194    547.8955    598.9632 300.1962818 +22.7146448     303.0363     72.48786      1.405     4.99     4.330085     20.45103     39.96007         7     1.106     0.638  46.70   0
       195    407.3388    592.9829 300.1544850 +22.6707802     2836.245     72.45093      1.301     2.13     4.255003     20.45103     403.5952        23     1.115     0.854  63.10   2
       196    251.4603    595.4762 300.1051977 +22.6247394      265.893     72.54324      1.057     2.76     3.912439     20.45103     66.56862         7     0.824     0.604  73.03   0
       197    857.2718    592.8535 300.2946385 +22.8056194     342.0889     72.48786      1.495     4.29     3.895081     20.45103     33.77621         6     0.952     0.551 -22.48   0
       198    819.0936    589.0596 300.2839721 +22.7930897     440.1663     72.58012      1.334     2.92     4.000757     20.45103     55.73938         7     0.835     0.665  69.35   0
       199    638.0239    588.5526 300.2277270 +22.7386758      291.419     72.50632      1.073     2.66     4.265303     20.45103     46.30362         6     0.763     0.497  -1.76   0
       200    837.4607    584.5781 300.2911532 +22.7973059     300.7797     72.45093      1.548     4.21     3.988733     20.45103     36.44082         6     1.122     0.451 -11.28   0
       201    724.3409    581.4781 300.2569117 +22.7625165     262.1706     72.52478      0.968     2.54     4.328494     20.45103     56.50798         5     0.687     0.460  22.41   0
       202    804.2131    579.0469 300.2825888 +22.7857544      1647.09     72.50632      1.237     2.08     4.112208     20.45103     271.3708        19     0.955     0.896 -88.66   0
       203    691.0391    579.4969 300.2471817 +22.7519664      415.871      72.4694      1.234     2.29     4.244524     20.45103     50.14246         6     0.741     0.491   9.92   0
       204    675.5390    576.8320 300.2432199 +22.7465553     2475.812     72.52478      1.172     1.86     4.211317     20.45103     390.1248        22     1.028     0.895  76.76   0
       205     35.4086    576.8146 300.0441266 +22.5545586     211.7164     72.39548      1.153     5.31     3.927362     20.45103     35.92045         8     0.968     0.824 -89.78   0
       206    919.8745    573.8610 300.3203281 +22.8189190      528.846     72.52478      1.371     1.97     3.839846     20.45103     85.73887         8     0.747     0.640 -43.88   0
       207    580.3682    573.2465 300.2147490 +22.7169971     475.1835     72.52478      1.347     2.89     4.360203     20.45103     68.02067         8     0.894     0.601  71.79   0
       208    884.8614    572.9739 300.3097002 +22.8081744     340.1416     72.48786      1.308     4.30     3.937397     20.45103     48.03076         5     0.784     0.671 -84.65   0
       209    462.6647    572.7205 300.1782841 +22.6815557     822.8705     72.59856      1.120     2.27     4.373471     20.45103       123.71        10     0.780     0.765 -88.22   0
       210    932.8486    570.5836 300.3254387 +22.8218640     1239.486     72.52478      1.242     2.22     3.824085     20.45103     212.2179        14     0.888     0.815 -74.96   0
       211    918.4742    569.6660 300.3212549 +22.8172941     765.2147     72.54324      1.335     2.72     3.853147     20.45103     95.14048        12     0.878     0.859  39.54   0
       212    804.5865    568.9856 300.2859751 +22.7829761     2292.426     72.41397      1.457     3.59     4.188442     20.45103     307.6295        26     1.588     0.868  77.05   0
       213    558.0389    567.6153 300.2096275 +22.7086861      486.455     72.50632      1.089     2.42     4.348656     20.45103     79.27483         8     0.899     0.540  43.81   2
       214    557.5113    563.1323 300.2109201 +22.7072408     374.2798     72.63542      1.378     3.05     4.351389     20.45103      55.7606         8     0.947     0.596  68.83   3
       215    343.7734    567.0360 300.1431449 +22.6442694     187.5552     72.50632      0.892     2.69     3.952961     20.45103     49.16386         5     0.786     0.469 -27.39   0
       216    842.6809    564.1967 300.2994042 +22.7930149      4172.12     72.39548      1.186     2.12     4.110739     20.45103     631.7851        26     1.005     0.951  63.68   0
       217    396.5194    566.1223 300.1598485 +22.6598264     394.5741     72.59856      1.172     2.24     4.185556     20.45103     58.62988         6     0.735     0.499 -87.36   0
       218    483.7956    563.9994 300.1876939 +22.6853884      289.041     72.30299      1.240     3.63     4.385357     20.45103     42.27338         5     0.805     0.496  34.44   0
       219    580.5826    561.0951 300.2187647 +22.7135725     300.3262     72.41397      1.236     2.09     4.372576     20.45103     44.95428         5     0.687     0.453 -67.98   0
       220    503.6394    560.1042 300.1951355 +22.6902200     343.7069      72.4694      1.118     2.73     4.365383     20.45103     55.35829         7     0.717     0.664  77.10   0
       221     74.8508    555.1680 300.0634120 +22.5601870     902.5663     72.52478      1.401     3.52     3.931688     20.45103     102.4584        17     1.120     0.995  -3.86   0
       222    934.3675    554.5724 300.3311158 +22.8177182     741.7465     72.48786      1.122     2.43     3.843402     20.45103     124.5199        12     0.887     0.812 -84.94   0
       223    873.6560    551.6789 300.3131277 +22.7986989     355.5664     72.52478      1.359     3.75     4.073126     20.45103     41.39501         5     0.984     0.410  74.46   0
       224    735.8098    548.6301 300.2711598 +22.7565191     363.6132     72.48786      1.186     1.99     4.447011     20.45103     65.19157         6     0.720     0.568  58.62   0
       225     67.0109    545.0839 300.0642532 +22.5549422     488.8738     72.45093      1.430     2.48     3.930823     20.45103     65.76678         8     0.782     0.661  22.18   0
       226    930.7012    543.6270 300.3335296 +22.8134747     349.5108     72.43245      1.141     2.76     3.853983     20.45103     59.16956         6     0.855     0.456  86.93   0
       227    674.9606    538.9768 300.2553417 +22.7355104     467.3187     72.52478      1.236     2.95     4.329253     20.45103     76.77032         9     0.892     0.726  72.39   0
       228    564.0190    536.6664 300.2215462 +22.7015929     235.3688     72.45093      1.129     2.70     4.360991     20.45103     56.26189         7     0.751     0.598  25.30   0
       229    283.6216    537.2603 300.1341147 +22.6176832     345.4727     72.45093      1.301     3.00     3.864754     20.45103     52.82107         7     0.856     0.632  16.85   0
       230    616.2526    534.8440 300.2384013 +22.7167271     655.4545     72.52478      1.152     2.37     4.395562     20.45103     124.5212         9     0.848     0.642  34.46   0
       231   1023.3401    532.4462 300.3660548 +22.8380091     823.4076     58.32811      1.065     2.19     3.902661     20.45103     131.7867        11     0.881     0.665  80.19  24
       232    595.7099    532.8514 300.2326524 +22.7099972     318.1176     72.50632      1.408     3.40     4.388439     20.45103     39.39741         6     0.769     0.578  42.43   0
       233    931.0574    527.0837 300.3390165 +22.8088275     551.3646     72.58012      1.334     2.95     3.872789     20.45103     94.42751        12     0.952     0.883 -76.34   0
       234    676.8701    527.0377 300.2598159 +22.7326537     827.7194     72.45093      1.132     2.01     4.331362     20.45103     164.1081        11     0.790     0.758 -66.35   0
       235    834.0382    523.0286 300.3100884 +22.7785978     1040.024     72.48786      1.243     1.99     4.278878     20.45103     188.8634        12     0.942     0.686  68.99   0
       236    984.2516    522.0989 300.3572249 +22.8233281     1947.877     72.58012      0.533     0.70     3.888696     20.45103     1294.297         6     0.484     0.332  23.73   0
       237    818.5497    519.4355 300.3064286 +22.7729251     512.9521     72.50632      1.081     2.91     4.344083     20.45103     99.61045        10     0.943     0.759  38.41   0
       238    798.6832    519.5073 300.3002139 +22.7669934     255.7719     72.67226      1.064     2.81     4.421133     20.45103     53.86009         5     0.941     0.456  42.24   0
       239    562.7085    517.5958 300.2273347 +22.6957241     3227.969     72.39548      1.109     1.86     4.342992     20.45103     572.8136        25     1.041     0.856  68.43   0
       240    923.2512    516.1980 300.3401196 +22.8033610     425.9768      72.4694      1.160     2.29     3.909689     20.45103     83.19477         9     0.792     0.687 -37.01   0
       241   1018.0018    514.3443 300.3702717 +22.8312074     1044.515     72.41397      0.635     1.11     3.891045     20.45103     507.6438         7     0.524     0.384 -80.13   0
       242    934.0648    512.1890 300.3447940 +22.8054480      2252.82     72.41397      0.682     2.00     3.889403     20.45103     1014.843        10     0.829     0.404 -14.31   0
       243     38.8592    509.1007 300.0671994 +22.5361740     303.7269     72.58012      1.010     2.79     4.041572     20.45103     51.80416         5     0.753     0.501  25.84   0
       244    402.4038    504.6931 300.1816389 +22.6439589     335.8737     72.39548      1.113     2.33     4.231836     20.45103     44.57146         5     0.671     0.478 -76.25   0
       245    974.0893    496.5152 300.3623681 +22.8129314     1475.194     72.63542      1.348     2.10     3.894073     20.45103      217.996        20     1.148     0.844  64.44   0
       246    845.9926    496.4293 300.3224570 +22.7745367     475.7442     72.48786      1.170     2.05     4.237539     20.45103     79.22254         8     0.747     0.639  84.32   0
       247    932.4197    495.0189 300.3498598 +22.8000208     1030.164     72.48786      1.427     3.21     3.907874     20.45103     131.4965        19     1.237     0.914  61.35   0
       248    582.1768    493.3064 300.2412872 +22.6945849     236.8239     72.41397      1.105     2.36     4.326363     20.45103     51.44735         6     0.722     0.547  47.01   0
       249    673.2356    491.4640 300.2702420 +22.7213469     1007.922     72.48786      1.131     2.03     4.310609     20.45103     171.2277        15     0.934     0.810  38.26   0
       250    469.3037    492.1687 300.2065233 +22.6604220     317.5321     72.43245      0.987     2.35     4.309515     20.45103     76.75162         6     0.716     0.578 -41.19   0
       251    177.3683    490.0481 300.1164231 +22.5722644     631.9402     72.52478      1.391     2.75     3.886197     20.45103     73.52274        11     0.925     0.744  17.11   0
       252    239.6383    485.6654 300.1372024 +22.5896852     3725.693      72.4694      1.257     2.15     3.866157     20.45103      552.892        25     1.106     0.937  72.35   0
       253    972.7297    483.7710 300.3660846 +22.8088613     4390.995     72.48786      1.272     2.28     3.898409     20.45103     658.0772        28     1.101     0.975  79.94   0
       254    186.8176    480.4417 300.1224805 +22.5723426     7548.326     72.50632      1.305     2.40     3.883173     20.45103      994.109        36     1.169     1.019  41.22   0
       255    691.4916    480.0378 300.2796404 +22.7235357      139.282      72.4694      0.979     2.08     4.374126     20.45103     49.10773         6     0.728     0.499  87.48   0
       256    952.7062    474.7841 300.3627598 +22.8002813     1800.797     72.41397      1.284     2.22     3.914933     20.45103     262.4454        17     0.926     0.906 -45.70   0
       257    327.6487    474.5906 300.1681657 +22.6129018     4653.215     72.50632      1.148     2.12     4.054449     20.45103     708.0908        24     1.010     0.891  71.52   0
       258    571.8478    471.1972 300.2452539 +22.6851397     18291.27     72.48786      1.205     1.97     4.310394     20.45103     3138.459        47     1.138     0.971  72.50   0
       259    589.4851    471.2111 300.2507406 +22.6904300      812.892     72.43245      1.751     5.86     4.311773     20.45103     82.24291        14     1.526     0.634 -44.17   0
       260    418.9367    472.7287 300.1971665 +22.6397402     315.2091     72.52478      1.240     3.34     4.299089     20.45103     43.94293         5     0.800     0.404  15.66   0
       261    199.0172    469.8773 300.1297039 +22.5729706     374.0489     72.48786      1.457     3.93     3.918148     20.45103      36.5517         6     0.951     0.465  39.46   0
       262    768.7555    461.4402 300.3097531 +22.7413439     444.9785     72.56168      1.104     2.37     4.430185     20.45103     64.67183         7     0.791     0.570 -79.73   0
       263    192.1760    458.3039 300.1313367 +22.5675977     421.9817       72.377      1.336     2.98     3.955414     20.45103     50.17287         6     0.735     0.610 -87.24   0
       264    905.4378    453.6011 300.3549022 +22.7800359     830.0795     72.50632      1.251     2.19     3.973726     20.45103     135.9026        12     0.856     0.756 -67.24   0
       265    442.2850    453.2645 300.2107536 +22.6411521     323.7889     72.58012      1.173     2.54     4.321358     20.45103      55.0274         5     0.740     0.425  75.41   0
       266    126.5439    451.5277 300.1131412 +22.5459660     2019.611     72.50632      1.306     2.60     4.043879     20.45103     247.9361        18     1.046     0.905  70.80   0
       267    615.0547    451.7523 300.2650232 +22.6925047     193.9173     72.52478      1.410     4.22     4.311027     20.45103     42.98395         5     1.013     0.546  70.10   0
       268    512.4885    440.6611 300.2366948 +22.6585783     6540.447     72.56168      1.147     2.00     4.310219     20.45103     997.2382        33     1.098     0.937  80.09   0
       269    926.0634    440.6469 300.3655412 +22.7824902     1133.862     72.50632      1.189     2.02     3.928798     20.45103     215.8997        13     0.887     0.800 -83.77   0
       270    227.3563    440.1518 300.1481679 +22.5729403     598.4554     72.50632      1.230     2.64     4.058454     20.45103     81.44079        12     0.871     0.856  13.87   0
       271     85.0134    433.4157 300.1061202 +22.5283108      486.951     72.43245      1.368     3.02     4.130066     20.45103     71.90784         9     0.895     0.817  24.23   0
       272    772.6445    432.2144 300.3204582 +22.7341119     369.7996     72.50632      1.223     2.13     4.292513     20.45103     60.17341         7     0.761     0.570  56.92   0
       273    626.2339    430.7600 300.2753229 +22.6898253     464.4479     72.52478      1.201     2.32     4.308747     20.45103     98.36204         8     0.845     0.585  81.84   0
       274    716.6357    429.5018 300.3038888 +22.7165522     1097.914     72.48786      1.206     2.28     4.513143     20.45103     155.8632        12     0.941     0.694  85.33   0
       275    419.1411    426.9728 300.2120921 +22.6266650      6203.44     72.48786      1.234     1.94     4.364438     20.45103     1132.049        32     1.082     0.934  68.60   0
       276    997.8409    424.3558 300.3932174 +22.7993023     300.0417     72.56168      1.621     5.18     3.994172     20.45103      30.1485         6     1.078     0.702  84.10   0
       277    908.4519    421.3410 300.3663206 +22.7716667     503.1837     72.54324      1.059     2.62     3.929459     20.45103     83.04849         9     0.937     0.575 -54.61   0
       278    810.9795    421.0960 300.3360158 +22.7424010     1433.285     72.39548      1.225     2.09     3.955246     20.45103      236.405        15     0.980     0.810  76.90   0
       279    403.2835    415.5079 300.2108820 +22.6186193     380.5121     72.67226      1.129     3.19     4.381502     20.45103     75.73557         7     0.843     0.648 -59.01   0
       280    486.5218    413.4197 300.2374606 +22.6429721     410.2206     72.48786      1.213     2.48      4.31387     20.45103     64.79012         7     0.837     0.528 -30.40   0
       281    764.3091    412.1971 300.3243624 +22.7258631     266.1578     72.39548      1.223     3.49     4.322576     20.45103     45.16425         5     0.790     0.446  79.38   0
       282    466.8376    411.0188 300.2321146 +22.6363823     325.5491     72.48786      1.337     2.63     4.329987     20.45103     55.21201         6     0.854     0.470  52.62   0
       283    784.0366    409.0445 300.3315335 +22.7308669     478.7858     72.54323      1.195     2.51     4.105988     20.45103     101.4684        10     0.921     0.654  60.11   0
       284     65.3234    408.2077 300.1081897 +22.5151718      199.272     72.45093      1.261     4.21     4.121595     20.45103     28.88341         6     0.761     0.663 -33.62   0
       285    306.6496    406.2642 300.1838271 +22.5869926     2372.287     72.54324      1.155     2.00     4.256392     20.45103     383.1895        20     0.963     0.893 -83.57   0
       286     25.0674    403.8314 300.0971066 +22.5018394     1024.354     72.48786      1.439     3.31     4.088025     20.45103     125.4188        15     1.179     0.792  16.61   0
       287    253.6073    399.7444 300.1694515 +22.5692157     321.0563     72.48786      1.573     4.59     4.221192     20.45103     49.35627         8     1.075     0.735  43.03   0
       288    275.9637    395.6806 300.1777221 +22.5747533     29552.12     72.43245      1.289     2.19     4.240794     20.45103     4625.997        66     1.272     1.097  59.46   0
       289    810.6940    392.9373 300.3450720 +22.7342235     1322.341     72.58012      1.148     2.07     3.921898     20.45103     228.7581        13     0.894     0.733  62.79   0
       290    766.2038    390.7408 300.3319209 +22.7202652     334.3044     72.45093      1.100     2.46     4.278131     20.45103     67.03497         8     0.893     0.571  81.28   0
       291    725.9506    381.8393 300.3222699 +22.7056487     253.2713     72.48786      1.161     1.80     4.510733     20.45103      109.676         7     0.679     0.615  41.97   0
       292    150.2787    381.8103 300.1431572 +22.5330804     385.1013     72.45093      1.372     2.87     4.153606     20.45103     81.41306         8     0.925     0.809  46.97   0
       293    374.3377    380.9310 300.2131058 +22.6000140     394.3295     72.52478      1.195     2.51     4.409086     20.45103     71.79478         7     0.710     0.658 -52.63   0
       294    686.3897    375.2595 300.3120826 +22.6919061       1980.6     72.45093      1.165     1.97     4.354625     20.45103       313.19        19     0.944     0.883  61.64   0
       295    494.2881    369.9674 300.2539882 +22.6328212     371.9544     72.45093      1.176     4.14     4.313107     20.45103     58.99671         8     0.881     0.634  42.29   0
       296    901.6086    368.0221 300.3815029 +22.7542913     592.9225     72.48786      1.192     2.23     3.892241     20.45103     93.38541         7     0.703     0.637 -76.75   0
       297    563.6472    367.0164 300.2765363 +22.6527600     205.5158     72.52478      1.296     3.82     4.265045     20.45103     29.24955         5     0.877     0.477 -88.03   0
       298    348.1327    359.8921 300.2117861 +22.5861174     2195.271     72.63542      1.407     2.81     4.422588     20.45103     274.6124        24     1.414     0.825  64.11   0
       299    560.2542    358.0918 300.2783778 +22.6491797     200.1185     72.54323      1.233     4.40     4.267914     20.45103     43.99514         7     0.950     0.579  71.49   0
       300    787.2909    352.6309 300.3508671 +22.7156300      576.199     72.43245      1.036     2.04     4.049545     20.45103     113.6722         8     0.814     0.563  67.23   0
       301    686.8294    350.5964 300.3202278 +22.6849516     206.7056     72.45093      1.075     2.39     4.349612     20.45103     49.35425         5     0.724     0.429  24.14   0
       302    669.6968    350.5692 300.3149002 +22.6798110     265.6398     72.43245      1.109     2.15     4.300232     20.45103     55.70581         5     0.669     0.466  20.46   0
       303    637.9604    349.1979 300.3054612 +22.6699086     342.2774     72.50632      1.098     2.77     4.208134     20.45103     44.00129         6     0.849     0.478  33.22   0
       304    423.9821    339.4182 300.2420289 +22.6029755     1154.476     72.48786      1.175     2.11     4.410831     20.45103     196.8675        14     0.929     0.786  51.71   0
       305    231.2917    339.6217 300.1820351 +22.5452666     305.8524     72.41397      1.024     2.67     4.391023     20.45103     59.79533         5     0.928     0.344  69.86   0
       306    935.5356    335.2167 300.4027335 +22.7550198     304.0009      72.4694      1.073     2.12      3.88064     20.45103     56.79404         5     0.683     0.456 -66.60   0
       307    668.8248    331.1453 300.3209351 +22.6739688     2172.526     72.52478      1.188     1.93     4.309207     20.45103     394.0591        18     0.996     0.789  59.25   0
       308    829.8265    331.8567 300.3708687 +22.7223988     251.0205     72.48786      0.989     2.05     3.960754     20.45103     55.95322         6     0.718     0.529  35.41   0
       309    930.0327    325.4235 300.4041971 +22.7505566     3236.341     72.48786      1.229     1.96      3.85795     20.45103     509.0038        23     1.003     0.928  72.77   0
       310    991.0584    319.7088 300.4250843 +22.7671846     564.4302     72.56168      1.389     4.80     3.989218     20.45103     61.78884         8     1.141     0.573  45.40   0
       311    529.8320    316.8549 300.2822955 +22.6282180     1004.473     72.50632      0.576     2.32     4.307106     20.45103      724.729         5     0.468     0.348  63.87   0
       312    377.2236    315.0357 300.2353977 +22.5819582     520.0086     72.50632      1.245     2.04     4.420941     20.45103     106.6818         7     0.699     0.611  69.93   0
       313    999.4412    313.2804 300.4297860 +22.7678457     1636.699      72.4694      1.198     2.26     4.009865     20.45103     203.1427        18     0.935     0.914  47.80   0
       314     82.7302    309.4767 300.1456517 +22.4920632     622.1034     72.59856      1.386     3.91     4.215017     20.45103     77.39753        12     1.138     0.757  50.29   0
       315     52.0089    309.4437 300.1361188 +22.4828396      1434.89     72.50632      1.693     3.25     4.052219     20.45103     152.3816        20     1.206     0.977 -33.48   0
       316    945.8992    305.8772 300.4154907 +22.7496874      615.659     72.63542      1.251     2.95      3.87747     20.45103     80.06107         8     0.867     0.667 -58.64   0
       317    529.2672    302.8128 300.2866781 +22.6240151     3545.043      72.4694      1.150     4.52     4.307357     20.45103     626.4238        14     1.219     0.477 -68.92   3
       318    529.2123    299.8649 300.2876180 +22.6231518     5708.263     72.43245      0.605     0.95     4.307238     20.45103     3221.427         7     0.474     0.451 -49.39   3
       319    789.5665    302.4403 300.3678713 +22.7018863      327.712     72.54324      1.234     3.75     4.322469     20.45103     53.76372         6     0.945     0.515  58.70   0
       320    136.1675    301.4947 300.1648462 +22.5057983     471.1082      72.4694      1.174     2.62     4.354536     20.45103      72.0851         9     0.956     0.582 -60.70   0
       321    422.3224    300.1809 300.2542503 +22.5912097     93.52959     72.48786      0.959     3.87     4.390746     20.45103     45.74761         5     1.072     0.450  32.71   0
       322    931.1377    298.5972 300.4132509 +22.7431746     350.8115     72.48786      1.299     1.68     3.831555     20.45103     59.55621         5     0.640     0.464 -21.18   0
       323    812.1719    294.4877 300.3774979 +22.7063704     307.2862     72.48786      0.977     1.57     4.238515     20.45103     71.04285         5     0.613     0.494  12.27   0
       324    740.5415    292.5405 300.3558087 +22.6843577     599.7224     72.56168      1.059     2.32     4.485914     20.45103     95.86165        10     0.887     0.657  76.90   0
       325    330.6954    292.1862 300.2283425 +22.5614498     372.1142     72.41397      1.134     2.42     4.439342     20.45103     79.20448         8     0.866     0.578   5.36   0
       326    831.2172    285.0672 300.3864919 +22.7093658     221.0635      72.4694      1.228     4.04     4.077225     20.45103     42.91949         6     0.925     0.505  56.81   0
       327    838.6572    281.4987 300.3899692 +22.7105678     2031.708     72.58012      1.138     2.05     4.001297     20.45103     332.1521        16     0.896     0.856  74.17   0
       328    257.1367    279.1127 300.2097119 +22.5356447     2098.744     72.59856      1.217     2.07     4.464776     20.45103     343.5286        19     0.992     0.882  86.25   0
       329    334.9368    274.0636 300.2355438 +22.5575173     968.7447     72.52478      1.293     2.33     4.425562     20.45103     124.5028         9     0.761     0.715 -56.73   0
       330     86.7289    274.1546 300.1583588 +22.4831254     466.1798      72.4694      1.640     4.41     4.300174     20.45103     46.78317         8     0.977     0.647  31.93   0
       331    736.9655    273.0314 300.3610272 +22.6776796     532.0452     72.50632      1.087     2.08       4.4958     20.45103     104.7882         9     0.743     0.679  54.69   0
       332    152.0133    266.3005 300.1811934 +22.5004480     844.6478     72.39548      1.343     2.56     4.438154     20.45103     112.5703        12     0.980     0.702  77.90   0
       333    270.0394    265.6128 300.2181052 +22.5356367     351.6298     72.48786      1.302     4.78      4.46439     20.45103     46.66798         8     1.126     0.575  48.36   0
       334    689.7072    262.9229 300.3495857 +22.6606198     1595.954     72.63542      1.181     2.14     4.387529     20.45103     288.0504        18     0.918     0.894  78.00   0
       335    754.6423    262.6624 300.3699004 +22.6799935     532.6362      72.4694      1.144     2.76     4.476961     20.45103     86.42609         8     0.933     0.584  41.95   0
       336    173.2432    259.5174 300.1899927 +22.5048665     598.2622     72.45093      1.278     2.34     4.463177     20.45103     97.40675        10     0.810     0.779 -51.61   0
       337    961.3286    255.2621 300.4367324 +22.7397525     834.6828     72.52478      1.303     2.54     3.993288     20.45103     118.7179        14     1.037     0.912 -51.80   0
       338    463.1498    255.5016 300.2814562 +22.5906122     387.5561     72.56168      1.351     3.57      4.34328     20.45103     53.41714         8     0.972     0.669 -58.95   0
       339    693.7074    254.3367 300.3536185 +22.6593503     690.0238     72.59856      1.138     2.23     4.396948     20.45103     110.3133        10     0.843     0.686  49.22   0
       340    614.2205    253.7087 300.3290659 +22.6353600     1285.173     72.41397      1.208     2.09     4.242614     20.45103     211.8377        16     0.958     0.824  75.43   0
       341    809.8228    245.0686 300.3928064 +22.6914608      1532.93     72.50632      1.231     1.93     4.366039     20.45103     251.2397        17     0.943     0.853  57.44   0
       342    540.4295    245.4298 300.3087780 +22.6108743     975.8898     72.45093      1.107     2.15     4.306103     20.45103     128.9297        12     0.938     0.691  87.19   0
       343    821.7631    244.2541 300.3967922 +22.6948021     824.2941     72.50632      1.221     2.21     4.241099     20.45103     128.5558        11     0.806     0.760  60.35   0
       344    867.8008    243.6857 300.4113272 +22.7084233      395.441       72.377      1.180     2.22     3.788217     20.45103     58.76526         6     0.694     0.577  45.14   0
       345    982.5980    235.0434 300.4499281 +22.7403049     1701.907     72.48786      1.279     2.31     4.200528     20.45103     220.9723        20     1.013     0.943 -62.20   0
       346    938.4585    234.4133 300.4363669 +22.7269108     1042.636      72.4694      1.196     2.32     3.879745     20.45103     143.1888        15     0.977     0.823  60.16   0
       347    172.5324    227.8764 300.2000398 +22.4955700     713.5031     72.58012      1.258     2.48     4.505441     20.45103     112.6704        11     0.863     0.766 -38.30   0
       348     54.2437    226.6332 300.1636884 +22.4597445     257.2913     72.54324      1.198     3.40     4.344729     20.45103     31.71626         5     0.760     0.439 -18.63   0
       349     34.4276    222.6856 300.1588139 +22.4526689     2085.727     72.48786      1.403     2.55     4.351466     20.45103     261.0388        21     1.119     0.976  82.84   0
       350    857.4303    219.4316 300.4159656 +22.6983449     838.8652     72.48786      1.440     2.59     3.948425     20.45103     91.09048        12     0.883     0.821 -20.64   0
       351    191.7460    215.9520 300.2098810 +22.4979069     5596.445     72.52478      1.332     2.37     4.510366     20.45103     800.6617        33     1.190     1.014  57.02   0
       352    173.7024    217.2746 300.2038436 +22.4928771     385.1101     72.63542      1.587     4.39     4.526252     20.45103     44.98324         7     0.973     0.563 -62.15   0
       353    416.8808    208.7229 300.2822394 +22.5633099     142.5154     72.59856      1.075     4.45     4.275792     20.45103     33.19569         6     1.120     0.502 -50.44   0
       354    175.0086    206.8091 300.2076453 +22.4902641     606.9543     72.35851      1.258     3.08     4.546988     20.45103     81.08985        11     0.969     0.740  37.90   0
       355    990.6464    203.1489 300.4627889 +22.7335410     18130.99     72.52478      1.277     2.23     4.345946     20.45103     2273.634        52     1.227     1.072  77.41   0
       356    835.8796    197.2542 300.4164445 +22.6855161     3551.775     72.52478      1.193     2.08     4.272182     20.45103     552.6572        23     1.037     0.864  82.21   0
       357    939.4781    195.9613 300.4491631 +22.7161581     2877.057      72.4694      1.229     2.33     4.123574     20.45103     395.2595        23     1.052     0.927 -80.42   0
       358    385.2724    192.6487 300.2776212 +22.5492208     711.8008      72.4694      1.186     3.12     4.275197     20.45103     98.42369        10     1.085     0.586  68.76   0
       359    138.4324    193.4472 300.2006135 +22.4754622     434.5168     72.52478      1.770     2.97     4.607325     20.45103     51.81247         6     0.854     0.700  20.11   0
       360    499.4059    190.5346 300.3138219 +22.5828116     245.7507      72.4694      1.056     3.84     4.314417     20.45103     46.00508         7     0.934     0.546 -62.39   0
       361    309.5017    184.6826 300.2566380 +22.5242253     526.4106     72.65385      1.154     2.81     4.364684     20.45103     75.61382         9     0.868     0.678  71.55   0
       362    313.4275    183.0213 300.2583979 +22.5249247     512.6838     72.48786      1.656     2.76     4.357127     20.45103     57.35452         7     0.758     0.644  81.02   0
       363    844.1562    182.0677 300.4239521 +22.6836275     139.8929      72.4694      1.307     3.97     4.311111     20.45103      29.5018         6     0.949     0.475 -53.48   0
       364    364.5333    180.4592 300.2751245 +22.5395046     578.4744     72.52478      1.370     4.29     4.280215     20.45103      75.4245        11     1.094     0.900  41.12   0
       365     75.6152    181.5424 300.1849576 +22.4532104     675.6308     72.45093      1.459     2.86     4.691368     20.45103       90.458        14     1.008     0.871 -48.55   0
       366    436.6507    179.9778 300.2977174 +22.5609763     1681.909     72.48786      1.219     2.03     4.240503     20.45103     285.3588        17     0.973     0.853 -80.71   0
       367    498.4201    179.1314 300.3172149 +22.5792398     379.0355      72.4694      1.288     2.40     4.314929     20.45103     51.66468         5     0.705     0.458  69.90   0
       368    179.8937    175.2826 300.2193923 +22.4826770      425.331     72.65385      1.326     3.84     4.605609     20.45103     51.32735         8     0.887     0.672 -22.07   0
       369    725.0268    169.2398 300.3909894 +22.6442701     244.0738     72.54323      1.018     1.78     4.525206     20.45103     74.37837         7     0.668     0.611  84.76   0
       370   1000.8942    160.4613 300.4798363 +22.7243297      3634.99     72.58012      1.366     2.29     4.434369     20.45103     549.6761        34     1.499     1.097 -33.23   0
       371    870.9626    163.5166 300.4383274 +22.6863180     363.9861      72.4694      1.089     2.05     4.369284     20.45103     61.92325         6     0.721     0.500  -1.15   0
       372    210.7558    159.8335 300.2339972 +22.4874922     5741.212     72.52478      1.329     2.39     4.558273     20.45103     828.4584        31     1.186     0.989  71.74   0
       373    716.8573    160.2444 300.3913627 +22.6392379     289.1722     72.50632      1.397     2.42     4.530962     20.45103     54.69597         6     0.838     0.587  66.84   0
       374     61.6300    159.3031 300.1878275 +22.4426331     738.5553     72.43245      1.422     3.09     4.851546     20.45103     86.18913        14     1.016     0.895 -78.98   0
       375    839.8114    156.8546 300.4307781 +22.6750768     264.3365     72.48786      1.073     2.30      4.47529     20.45103     55.01962         6     0.728     0.542  48.03   0
       376    182.3513    153.5063 300.2272205 +22.4771610     295.8028     72.52478      1.498     4.01     4.671774     20.45103     39.04568         6     0.963     0.477  88.92   0
       377    226.1201    151.1428 300.2415927 +22.4896019     285.1451     72.52478      1.101     2.66     4.544543     20.45103     58.39399         8     0.826     0.634 -38.63   0
       378    686.5688    150.3295 300.3851438 +22.6273177      215.495     72.48786      1.071     3.44     4.556324     20.45103     41.81484         5     0.773     0.443 -69.49   0
       379    456.8432    145.0918 300.3153186 +22.5570034     6106.529     72.48786      1.266     2.15     4.323412     20.45103     942.2451        30     1.081     0.980  81.25   0
       380    342.1996    145.0838 300.2796540 +22.5226506     658.8949     72.35851      1.170     2.18     4.308234     20.45103     105.1788         8     0.752     0.651 -59.60   0
       381    513.8201    139.9910 300.3347062 +22.5726067     200.9812      72.4694      1.295     2.90     4.452341     20.45103     45.06179         6     0.892     0.442 -50.25   0
       382    709.1123    135.3188 300.3970360 +22.6297531     825.9395     72.61699      1.695     5.25     4.614721     20.45103     111.1904        15     1.736     0.712 -72.63   0
       383    210.3577    139.2133 300.2405624 +22.4814516     294.5462     72.50632      1.437     3.44     4.644681     20.45103     29.55547         5     0.759     0.451  74.67   0
       384    650.5648    136.0649 300.3785568 +22.6124353     349.0544     72.48786      1.142     1.84     4.575228     20.45103     56.90065         6     0.713     0.495  86.10   0
       385    801.7910    133.6519 300.4264551 +22.6570226     358.1177     72.48786      1.100     2.28     4.653034     20.45103     73.79176         6     0.668     0.637 -19.12   0
       386    149.5789    128.8361 300.2250373 +22.4602533     558.1439     72.50632      1.353     2.91     4.944393     20.45103     68.94798         9     0.884     0.697  77.26   0
       387    585.1475    125.1866 300.3617140 +22.5897169     6091.669     72.52478      1.233     2.07     4.566014     20.45103     999.1772        28     1.079     0.901  60.42   0
       388    508.0981    127.5145 300.3369723 +22.5673074     431.1605     72.65385      1.162     2.04     4.518939     20.45103     72.13058         6     0.723     0.498   4.72   0
       389    360.1120    124.2289 300.2919905 +22.5220273     1379.097     72.48786      1.233     2.33      4.29005     20.45103      208.147        15     0.988     0.760  83.17   0
       390    626.1852    122.5377 300.3753521 +22.6012460     887.5326     72.45093      1.181     2.41     4.590641     20.45103     148.4568        11     0.952     0.647  56.42   0
       391    642.1557    118.4142 300.3816634 +22.6048434     549.5862     72.50632      1.336     2.15     4.649577     20.45103     93.75527         7     0.799     0.545  78.42   0
       392    108.8610    116.6550 300.2163352 +22.4445496     748.8918     72.56168      1.439     2.92     5.064742     20.45103     96.56419        11     0.886     0.860  31.10   0
       393    912.1996    115.7855 300.4666687 +22.6849341     575.5049        72.34      1.322     3.55     4.765082     20.45103      87.6237        13     1.041     0.919 -22.68   0
       394    680.9229    113.9248 300.3951944 +22.6151618     403.1399     72.58012      1.132     2.60     4.722514     20.45103     86.16042         8     0.853     0.646 -17.70   0
       395    629.3298    110.0038 300.3803970 +22.5985849     2855.092     72.43245      1.235     2.07      4.66581     20.45103     469.9048        21     1.038     0.882  87.34   0
       396    270.2883    110.7742 300.2684193 +22.4912459     372.7311     72.43245      1.243     3.00     4.624948     20.45103     61.54453        10     0.914     0.733  56.77   0
       397    644.4100    108.4993 300.3855815 +22.6026684     813.5493     72.39548      1.606     4.64     4.705541     20.45103     105.5924        13     1.404     0.780  49.88   0
       398    715.8650    101.4780 300.4101168 +22.6220460     1464.143     72.58012      1.197     2.15     4.723568     20.45103     235.1855        16     1.014     0.800  77.75   0
       399    793.4410     96.0200 300.4360595 +22.6437017      216.463     72.52478      1.258     3.89     4.797494     20.45103     36.38749         5     0.771     0.604   2.80   0
       400    459.3477     94.2035 300.3326042 +22.5431317     1189.311     72.48786      1.257     2.59     4.549986     20.45103     149.3138        16     1.126     0.729  73.22   0
       401    653.8181     94.7047 300.3929859 +22.6015202     732.0249     72.39548      1.231     2.36     4.802321     20.45103     117.4815        10     0.825     0.713  75.06   0
       402     32.2302     94.2371 300.1997990 +22.4151398     524.7515     72.50632      1.381     3.74     4.839869     20.45103     68.39259         9     1.039     0.642  80.45   0
       403    363.1652     92.2364 300.3033167 +22.5137513     872.7899     72.56168      1.389     2.34     4.364324     20.45103     116.5884        12     1.017     0.727  51.75   0
       404   1006.1901     88.8640 300.5047140 +22.7053176     2378.647     72.45093      1.365     2.42     4.966113     20.45103     341.0354        26     1.221     0.987 -80.27   0
       405    745.6757     91.0741 300.4227792 +22.6279799     467.8276     72.58012      1.216     2.27     4.732585     20.45103     81.79326         8     0.804     0.598  42.32   0
       406    659.3759     89.1591 300.3965156 +22.6015901      181.996     72.52478      1.109     3.47     4.873718     20.45103     34.97246         5     0.965     0.360  -4.29   0
       407    134.6448     82.3715 300.2354660 +22.4424346      3689.52     72.52478      1.364     2.52     5.325418     20.45103     444.4391        31     1.242     1.017  79.65   0
       408    702.6354     82.9462 300.4120058 +22.6127568     736.5031     72.50632      1.394     2.76     4.857723     20.45103      96.0615        11     1.022     0.614  29.20   0
       409    460.6250     79.7455 300.3376907 +22.5393597     325.6767     72.50632      1.315     2.69     4.635906     20.45103     46.31926         5     0.718     0.452  71.79   0
       410    557.2336     79.2995 300.3679063 +22.5681679     406.5388      72.4694      1.544     2.86     4.887243     20.45103     53.79625         5     0.744     0.619 -71.26   0
       411    695.9622     74.8010 300.4125686 +22.6084169      828.708     72.48786      1.204     2.05      4.94187     20.45103     154.4491        12     0.962     0.677  78.96   0
       412    250.5357     74.4831 300.2740473 +22.4749026     1208.985     72.59856      1.278     2.37     4.807908     20.45103     152.2508        16     1.122     0.739  73.80   0
       413    661.4925     73.6602 300.4022015 +22.5977681     488.4672     72.56168      1.399     4.15     5.032106     20.45103     72.87514         8     0.966     0.752 -63.25   0
       414    733.8044     69.9004 300.4259474 +22.6183376     915.1066       72.377      1.639     4.33     4.804458     20.45103     85.60477        12     1.147     0.734  70.10   0
       415    183.8618     74.0654 300.2534559 +22.4548011     339.7697     72.52478      1.464     3.71     5.194458     20.45103     31.93172         5     1.009     0.393 -31.44   0
       416    753.7652     65.8867 300.4334685 +22.6231591     2067.885      72.4694      1.199     2.21     4.819684     20.45103     329.4769        18     0.991     0.838  77.23   0
       417    459.1316     64.3921 300.3422050 +22.5345003     436.3843      72.4694      1.171     2.95       4.7225     20.45103     64.57638         9     0.940     0.628  48.99   0
       418    136.9831     61.2916 300.2430284 +22.4370821     1000.515     72.41397      1.420     2.71     5.532141     20.45103     136.1735        17     1.028     0.955 -86.27   0
       419    928.7260     59.2247 300.4901669 +22.6736105     666.9654     72.52478      1.220     2.60     4.960871     20.45103     96.13691        12     0.932     0.787  38.18   0
       420    702.0883     58.4169 300.4197904 +22.6055403     907.6749     72.41397      1.299     2.35      5.03664     20.45103     131.5138        14     1.034     0.820  69.52   0
       421    409.2272     56.4695 300.3292457 +22.5172746     396.3102     72.48786      1.312     3.44     4.750911     20.45103     42.00435         5     0.741     0.461  19.27   0
       422    459.7941     50.8329 300.3468082 +22.5308021     308.7021     72.48786      1.108     2.05     4.797141     20.45103     54.32742         6     0.707     0.540  38.06   0
       423    152.7029     51.0306 300.2512410 +22.4388470     224.8604     72.43245      1.192     3.82      5.63058     20.45103      34.4448         5     0.843     0.498 -40.77   0
       424    286.9903     48.2810 300.2938792 +22.4782997     424.9383     72.43245      1.203     2.09     4.911171     20.45103     69.39112         7     0.690     0.648  15.16   0
       425    689.9609     40.6490 300.4217742 +22.5968007     362.8014     72.52478      1.333     2.31     5.247155     20.45103     66.30296         8     0.809     0.657  88.09   0
       426    554.5798     43.2220 300.3787795 +22.5570032     875.2457     72.48786      1.216     2.74     5.063107     20.45103     126.6883        16     0.976     0.965  29.76   0
       427    164.0433     40.8362 300.2580710 +22.4393180     449.0506     72.54323      1.233     2.95     5.694531     20.45103     66.44494        10     0.913     0.698  85.51   0
       428    349.0592     39.3781 300.3160700 +22.4943386     329.5935      72.4694      1.474     3.55     4.918192     20.45103     42.41783         5     1.207     0.301  64.31   0
       429    717.8141     38.1763 300.4312532 +22.6044283       622.15     72.48786      1.202     2.42     5.050776     20.45103     111.7487        10     0.928     0.638  50.34   0
       430    526.4251     36.4669 300.3722051 +22.5466298     2084.943      72.4694      1.397     2.48     4.981603     20.45103     241.4026        19     1.130     0.829  62.72   0
       431    249.0522     33.6385 300.2868305 +22.4627256     718.2738     72.50632      1.345     3.57     5.009123     20.45103     92.30159        11     1.110     0.645  63.65   0
       432    483.7017     30.3435 300.3608924 +22.5320744     1319.289     72.58012      1.167     2.25     4.879385     20.45103     192.8573        17     1.057     0.792  81.93   0
       433    901.2729     30.3151 300.4909814 +22.6570787     2944.296     72.59856      0.665     1.10     4.903387     20.45103     1969.723         7     0.670     0.275  51.89   0
       434    589.0155     27.0478 300.3947457 +22.5626657     1391.199     72.52478      1.276     2.18      5.38445     20.45103     213.5749        14     0.998     0.711  81.15   0
       435    184.3087     26.2753 300.2690909 +22.4412093     462.7343     72.65385      1.251     3.74     5.587402     20.45103      60.5958        12     1.116     0.762 -25.20   0
       436    233.2427     23.9780 300.2850474 +22.4552133     470.5354     72.52478      1.324     2.46     5.074526     20.45103     65.74238         8     0.817     0.604 -47.34   0
       437    929.4659     23.1533 300.5020947 +22.6634549     267.8296     72.48786      0.963     1.93     4.960871     20.45103     52.04272         5     0.672     0.459  66.49   0
       438    409.4412     20.7773 300.3408854 +22.5070823     2157.415     72.52478      1.229     2.22     5.098238     20.45103     301.2147        19     1.055     0.813  80.68   0
       439    133.7801   1020.3921 299.9304073 +22.7112472     595.0827     70.91997      2.986     5.89     21.05904     20.45103     50.27709         7     1.530     0.639 -82.83  24
       440    540.6767     15.3175 300.3834991 +22.5448185     460.5115     72.59856      1.162     2.46     5.101955     20.45103     59.74828         7     0.767     0.602  31.08   0
       441    678.2601     11.4433 300.4275992 +22.5848999     229.4764     72.48786      1.481     3.50     5.622718     20.45103     33.14542         5     0.751     0.471  15.69   0
       442    418.0945   1019.4128 300.0191163 +22.7963323     966.3975     72.41397      1.566     3.97     2.705596     20.45103     78.68144        17     1.102     1.041  89.89  16
       443    348.6508   1017.5081 299.9981370 +22.7749402     6410.063     72.54324      1.709     3.42     3.203762     20.45103      548.418        41     1.375     1.296  80.09  16
