#   1 NUMBER                 Running object number                                     
#   2 X_IMAGE                Object position along x                                    [pixel]
#   3 Y_IMAGE                Object position along y                                    [pixel]
#   4 ALPHA_J2000            Right ascension of barycenter (J2000)                      [deg]
#   5 DELTA_J2000            Declination of barycenter (J2000)                          [deg]
#   6 FLUX_APER              Flux vector within fixed circular aperture(s)              [count]
#   7 FLUXERR_APER           RMS error vector for aperture flux(es)                     [count]
#   8 FLUX_RADIUS            Fraction-of-light radii                                    [pixel]
#   9 FWHM_IMAGE             FWHM assuming a gaussian core                              [pixel]
#  10 BACKGROUND             Background at centroid position                            [count]
#  11 THRESHOLD              Detection threshold above background                       [count]
#  12 FLUX_MAX               Peak flux above background                                 [count]
#  13 ISOAREA_IMAGE          Isophotal area above Analysis threshold                    [pixel**2]
#  14 A_IMAGE                Profile RMS along major axis                               [pixel]
#  15 B_IMAGE                Profile RMS along minor axis                               [pixel]
#  16 THETA_IMAGE            Position angle (CCW/x)                                     [deg]
#  17 FLAGS                  Extraction flags                                          
         1    224.4580     18.5492 300.2354638 +22.4424782     3955.848     72.49392      1.540     2.44     4.320791     20.43713     488.6156        35     1.321     1.160  51.72   0
         2    340.4524     10.6802 300.2740911 +22.4749670     1271.775     72.45704      1.507     3.09     3.662278     20.43713     144.1692        19     1.154     1.082  48.34   0
         3    785.7215     10.9905 300.4126487 +22.6083760     790.6383     72.40167      1.389     3.54     4.387633     20.43713     103.5722        13     1.123     0.786  49.93   0
         4    823.4352      6.1686 300.4259680 +22.6182753     748.8575     72.45703      1.688     3.91     4.380321     20.43713     75.91599        13     1.227     0.710  76.62  16
         5    746.7178      5.7914 300.4021772 +22.5952070     498.4311     72.38321      1.446     3.46     4.387633     20.43713     71.47326         9     1.011     0.690  70.25  16
         6    843.5970      2.4978 300.4334436 +22.6232526     2019.436     62.53627      1.243     2.30     4.371224     20.43713     305.5176        19     1.040     0.921  14.82  24
         7    201.0739   1021.5121 299.9024488 +22.7232928     1283.954     67.13339      3.044    10.77      76.6337     20.43713     49.47823        20     1.991     1.625  45.70  26
         8    255.9870   1018.2911 299.9205688 +22.7388570      2457.45     72.38321      6.427    26.21     71.84384     20.43713     67.27372       172     5.188     3.675  -2.00  27
         9    252.7945   1000.7865 299.9252730 +22.7328803      4187.58     72.30931      8.453    22.63     60.53428     20.43713     88.88597       269     5.288     4.795 -80.94  19
        10    271.7213   1000.3209 299.9313096 +22.7384289     4897.418     72.56763      9.517    28.81     58.34802     20.43713     98.74257       465     7.358     5.107 -35.17  19
        11    291.4280    988.4255 299.9413087 +22.7409344     7195.876     72.42014      7.692    29.83     47.22601     20.43713     164.9328       554     9.141     4.283  61.09  18
        12    184.6361   1022.3987 299.8970508 +22.7186111     1847.485     63.13187      3.751    14.11      76.6337     20.43713     71.57961        53     3.378     1.638  -3.30  26
        13    187.0723   1018.0000 299.8992396 +22.7180819     450.2144     72.30931      1.217     4.11     73.98763     20.43713     52.15337         5     1.669     0.289  -0.00  19
        14    135.1200   1014.0096 299.8843918 +22.7013377     5709.102     72.38321     13.136    56.21     55.56846     20.43713     119.3886      1139    12.834     7.567  21.77  27
        15    129.9618    962.8837 299.8994257 +22.6851350     5319.782     72.42014     29.106    97.03     27.59832     20.43713     105.2704      4636    22.125    18.219 -74.18  18
        16    507.2614    955.8100 300.0190730 +22.7963554     1079.166     72.36475      1.822     4.58     3.269908     20.43713      82.7087        21     1.375     1.082 -64.79   0
        17    437.8482    953.8293 299.9981143 +22.7749590     6558.927     72.45703      1.792     3.85     3.587475     20.43713     520.8552        43     1.501     1.292  11.46   0
        18    749.2339    944.0966 300.0982442 +22.8655773     346.7221     72.43858      1.393     3.42      3.34573     20.43713     33.23595         5     1.021     0.332 -46.07   0
        19    181.9120    943.1033 299.9220072 +22.6950628     741.0706     72.62286      5.283     5.14     24.37375     20.43713     34.93386         5     1.144     0.652  83.65   0
        20    470.1954    940.6869 300.0124570 +22.7808955     395.8877     72.36475      1.584     5.55     3.537772     20.43713     42.62716        10     1.109     0.800 -73.40   0
        21    600.0549   1006.2053 300.0315627 +22.8386540     2281.707     72.43858      1.871     4.23     3.142061     20.43713     157.9571        31     1.385     1.308 -76.92   0
        22    787.1116   1001.9286 300.0912276 +22.8935358     617.2389     72.60445      1.712     5.63     3.054261     20.43713     49.79562        12     1.365     0.794  -5.02   0
        23    984.2529    932.8491 300.1751751 +22.9328091     2039.812     72.47548      1.915     4.64     3.563332     20.43713     136.9774        30     1.425     1.332  10.02   0
        24    219.4559    989.4645 299.9185926 +22.7196254     2081.878     72.49392      8.407    17.03      54.8036     20.43713     61.39051        63     4.503     1.790  69.58   3
        25    772.9365    921.5881 300.1129543 +22.8662239     753.3761     72.42014      2.053     7.14     3.452455     20.43713     46.31535        15     1.278     1.118  23.97   0
        26    808.0016    915.6895 300.1258019 +22.8750447     1025.314     72.34628      1.842     3.96     3.488575     20.43713      68.0363        18     1.178     1.021  -2.99   0
        27    585.1913    915.8148 300.0563479 +22.8082596     431.6801     72.34628      1.469     3.51     3.277403     20.43713     37.53766         5     1.043     0.341  46.60   0
        28     17.5930    912.8914 299.8807793 +22.6370635     665.4018     72.34628      1.973     6.45     3.247293     20.43713     50.53966        14     1.432     1.265   0.38   0
        29     35.4818    987.6707 299.8620064 +22.6638661     460.3091     72.54921      1.711     5.03     4.682481     20.43713     50.07811         8     1.469     0.487  85.41   0
        30    686.5870   1001.5310 300.0600350 +22.8632714       8619.4     72.45704      1.918     4.27     2.916989     20.43713     498.4749        47     1.502     1.427  68.69   3
        31    830.0966    909.4223 300.1347281 +22.8798700     11435.25     72.36475      1.799     3.95     3.493783     20.43713     692.6078        54     1.471     1.396   2.80   0
        32    875.6505    909.9568 300.1487556 +22.8936805     395.1403     72.47548      1.658     5.15     3.501156     20.43713     40.90686         7     1.004     0.747  21.41   0
        33    979.5067    985.6099 300.1565249 +22.9465377     682.1727     72.38321      2.061     7.66     3.291359     20.43713     40.40392        11     1.486     1.104  17.52   0
        34   1019.9120    909.1509 300.1940099 +22.9366904     350.2076      71.9201      1.567     5.59     3.639635     20.43713     27.62061         8     1.183     0.745  12.44  16
        35    200.9601    904.2136 299.9405800 +22.6896316     705.5131     72.45703      4.713     4.82     11.81143     20.43713      28.4193         5     0.944     0.698  25.84   0
        36    141.5310    901.1930 299.9230911 +22.6709245     986.1539     72.40167      5.692     5.51     9.635403     20.43713     58.22965        18     1.471     1.206 -10.82   0
        37    535.4664    897.3602 300.0468699 +22.7880479     459.2607     72.40167      1.684     5.99     3.465862     20.43713     42.68865        11     1.232     0.819 -31.77   0
        38    881.8320    897.1204 300.1548591 +22.8918478      287.018     72.43858      1.487     5.35     3.506494     20.43713     41.02868         8     1.071     0.753 -20.52   0
        39    838.7117    891.5490 300.1432285 +22.8773211     1326.751     72.45704      1.668     3.94     3.499928     20.43713     96.79017        20     1.145     1.102  18.12   0
        40    131.5139    892.1474 299.9229205 +22.6653239     515.7538     72.47548      2.312     7.36      7.91002     20.43713     37.13063        12     1.465     1.035 -81.70   0
        41   1020.9545    890.7179 300.2003323 +22.9317082     359.4337     69.09563      1.622     4.02     3.637919     20.43713     36.85213         5     1.021     0.452 -67.03  16
        42    690.7349    888.6557 300.0980557 +22.8321206      594.956     72.49392      1.988     6.09     3.330313     20.43713     43.10828        10     1.233     0.847  41.21   0
        43    876.4679    884.9232 300.1571548 +22.8867373     828.4274     72.53078      1.844     5.47      3.51142     20.43713     53.16158        18     1.249     1.151  89.46   0
        44    216.4192    884.6972 299.9517342 +22.6886762     492.1946     72.36475      1.964     5.39     9.326789     20.43713      39.7603         8     1.089     0.768  48.00   0
        45    984.9507    882.2519 300.1918549 +22.9184864     198.7385     72.47548      1.330     5.31     3.587918     20.43713     40.94084         7     1.178     0.676  32.69   0
        46    925.1095    876.5175 300.1750565 +22.8989039     528.1006     72.54921      1.728     6.49     3.514704     20.43713     41.27145        12     1.253     0.943 -11.39   0
        47    776.3589    875.1137 300.1291404 +22.8539082     808.9498     72.42014      1.761     4.83     3.466709     20.43713     68.87409        15     1.106     1.056 -13.68   0
        48    199.0007    971.6101 299.9180437 +22.7083656     1844.603     72.25384      8.960    15.10     43.55779     20.43713     54.73368        63     2.973     2.451  28.31   2
        49    787.6710    872.2818 300.1335871 +22.8564868     631.8629     72.56763      1.693     4.95     3.476958     20.43713     53.78502        14     1.145     0.965 -70.63   0
        50    489.1621    871.5464 300.0408532 +22.7667502     4233.376     72.43858      1.608     3.13     3.594626     20.43713     418.8471        32     1.265     1.202  -7.42   0
        51    267.4438    860.3095 299.9755309 +22.6969975     389.5312     72.43858      1.695     4.91     5.084271     20.43713     45.64563         9     1.140     0.843  70.11   0
        52    532.9357    859.4622 300.0584099 +22.7764141     298.0964     72.47548      1.340     4.69     3.647668     20.43713     39.14909         7     0.894     0.696  65.84   0
        53    704.9694    968.6624 300.0764586 +22.8593526     6842.167     72.45703      1.851     4.11     3.085181     20.43713     428.8166        48     1.520     1.409  13.51   0
        54    214.2604    857.2256 299.9599984 +22.6801507     703.7576     72.43858      1.576     4.53     6.364761     20.43713      73.4423        15     1.152     1.005  -0.03   0
        55    191.3289    854.1212 299.9538795 +22.6723774     1483.372     72.54921      1.785     4.09     6.163795     20.43713     137.5179        28     1.454     1.275  21.47   0
        56      7.9468    973.9833 299.8579076 +22.6516739     733.8609     72.42014      3.609     5.63    -2.403913     20.43713     38.42783         8     1.315     0.679  58.23  16
        57   1017.5287    841.9300 300.2151343 +22.9166670      2052.82     72.51235      1.837     4.59     3.780157     20.43713     120.5898        30     1.363     1.284  -5.41  16
        58    723.1048    842.3181 300.1232135 +22.8285255     488.2469     72.60445      2.261     4.50     3.457181     20.43713     38.25187         6     1.140     0.505 -49.74   0
        59    800.4699    835.6704 300.1494849 +22.8498119     719.8958     72.53078      1.792     5.15     3.504675     20.43713     54.24908        16     1.190     1.007  44.60   0
        60    223.6082    835.7640 299.9698844 +22.6768019     365.3754     72.43858      1.333     3.85     5.556383     20.43713     51.30113         8     0.975     0.775  64.84   0
        61    669.1098    829.6465 300.1105133 +22.8086973     4872.719     72.42014      1.569     3.17     3.464162     20.43713     465.3726        35     1.257     1.226   0.17   0
        62    231.8462   1021.1929 299.9121188 +22.7324409     1373.111      68.3175      3.265     9.77     75.50007     20.43713     55.78812        22     2.025     1.316 -44.62  27
        63    471.1893    826.6288 300.0498686 +22.7484703     662.7156     72.43858      1.815     3.90       3.6585     20.43713     72.66045        14     1.203     0.931  40.27   0
        64    219.3616    823.4521 299.9725680 +22.6719965     1239.418     72.45704      1.625     3.79      5.00485     20.43713     118.5469        20     1.178     1.154  69.84   0
        65    689.6985    822.0119 300.1194100 +22.8126793     697.9097      72.3278      1.423     3.22     3.471889     20.43713     86.68691        15     0.999     0.972 -75.26   0
        66    488.2259    821.7299 300.0567643 +22.7521751     353.4297     72.43858      1.629     5.11      3.59221     20.43713     39.26807         7     1.206     0.612  57.95   0
        67    613.3583    959.3460 300.0509552 +22.8292001     1516.335     72.43858      1.825     4.33     3.200308     20.43713     101.1245        26     1.355     1.216 -59.56   0
        68    605.8298    813.1905 300.0961558 +22.7849974     370.9975     72.43858      1.586     4.08     3.445702     20.43713     36.73027         6     0.833     0.571 -38.30   0
        69    845.1011    809.4414 300.1719275 +22.8556588     4121.236     72.42014      1.599     3.38     3.524918     20.43713      332.084        29     1.204     1.176  39.03   0
        70    575.7306    805.7229 300.0892115 +22.7738273     178.2751     72.54921      1.217     3.41      3.51034     20.43713     30.84632         5     0.829     0.622  40.60   0
        71    562.1523    801.9317 300.0862165 +22.7686669     599.4614     72.42014      1.548     5.25     3.535827     20.43713     67.85622        16     1.294     1.099  26.75   0
        72    692.1447    999.4371 300.0624479 +22.8643376     9380.558     72.43858      1.958     4.57     2.940718     20.43713     562.7757        47     1.504     1.440  24.98   3
        73    208.4750    799.6636 299.9769190 +22.6619069      979.731     72.47548      1.605     3.95     4.012274     20.43713     102.2788        17     1.200     0.969  19.15   0
        74    358.1411    791.9058 300.0259844 +22.7045927     53701.75     72.51235      1.577     3.19     4.079759     20.43713      5809.79        96     1.429     1.396   9.07   0
        75    624.0334    795.0665 300.1077188 +22.7852539     530.9587     72.43858      1.575     4.78     3.451124     20.43713     46.03193         9     0.846     0.767 -71.59   0
        76    615.9861    791.0204 300.1065283 +22.7816793      1697.27     72.40167      1.539     3.40     3.445279     20.43713     137.2549        21     1.137     1.085  12.03   0
        77    286.5202    790.4601 300.0041781 +22.6826882     493.0254     72.49392      1.531     4.30     3.999875     20.43713     59.02797         9     1.037     0.846 -72.26   0
        78    645.0438    786.9814 300.1168918 +22.7892332     956.0793     72.45703      1.485     3.07     3.465771     20.43713     106.4547        19     1.139     1.015 -59.83   0
        79     44.2475    786.6923 299.9301008 +22.6088919     760.6742     72.45704      1.701     4.31     3.612399     20.43713     77.18511        13     1.329     0.692 -24.17   0
        80     11.8647    786.7363 299.9200275 +22.5991826     738.5408     72.47548      2.109     4.32     3.609515     20.43713     67.07499        11     1.080     0.869 -76.92   0
        81    655.8374    785.4841 300.1207406 +22.7920398     602.2142     72.42014      1.489     3.56     3.473383     20.43713     63.80155        11     0.928     0.845  55.24   0
        82    975.7587    783.2679 300.2211826 +22.8872983     265.9849     72.42014      1.216     3.87     3.699358     20.43713      36.7566         5     0.899     0.478 -45.65   0
        83    761.3263    782.0384 300.1547272 +22.8226772     461.2994     72.38321      1.453     4.81     3.512411     20.43713     48.82653         9     1.010     0.649 -37.93   0
        84    555.7058    779.0087 300.0916633 +22.7601542     310.8764     72.36475      1.491     4.84     3.546753     20.43713     31.09943         8     1.050     0.633 -22.52   0
        85    798.8100    772.1191 300.1696347 +22.8310650     779.1425     72.38321      1.534     3.71     3.530676     20.43713     61.28724        13     0.988     0.882 -49.87   0
        86    407.8817    769.1588 300.0488556 +22.7129887     31471.99     72.40167      1.521     3.02     3.973678     20.43713     2851.346        72     1.379     1.289  33.97   0
        87    422.1688    769.7715 300.0531019 +22.7174504     2148.987     72.43858      1.574     2.99     3.948347     20.43713     240.7021        25     1.176     1.105  -8.20   0
        88    931.0341    765.1082 300.2131384 +22.8686795      2999.45     72.40167      1.567     3.31     3.526024     20.43713     240.5764        28     1.263     1.150  48.07   0
        89    419.0951    763.7296 300.0541099 +22.7147946     744.8688     72.54921      1.571     3.29     3.958437     20.43713     62.05529        11     0.934     0.797  78.02   0
        90    688.7595    761.1287 300.1389155 +22.7949182     950.1606     72.42014      1.516     4.20     3.491316     20.43713     87.55277        16     1.219     0.878  43.67   0
        91    290.4391    761.0282 300.0149661 +22.6754213     763.3826     72.47548      1.464     3.29     3.708974     20.43713     98.98786        15     1.077     0.932  58.26   0
        92    525.2646    761.2486 300.0879606 +22.7459272     428.6749     72.45704      1.606     3.30     3.648498     20.43713     48.91973        10     1.023     0.667  14.30   0
        93    583.6241    759.5868 300.1066712 +22.7629517     363.3894     72.43858      1.768     4.13     3.490496     20.43713     30.35519         5     0.988     0.492   1.25   0
        94     94.9106    756.9321 299.9555166 +22.6155673     370.4472     72.58604      1.479     5.53     3.615874     20.43713     42.59095         8     1.101     0.783 -48.28   0
        95    535.9202    755.9122 300.0930128 +22.7475912     814.3158     72.58604      1.447     3.19     3.608785     20.43713     90.71874        13     1.026     0.821  29.56   0
        96    937.0787    753.3416 300.2188495 +22.8671106     529.3932     72.47548      1.792     6.78     3.522508     20.43713     38.34744        14     1.305     0.986  32.10   0
        97    438.1826    752.5507 300.0636840 +22.7173123     294.5844     72.47548      1.211     3.35     3.932802     20.43713     52.53633         5     0.784     0.414 -24.46   0
        98    394.1537    751.9215 300.0501884 +22.7039245     338.6547     72.43858      1.304     3.10     3.975723     20.43713     53.77571         6     0.857     0.675  41.02   0
        99    481.7482    751.1389 300.0777016 +22.7299743     363.2005     72.49392      1.502     5.07     3.877003     20.43713     48.63998         9     0.901     0.806 -18.25   0
       100    690.3558    750.1468 300.1429834 +22.7922437     371.1163     72.45703      1.687     4.18     3.493121     20.43713     38.23807         5     1.147     0.434  32.61   0
       101    124.3494    750.2551 299.9668351 +22.6224887     492.3904     72.47548      1.485     2.32     3.536414     20.43713     52.96577         5     0.665     0.475  85.34   0
       102    914.4720    747.5363 300.2136869 +22.8586687     367.4822     72.47548      1.678     4.76     3.524186     20.43713      38.6657         6     0.923     0.726 -75.20   0
       103    287.9855    745.2388 300.0193363 +22.6701555     660.6964     72.45703      1.490     4.81     3.541337     20.43713     63.28154        13     1.073     0.980 -24.07   0
       104    580.7731    733.9876 300.1141060 +22.7547482     594.0859     72.43858      1.406     3.37     3.501248     20.43713     67.03651        12     0.966     0.854  87.92   0
       105    997.4227    730.5388 300.2450855 +22.8786398     4477.132     72.42014      1.694     3.47     3.444742     20.43713     388.2596        35     1.349     1.187  27.78   0
       106    602.9580    731.5138 300.1218187 +22.7606902     1372.669     72.40167      1.419     2.89     3.465007     20.43713     135.1765        20     1.063     1.037  11.77   0
       107    490.2418    733.0767 300.0862173 +22.7273378     439.4688     72.40167      1.410     4.86     3.886683     20.43713     53.29556         7     0.991     0.674  87.13   0
       108    522.9884    730.7625 300.0971633 +22.7364943     356.1211     72.43858      1.245     2.49     3.691748     20.43713     49.95955         5     0.772     0.473  59.46   0
       109    684.7294    726.3932 300.1489531 +22.7837364      286.137     72.40167      1.522     4.61     3.490141     20.43713     33.50992         8     0.971     0.622 -19.64   0
       110    985.8448    721.8691 300.2442923 +22.8726800     1816.871     72.40167      1.694     3.51     3.534445     20.43713     135.6534        25     1.340     1.098  42.20   0
       111    348.7664    715.5922 300.0478783 +22.6798847     907.0656     72.43858      1.459     3.18     3.908892     20.43713     92.03136        15     1.050     0.915 -47.75   0
       112    812.2152    713.1576 300.1929827 +22.8181488     2494.696     72.45703      1.491     2.93     3.567813     20.43713     221.2715        29     1.328     1.090  -1.37   0
       113   1017.0156    712.0100 300.2572216 +22.8791855     1723.364     72.36475      1.653     3.50     3.555631     20.43713     137.7412        24     1.300     1.086  65.40  16
       114     34.4969    703.4909 299.9541185 +22.5821092     927.3623     72.62286      1.875     4.56     3.767145     20.43713     78.01857        23     1.390     1.235  48.80   0
       115    197.6721    699.5095 300.0061201 +22.6299386     639.8972     72.60445      1.702     3.58     3.438746     20.43713      76.8623        12     1.087     0.992 -10.14   0
       116    894.8978    699.1421 300.2233160 +22.8389005     663.5014     72.53078      1.531     4.77     3.821972     20.43713     52.08725        11     1.081     0.717   9.57   0
       117    930.6901    690.0724 300.2374258 +22.8470192     148983.6     72.60445      1.584     3.09     3.885368     20.43713     12488.36       160     1.477     1.475  38.82   0
       118    764.9786    694.2457 300.1844079 +22.7985595     930.5625     72.49392      0.507     0.84     3.536474     20.43713     657.2164         6     0.431     0.332  86.50   0
       119    692.9096    693.9969 300.1620326 +22.7768860     354.8958     72.34628      1.339     3.60     3.497269     20.43713     49.87336         5     0.817     0.456  16.24   0
       120    783.1846    690.5276 300.1912905 +22.8029483     780.2238     72.43858      1.370     2.99     3.536474     20.43713     82.81015        12     0.927     0.858 -16.87   0
       121    962.9986    683.3598 300.2496845 +22.8547702     350.4792     72.45703      1.300     3.90     3.880577     20.43713     42.71842         8     0.967     0.761  61.11   0
       122    616.9330    678.9314 300.1432633 +22.7497834     1494.363     72.49392      1.336     2.57     3.587242     20.43713     218.1892        19     0.985     0.964  39.62   0
       123    798.1785    676.1671 300.2006315 +22.8033170     9473.193     72.43858      1.444     2.83     3.536474     20.43713     906.6305        42     1.235     1.177  62.00   0
       124    299.6564    671.2461 300.0470168 +22.6524279     4794.036     72.47548      1.501     2.74     3.534018     20.43713     549.6714        33     1.189     1.157 -37.37   0
       125    381.5728    669.0699 300.0732053 +22.6763753     1309.361     72.43858      1.630     4.60     3.725878     20.43713     139.2392        20     1.365     0.920  58.15   0
       126     13.3810    669.5738 299.9585821 +22.5660453     1597.993     72.45704      1.728     3.98     3.382558     20.43713     151.1777        23     1.303     1.121  -3.54   0
       127    257.1729    666.8743 300.0352260 +22.6384286     565.9071     72.43858      1.439     3.24     3.461293     20.43713     71.65457        10     0.971     0.846  87.13   0
       128    589.9052    664.8290 300.1394297 +22.7376312     802.2562     72.36475      1.377     3.05     3.683706     20.43713     100.7787        12     0.975     0.772  47.90   0
       129    581.6851    656.9500 300.1394307 +22.7329045     3159.005     72.42014      1.373     2.64     3.757831     20.43713     413.5856        25     1.107     1.020  78.06   0
       130    571.8452    650.7105 300.1383944 +22.7281629      1404.03     72.43858      1.351     2.20     3.811825     20.43713     233.8678        18     1.039     0.924   7.42   0
       131    500.6767    649.5483 300.1166150 +22.7064906     331.1449     72.43858      1.264     3.34     3.730032     20.43713     41.47951         5     1.101     0.294  69.93   0
       132    965.5415    648.4328 300.2618298 +22.8454956     478.2601     72.45704      1.440     3.31     3.719135     20.43713     67.05383        10     1.069     0.644  37.71   0
       133    234.9653    646.8006 300.0348442 +22.6260067     576.2304     72.40167      1.519     4.23     3.449132     20.43713     69.49699        12     1.119     0.768  23.84   0
       134    249.4925    645.3922 300.0398189 +22.6299608     603.1275     72.34628      1.384     3.79     3.451665     20.43713     64.89356        13     0.986     0.945 -39.93   0
       135   1018.7322    642.3042 300.2804146 +22.8596676     591.6478     72.58604      1.721     4.72     3.455105     20.43713     52.04834        11     1.091     0.774  22.76  16
       136    275.0686    642.2701 300.0487865 +22.6367376     544.8814     72.49392      1.398     3.96     3.457871     20.43713     67.75977        12     1.118     0.793 -11.04   0
       137    306.2700    642.2381 300.0585005 +22.6460881     423.9076     72.40167      1.524     3.90     3.520093     20.43713     42.24188         6     0.787     0.553  39.90   0
       138    595.7612    641.1746 300.1489407 +22.7325949     418.8753     72.45703      1.328     2.61      3.92456     20.43713     62.83346         9     0.882     0.652  20.93   0
       139    496.6030    640.4635 300.1182992 +22.7026611     1832.529     72.42014      1.345     2.49     3.790174     20.43713      222.154        19     1.062     0.928  30.88   0
       140    150.6171    635.3337 300.0123495 +22.5974099     19769.41     72.42014      1.601     3.08     3.421736     20.43713     2034.604        58     1.361     1.303  41.83   0
       141    581.5115    635.8675 300.1462279 +22.7267991     980.6991     72.54921      1.432     2.81      3.96748     20.43713     136.0402        16     1.005     0.976  89.58   0
       142     71.6608    636.9058 299.9873027 +22.5741679     821.1653     72.53078      1.812     3.77     3.369554     20.43713     82.34088        13     1.024     0.967  26.34   0
       143    616.6024    634.6516 300.1575510 +22.7369696     341.3672     72.43858      1.446     4.90      3.93612     20.43713     43.33354         8     0.930     0.732 -48.97   0
       144    335.0236    627.5681 300.0722110 +22.6505029      286.011     72.43858      1.090     3.97     3.551905     20.43713       37.883         7     0.925     0.613 -53.63   0
       145    999.6671    622.1203 300.2810261 +22.8481560     1105.608     72.54921      1.521     3.30     3.297814     20.43713     104.9845        15     1.052     0.924  34.51   0
       146     96.6738    619.2099 300.0008244 +22.5765983     1597.003     72.43858      1.865     4.81     3.384756     20.43713     110.0602        24     1.620     0.985  89.58   0
       147    866.4783    620.2533 300.2400947 +22.8077200     455.2809     72.47548      1.441     4.04     3.974431     20.43713     62.41839        10     1.142     0.708  -1.95   0
       148    163.3083    620.1732 300.0212201 +22.5968686     218.7731     72.38321      1.049     2.36     3.424778     20.43713     51.82462         5     0.711     0.444  76.87   0
       149    939.0867    614.7711 300.2645179 +22.8278973     864.8226     72.43858      2.084     6.97     3.564272     20.43713     82.33221        19     2.009     0.979   9.47   0
       150    545.3391    616.2758 300.1413311 +22.7103291     310.1497     72.49392      1.169     3.08     4.157057     20.43713     58.23417         9     0.952     0.689 -23.80   0
       151    683.9419    613.3997 300.1854324 +22.7510512     288.7289     72.38321      1.298     3.91     3.611301     20.43713     49.47339         6     1.129     0.460   9.37   0
       152    501.7065    608.6421 300.1302280 +22.6950556     564.1808     72.45704      1.290     3.05     4.022165     20.43713     89.21255        13     1.043     0.803 -43.82   0
       153    649.7872    607.4006 300.1767421 +22.7390911     513.6401     72.25384      1.266     2.40     3.840888     20.43713     70.25229         7     0.757     0.610  27.79   0
       154    696.7706    605.5401 300.1919830 +22.7526387     601.2328     72.47548      1.486     2.80     3.623632     20.43713     78.71188        10     0.917     0.726  48.28   0
       155    545.7816    604.8205 300.1451910 +22.7071727     910.6661     72.43858      1.433     2.88     4.207433     20.43713      110.638        13     0.937     0.863  37.93   0
       156    667.5540    605.3126 300.1829549 +22.7438167     588.4955     72.42014      1.366     3.46     3.674032     20.43713     83.67574        10     1.135     0.635  -3.17   0
       157    511.4485    600.0362 300.1360568 +22.6955057     1732.853     72.45703      1.350     2.55     4.039178     20.43713     220.7543        19     1.068     0.960  68.05   0
       158    979.7929    600.0754 300.2819899 +22.8358673     3261.948     72.36475      1.517     2.97     3.372547     20.43713       298.34        27     1.195     1.128  73.62   0
       159    876.7452    597.3530 300.2507371 +22.8042159      422.097     72.47548      1.660     4.29     3.826916     20.43713     40.21315         6     0.749     0.702  54.34   0
       160    487.0537    595.1148 300.1300620 +22.6867786     238.4359     72.49392      1.341     3.94     3.934228     20.43713     49.46975         6     0.895     0.497  31.64   0
       161     73.4313    593.4263 300.0019794 +22.5622280     5207.075     72.43858      1.745     3.17     3.355661     20.43713     563.2723        38     1.369     1.280  35.22   0
       162    540.4862    590.4756 300.1482031 +22.7014662     271.0278     72.56763      1.042     3.66     4.108131     20.43713     51.81476         6     0.965     0.400  70.08   0
       163   1018.9963    590.5452 300.2973166 +22.8448700     414.0875     72.38321      1.288     3.74     3.305315     20.43713     40.12933         6     0.806     0.498  -1.79  16
       164    374.8598    586.6951 300.0978836 +22.6507193      9090.84     72.51235      1.398     2.62     3.490892     20.43713     1162.321        39     1.198     1.113  37.12   0
       165    497.3539    583.7701 300.1369541 +22.6866096     8972.277     72.47548      1.360     2.52     3.951258     20.43713     1194.136        41     1.204     1.112  56.23   0
       166    743.1859    581.0396 300.2144059 +22.7595109     330.0596     72.45703      1.589     5.01     3.630022     20.43713     42.37887         6     1.161     0.611 -23.64   0
       167    909.0321    577.8160 300.2671527 +22.8082741     1986.788     72.42014      1.474     2.82     3.758857     20.43713       222.23        25     1.182     1.070  78.27   0
       168    993.6744    575.1703 300.2944123 +22.8328668      12462.2     72.45703      1.538     2.92     3.620225     20.43713     1224.119        46     1.295     1.251 -79.29   0
       169    557.9221    573.3503 300.1591957 +22.7017756     11448.53     72.43858      1.323     2.45     4.019789     20.43713     1505.505        44     1.160     1.117  12.10   0
       170    285.4152    568.8237 300.0758672 +22.6187645     1296.052     72.43858      1.424     2.67     3.417996     20.43713     174.5281        18     1.042     0.992  -9.11   0
       171    727.3724    569.1906 300.2133279 +22.7513683     567.3339     72.43858      1.468     2.67     3.633418     20.43713     69.24241         9     0.853     0.678 -20.45   0
       172    443.3277    568.0154 300.1252569 +22.6658879      254.079     72.43858      1.239     2.48     3.783376     20.43713     47.78117         7     0.703     0.665 -45.06   0
       173    532.2300    566.3795 300.1534611 +22.6920720     335.8306     72.43858      1.127     2.98     3.972865     20.43713      51.3838         8     0.883     0.613  15.96   0
       174    489.5181    561.4789 300.1417567 +22.6778601     4470.276     72.56763      1.336     2.30     3.899752     20.43713     652.2894        29     1.133     1.043  50.07   0
       175    832.6981    561.7717 300.2485649 +22.7807956     807.1365     72.38321      1.309     2.85     3.697626     20.43713     104.6066        12     0.958     0.818  -2.40   0
       176    467.7611    559.9158 300.1354925 +22.6708883     1182.815     72.42014      1.335     2.49     3.861419     20.43713     166.4027        16     0.971     0.917  10.09   0
       177    221.9430    559.1297 300.0592794 +22.5969443     732.4855     72.45703      1.365     3.18     3.413121     20.43713     91.44556        13     1.050     0.931  28.92   0
       178    909.2656    557.1701 300.2739331 +22.8024107     1766.837     72.45703      1.668     3.25     3.797477     20.43713     159.8293        22     1.229     1.022 -15.50   0
       179    155.9254    557.3155 300.0393461 +22.5766196     390.6601     72.53078      2.084     4.53     3.424352     20.43713     39.66086         7     1.153     0.562 -23.84   0
       180    789.9502    553.9684 300.2377749 +22.7657459     782.0024     72.47548      1.335     2.88     3.834792     20.43713     103.5707        14     1.043     0.805  51.04   0
       181    606.1788    549.0750 300.1821090 +22.7092690     201224.3     72.43858      1.335     2.48     3.797634     20.43713     25181.62       190     1.421     1.366  -0.83   0
       182    429.6186    554.7628 300.1252957 +22.6579727     481.0038     72.43858      1.493     3.46      3.80634     20.43713     46.54681         8     0.897     0.649  77.50   0
       183    292.1880    548.8985 300.0844460 +22.6150773     3407.746      72.3278      1.453     2.82     3.397179     20.43713     440.1319        27     1.213     1.043  38.13   0
       184    857.9843    545.2900 300.2618024 +22.7836348     711.5378     72.36475      2.154     3.42     3.467296     20.43713     59.47948        10     0.899     0.790  33.29   0
       185    471.7009    545.9998 300.1412392 +22.6680739     270.3616     72.27234      1.122     3.88     3.873494     20.43713     39.21338         6     0.863     0.610  49.09   0
       186    496.5251    533.4858 300.1530311 +22.6719229     269.6657     72.54921      1.306     3.55     3.873421     20.43713     36.32866         5     0.790     0.461 -18.14   3
       187    496.7868    529.3010 300.1544719 +22.6707997     2622.131     72.34628      1.319     2.35     3.871823     20.43713     340.5887        24     1.123     0.960 -80.24   2
       188    340.9148    531.9399 300.1051105 +22.6248225     387.1034     72.54921      1.213     2.87     3.479513     20.43713      70.0146         8     0.964     0.535  37.40   0
       189    946.5556    529.5784 300.2945261 +22.8056498     242.3837     72.49392      1.535     4.23     3.822983     20.43713     32.04634         5     0.961     0.530 -44.45   0
       190    907.8391    525.3577 300.2838226 +22.7928404     317.1104     72.53078      1.297     3.50     3.621453     20.43713     65.16932         8     0.963     0.649  33.73   0
       191    601.2114    525.2222 300.1883101 +22.7009293     327.1675     72.42014      1.922     4.41     3.773045     20.43713     27.35332         5     0.754     0.734  -3.11   0
       192    813.9553    518.1707 300.2568858 +22.7626517     447.4026     72.47548      1.383     2.26     3.805084     20.43713     64.85143         8     0.784     0.692  -9.41   0
       193    893.8313    515.7212 300.2825846 +22.7858751     1885.229     72.42014      1.493     2.70     3.464086     20.43713     228.0047        20     1.041     0.983  66.36   0
       194    765.0248    513.3452 300.2432023 +22.7466058     2681.813     72.47548      1.333     2.42     3.841605     20.43713     335.6978        23     1.082     0.946  53.23   0
       195     23.8088    514.0257 300.0123537 +22.5245618      905.616     72.43858      1.689     5.07        3.411     20.43713     77.98365        17     1.340     1.044   3.74   0
       196    669.6188    509.9202 300.2145875 +22.7170348     351.4714     72.43858      1.225     3.56     3.849088     20.43713     59.55007         8     0.886     0.656  24.36   0
       197   1022.3663    507.3371 300.3253998 +22.8219596      1370.53     63.32212      1.524     2.99     3.584866     20.43713     153.3945        20     1.233     0.976  71.05  24
       198    552.2750    509.0444 300.1783261 +22.6816154     768.7413     72.42014      1.279     2.67     3.814332     20.43713     113.7097        12     0.902     0.814  25.03   0
       199   1008.0359    506.7643 300.3211149 +22.8175037     935.2114     72.51235      2.085     3.40     3.577101     20.43713     76.67937        14     1.177     0.753  24.98   0
       200    894.0876    505.4829 300.2859900 +22.7830092     2336.008     72.54921      1.827     4.45      3.38213     20.43713     235.6279        31     1.753     1.028  73.75   0
       201    647.2668    503.8164 300.2096071 +22.7085832     571.5317     72.42014      1.265     2.68     3.825711     20.43713     75.37171        11     0.921     0.767 -21.95   2
       202    647.2111    499.8959 300.2108631 +22.7074403     493.6087     72.34628      1.759     5.30     3.831869     20.43713     45.19976        10     1.194     0.863 -32.49   3
       203    433.2278    503.6229 300.1430296 +22.6443720     347.9211     72.43858      1.182     2.74      3.86969     20.43713     51.14717         7     0.794     0.629 -76.54   0
       204    932.2949    500.8060 300.2994242 +22.7931084     4245.042      72.3278      1.429     2.70     3.460667     20.43713     526.7477        30     1.144     1.091  70.95   0
       205    485.9453    502.1798 300.1599059 +22.6597616     934.9014     72.42014      0.485     2.55     3.872847     20.43713     591.1478         7     0.523     0.370 -16.18   0
       206    573.2722    500.2960 300.1877054 +22.6853962     343.1875     72.54921      1.452     3.77     3.787178     20.43713     47.60863         6     0.925     0.690 -15.77   0
       207    669.8895    497.5715 300.2186825 +22.7135684     307.7371     72.42014      1.238     3.45     3.878746     20.43713     42.81599         8     0.866     0.660  49.34   0
       208    592.9988    496.7137 300.1950119 +22.6902795     389.9179     72.34628      1.258     2.42     3.772318     20.43713     57.97101         7     0.747     0.609  11.72   0
       209   1023.3857    491.2038 300.3309579 +22.8176265     558.5601     57.89734      1.409     3.43     3.408584     20.43713     69.80557        11     1.151     0.673 -86.63  24
       210    164.3097    491.0515 300.0634738 +22.5601207     1072.288     72.45703      1.423     2.83     3.422294     20.43713     118.5545        14     0.998     0.846 -48.89   0
       211    430.6628    484.1963 300.1485404 +22.6380250     297.5815     72.42014      1.168     4.16     3.877057     20.43713     35.49263         6     0.750     0.659   0.01   0
       212    156.7454    480.8498 300.0644354 +22.5549242     433.6374     72.47548      1.502     3.45     3.422618     20.43713     66.99893        11     1.065     0.882 -87.24   0
       213   1021.1152    480.6064 300.3336913 +22.8138998     382.2951     68.49335      1.505     4.18     3.296194     20.43713     35.93803         5     1.081     0.488  -1.17  16
       214    764.4010    475.1090 300.2554263 +22.7354321     375.5186      72.3278      1.186     2.68       3.9262     20.43713     55.19579         7     0.735     0.645  78.16   0
       215    653.3665    473.0182 300.2215094 +22.7015635     451.7947     72.42014      1.408     2.14     3.874535     20.43713     63.74705         7     0.697     0.632 -75.02   0
       216    705.4378    471.2212 300.2383151 +22.7166495     773.6334     72.45703      1.344     3.12      3.92464     20.43713     97.80738        12     1.079     0.715  42.82   0
       217    493.7832    469.6414 300.1729126 +22.6527668     274.4631     72.45703      1.642     3.28     3.856975     20.43713     30.99557         5     0.737     0.451  16.34   0
       218   1020.2784    463.8871 300.3388600 +22.8088421     474.1493     71.24794      1.235     4.95     3.513087     20.43713     48.61266         9     0.913     0.760  -4.42  16
       219    766.3694    463.3500 300.2598584 +22.7326427     765.3215     72.47548      1.268     3.56      3.92152     20.43713     105.3764        13     1.177     0.773  63.77   0
       220    923.6635    459.7828 300.3100553 +22.7787311     942.2966     72.42014      1.422     2.77      3.37344     20.43713     127.9517        14     1.050     0.792  64.25   0
       221    907.9026    456.0986 300.3063365 +22.7729519     688.7244     72.64127      1.291     3.18     3.358686     20.43713     84.64943        10     1.016     0.645  56.82   0
       222    881.8835    457.5603 300.2977483 +22.7655796      333.416     72.40167      1.096     2.69      3.27726     20.43713     52.06477         5     0.721     0.469  17.13   0
       223    888.6938    456.1700 300.3003234 +22.7672197     298.6486     72.34628      1.222     4.14     3.304032     20.43713     37.52908         6     0.759     0.645  43.19   0
       224    652.2451    454.0395 300.2273231 +22.6957750     3288.833     72.51235      1.286     2.25     3.867012     20.43713     441.6775        25     1.063     0.976  35.50   0
       225   1012.8952    452.9779 300.3400992 +22.8034949     586.8644     72.34628      1.502     2.78     3.637889     20.43713     69.11772        10     0.866     0.756 -88.54   0
       226    128.4081    445.2471 300.0671882 +22.5362074     389.8451     72.45704      1.531     2.81     3.559594     20.43713     52.87736         8     0.963     0.552 -19.31   0
       227    492.4518    441.0204 300.1817918 +22.6441478     325.8118     72.42014      1.132     2.35     3.859202     20.43713     56.20702         6     0.762     0.497 -87.86   0
       228    935.6271    432.9356 300.3225044 +22.7745958     596.3044     72.42014      1.526     3.78     3.634229     20.43713     72.57868        12     1.164     0.796 -13.12   0
       229   1021.9095    431.8573 300.3497700 +22.8001209     924.9902     65.41924      1.442     3.09     3.929786     20.43713     120.6061        15     1.062     0.900 -32.59  24
       230    671.9843    429.8817 300.2413163 +22.6947485     270.4673     72.42014      1.355     3.01     3.906369     20.43713     51.51689         6     0.899     0.447 -38.79   0
       231    558.5512    428.6804 300.2063772 +22.6604136     375.5751     72.47548      1.214     2.30     3.764543     20.43713     78.96053         9     0.814     0.714  57.84   0
       232    762.7585    427.9429 300.2702302 +22.7213859     1008.282     72.42014      1.269     2.52     3.907871     20.43713     150.5265        12     0.927     0.744  40.56   0
       233    266.9880    426.2253 300.1164463 +22.5723077     680.6382     72.43858      1.366     2.37     3.798666     20.43713     95.76162        10     0.827     0.723  78.12   0
       234    329.1714    421.8049 300.1372218 +22.5896832     3643.423     72.40167      1.346     2.35     3.951175     20.43713     504.2133        27     1.131     1.001  58.24   0
       235    106.9496    423.9884 300.0674213 +22.5236703     203.0481     72.47548      1.221     2.00      3.60798     20.43713     43.60916         5     0.605     0.560  -0.64   0
       236    276.3685    416.5357 300.1225093 +22.5723387     7563.178     72.43858      1.398     2.44     3.893505     20.43713     1048.826        41     1.264     1.116  57.19   0
       237    417.1962    410.7545 300.1681961 +22.6128985     4860.705     72.42014      1.306     2.29     3.946083     20.43713     706.4619        31     1.155     0.997  65.20   0
       238    661.3831    407.5239 300.2452727 +22.6851482     18649.92     72.43858      1.266     2.20     3.880455     20.43713     2673.541        50     1.228     1.080  51.79   0
       239    679.0941    407.4926 300.2508003 +22.6904454     778.1244     72.60445      1.848     6.63     3.903663     20.43713     62.26059        14     1.562     0.860 -44.68   0
       240    858.4416    397.7813 300.3098490 +22.7413753     368.6514     72.45703      1.393     2.99     3.479497     20.43713     57.35073         8     0.885     0.693  35.63   0
       241    281.1630    394.7565 300.1310706 +22.5675235     314.6568     72.51235      1.591     6.03     4.110938     20.43713     42.40556        10     1.138     0.972 -68.56   0
       242     75.4716    394.2224 300.0673026 +22.5056865     341.3007     72.47548      2.091     4.17     3.755329     20.43713     34.48818         6     1.063     0.468 -33.60   0
       243    995.0996    389.9072 300.3550259 +22.7800314     853.8304     72.60445      1.615     4.68     4.045376     20.43713      95.2633        15     1.300     0.880 -55.24   0
       244    216.0771    387.6840 300.1131275 +22.5459777     1949.393     72.54921      1.408     2.64     3.795722     20.43713     248.1053        22     1.056     1.022  21.06   0
       245    602.0259    376.9747 300.2367016 +22.6585864     6659.248     72.40167      1.292     2.26     3.833387     20.43713     1016.921        35     1.157     1.014  57.37   0
       246   1015.6462    377.5167 300.3654586 +22.7826195     1106.232     72.42014      1.347     2.43     4.159636     20.43713     151.8812        17     1.075     0.914  31.65   0
       247    316.7837    376.4084 300.1481054 +22.5729348     522.4152     72.36475      1.276     2.61     4.358705     20.43713     79.61962         9     0.813     0.735 -86.55   0
       248    174.5668    369.5097 300.1061218 +22.5283131     516.9345     72.40167      1.301     3.06     3.826562     20.43713     58.58794        10     0.943     0.731  25.61   0
       249    861.7036    369.0384 300.3201970 +22.7340893      353.468     72.42014      1.230     2.51     3.644734     20.43713      58.0833         5     0.739     0.407  70.47   0
       250     21.8646    367.2487 300.0594029 +22.4818665     1215.043     72.45703      1.405     3.12     4.154475     20.43713     141.2608        20     1.073     1.050  59.31   0
       251    806.3530    365.9303 300.3039503 +22.7166198     1190.086     72.42014      1.455     3.23     3.884018     20.43713     145.2659        20     1.202     1.087 -41.68   0
       252    715.9637    367.5712 300.2752474 +22.6900182      484.993     72.45703      1.202     2.43     3.906447     20.43713     68.59106         6     0.751     0.495  -1.78   0
       253    508.6799    363.2543 300.2120896 +22.6266740     6253.589     72.47548      1.258     2.27     3.851134     20.43713     845.8515        31     1.084     1.009  64.12   0
       254    900.6555    357.7932 300.3359931 +22.7425202     1438.363     72.43858      1.426     2.49     3.729447     20.43713     184.2928        18     1.102     0.934  61.30   0
       255    997.9692    358.0485 300.3662633 +22.7717290     623.8484     72.47548      1.474     3.22     4.098473     20.43713     71.13479         9     0.846     0.785  58.66   0
       256    492.9551    352.1857 300.2107871 +22.6187821     559.1107     72.45703      1.448     3.37     3.889249     20.43713      74.0708        10     0.995     0.691 -41.19   0
       257     20.2695    348.7643 300.0649065 +22.4760837     1143.067     72.43858      1.567     3.24     4.355212     20.43713     138.8276        18     1.194     1.068  71.91   0
       258    575.9697    350.0660 300.2373215 +22.6430481     420.0814     72.43858      1.233     1.84     3.832999     20.43713     78.54458         5     0.588     0.557   3.34   0
       259    556.5142    347.8013 300.2319983 +22.6365680     374.6413     72.36475      1.421     3.50     3.804101     20.43713      46.7055         6     0.892     0.574 -23.15   0
       260    873.3447    345.2167 300.3315592 +22.7307265     639.5034     72.42014      1.416     2.82     3.756413     20.43713     82.94444        11     0.987     0.726  39.48   0
       261    396.2106    342.3916 300.1838565 +22.5869748     2585.957      72.3278      1.306     2.40     4.247954     20.43713     341.3824        26     1.130     1.003  74.19   0
       262    150.0088    343.9648 300.1067789 +22.5136161     1022.309     72.43858      0.433     2.29     3.863611     20.43713      772.877         5     0.407     0.392  88.44   0
       263    114.6105    339.8218 300.0971217 +22.5018117     989.0499     72.42014      1.550     2.84     3.876678     20.43713      129.006        18     1.119     0.972 -73.79   0
       264    743.9999    337.1429 300.2938604 +22.6896703     201.8103     72.34628      1.156     2.45     3.895305     20.43713     51.92037         6     0.853     0.456  31.26   0
       265    365.5532    331.8551 300.1777374 +22.5747597     29769.22     72.47548      1.356     2.36     4.488698     20.43713      4447.68        66     1.280     1.142  61.29   0
       266    900.2701    329.3922 300.3450914 +22.7342387     1417.519     72.42014      1.443     2.78     3.801946     20.43713     177.2163        20     1.168     0.943  63.53   0
       267    855.7981    327.5434 300.3318244 +22.7203912     256.5057     72.38321      1.334     3.89     3.785178     20.43713     42.58486         6     0.736     0.672 -61.70   0
       268     61.8968    319.6846 300.0872762 +22.4802231     5012.599     72.60445      1.543     2.95     4.223523     20.43713     569.0726        39     1.296     1.241  73.83   0
       269    937.3972    318.4698 300.3602151 +22.7422136     357.5592     72.38321      1.739     4.97     3.892564     20.43713     27.07984         5     1.182     0.592  57.58   0
       270    815.6089    318.5425 300.3222164 +22.7057690     432.6643     72.42014      1.260     3.30     3.823561     20.43713     65.48837         9     1.021     0.625 -25.46   0
       271    464.0145    317.2053 300.2131315 +22.6000608     521.9699     72.30931      1.284     3.28     3.924016     20.43713     77.58196        12     1.086     0.699  67.97   0
       272    239.8479    318.1606 300.1430830 +22.5331448     524.8403     72.47548      1.553     3.21     4.107683     20.43713     57.13478         6     0.727     0.583 -55.59   0
       273    776.0909    311.6056 300.3121498 +22.6919405     1848.979     72.34628      1.283     2.29     3.844807     20.43713     320.3379        21     1.138     0.948 -70.71   0
       274    584.0496    306.2691 300.2540517 +22.6328844     380.4787     72.43858      1.404     3.43     3.876497     20.43713     55.40385         7     0.900     0.610  18.43   0
       275    991.1142    304.8193 300.3814013 +22.7543685     541.4951     72.36475      1.314     2.58     4.098385     20.43713     79.06386        10     0.861     0.725 -86.49   0
       276    437.8255    296.3020 300.2117638 +22.5862079     2272.983     72.40167      1.443     2.67     4.100387     20.43713     297.9528        26     1.261     1.003  54.38   0
       277    650.2324    295.3520 300.2782078 +22.6495731     344.8029     72.47548      1.277     2.67     3.889066     20.43713     56.65074         8     0.864     0.616  17.91   0
       278    876.9716    289.2152 300.3508650 +22.7157105     657.4922     72.45703      1.270     2.62     3.846031     20.43713     99.21809         9     0.822     0.734  -4.56   0
       279     10.0736    287.4253 300.0816436 +22.4554221     752.6219     72.45703      2.035     6.39     5.079015     20.43713     70.72566        12     1.808     0.635 -28.50  16
       280    759.3271    286.7340 300.3149962 +22.6797704     347.7696     72.47548      1.240     2.83     3.835405     20.43713     63.25327         8     0.901     0.636  88.55   0
       281    513.7071    275.7064 300.2420665 +22.6030280     1142.188     72.60445      1.240     2.27     3.885351     20.43713     192.2886        13     0.895     0.805  55.98   0
       282    321.0285    276.1389 300.1819660 +22.5454125     267.0629     72.43858      1.195     1.95     4.574007     20.43713     62.33898         5     0.746     0.446  57.21   0
       283     86.4140    276.0264 300.1090602 +22.4750440     289.3324     72.45703      1.359     3.56     4.109826     20.43713     38.69684         6     0.934     0.524 -15.90   0
       284    599.0145    273.1458 300.2694604 +22.6278489     363.0908     72.43858      2.025     3.40     3.898819     20.43713     43.84607         5     0.668     0.566 -89.04   0
       285    896.9813    269.1779 300.3636065 +22.7159392     240.5595     72.43858      1.061     2.54     3.868216     20.43713     48.40495         6     0.793     0.605  -4.70   0
       286    758.5142    267.5725 300.3209605 +22.6740184     2117.314     72.43858      1.222     2.20     3.843924     20.43713     328.4362        20     1.062     0.870  62.59   0
       287   1019.7521    261.9949 300.4042326 +22.7506226     3165.689     72.17981      1.442     2.70     4.181747     20.43713     338.6946        28     1.166     1.085  77.03  16
       288    466.8100    251.5208 300.2353148 +22.5820278     627.3214     72.40167      1.180     2.35       4.1222     20.43713     103.2258         7     0.851     0.496  -4.60   0
       289    141.8028    245.4667 300.1361884 +22.4828784     1421.339     72.43858      1.676     3.30     4.056531     20.43713     167.7301        23     1.307     1.014 -45.05   0
       290    172.4110    245.6967 300.1456281 +22.4921208      628.343     72.34628      1.380     3.35     4.049776     20.43713      79.4949        11     1.000     0.767 -72.46   0
       291    852.7571    241.4586 300.3588106 +22.6947282     4780.544     72.42014      1.148     4.06     3.811171     20.43713     1294.277        10     1.143     0.412 -67.71   0
       292    879.6282    239.2059 300.3679199 +22.7021249      379.502     72.43858      1.434     4.37     3.826688     20.43713      40.4612         8     1.051     0.591  30.57   0
       293    226.0479    237.6441 300.1649160 +22.5058876       506.99     72.45703      1.341     2.99     4.224198     20.43713     69.94916         9     0.952     0.615  54.84   0
       294   1020.5706    235.2677 300.4131598 +22.7431791     203.7379     70.34173      1.182     3.84     4.190023     20.43713     49.17298         8     1.039     0.614 -51.41  16
       295     81.7341    234.8181 300.1209746 +22.4618110     290.1737     72.42014      1.385     3.78     4.414084     20.43713     35.63673         6     0.767     0.567  39.22   0
       296    901.6614    231.5050 300.3772891 +22.7065060     332.7179     72.53078      1.100     2.97     3.828387     20.43713     51.41026         6     0.852     0.472  87.53   0
       297    830.1657    228.9354 300.3558302 +22.6843635     681.6491     72.43858      1.386     3.59     3.795384     20.43713     96.38046        10     1.075     0.739 -79.89   0
       298    420.7803    228.7192 300.2283862 +22.5616848     364.3845     72.42014      1.296     1.92     4.280882     20.43713     66.14841         6     0.680     0.539  55.14   0
       299    104.8010    221.4257 300.1324871 +22.4648823     142.1708     72.38321      1.028     3.46      4.23336     20.43713     29.01764         5     0.789     0.439 -20.25   0
       300    928.3465    218.0222 300.3899854 +22.7106160     2149.844     72.45703      1.422     2.71     3.863227     20.43713     253.3318        26     1.155     1.048  58.13   0
       301    346.8561    215.1742 300.2097785 +22.5356419     2076.592     72.43858      1.350     2.47     4.393931     20.43713      277.522        22     1.158     0.922  62.04   0
       302    424.5114    210.2913 300.2355251 +22.5575083     991.0209     72.60445      1.373     3.05     4.283379     20.43713     115.8031        16     1.014     0.955  36.42   0
       303    176.9483    210.7323 300.1583805 +22.4834412     348.4814     72.45703      1.339     3.22     4.170536     20.43713     50.25035         6     0.856     0.584 -87.97   0
       304    826.8423    209.5711 300.3610761 +22.6778001     621.3312     72.45703      1.310     2.85     3.856083     20.43713     102.8891        10     0.954     0.766 -17.45   0
       305    933.7558    206.7335 300.3953346 +22.7089881      398.886     72.42014      1.309     2.13     3.947347     20.43713     59.36174         5     0.726     0.414  14.98   0
       306    241.4222    202.5118 300.1810928 +22.5004064      799.155     72.36475      1.291     2.41     4.323246     20.43713     118.2904        15     0.973     0.954 -51.53   0
       307     23.0398    203.6253 300.1128562 +22.4352571     401.9061     72.47548      1.496     3.89     5.419123     20.43713     36.27184         5     0.896     0.483   1.84   0
       308    359.6729    202.2645 300.2179535 +22.5357741     259.7167     72.47548      1.346     4.44     4.352651     20.43713      37.6283         5     0.829     0.677   8.36   0
       309    779.2975    199.3262 300.3495788 +22.6606196     1749.379     72.56763      1.286     2.37     3.939811     20.43713     239.7764        19     1.071     0.895  59.71   0
       310    844.0464    198.7694 300.3699436 +22.6798442     609.2766     72.45703      1.301     4.13     3.909035     20.43713     76.87606        10     1.140     0.639  59.44   0
       311    262.9545    195.8872 300.1899374 +22.5049573     447.8481     72.42014      1.230     2.90     4.375327     20.43713     69.40543        10     0.911     0.677  -5.53   0
       312    783.3845    190.8833 300.3535913 +22.6594156     685.8442     72.40167      1.282     2.57     3.967323     20.43713     100.2527        13     1.001     0.766 -88.29   0
       313    552.7399    191.6182 300.2814987 +22.5905569     230.7026     72.40167      1.075     2.79     4.041262     20.43713     60.02238         6     0.848     0.619  80.68   0
       314    703.9955    190.0950 300.3291063 +22.6354184     1293.439     72.34628      1.289     2.62     4.076993     20.43713     180.1197        16     1.111     0.778  85.96   0
       315    899.4312    181.8911 300.3926880 +22.6915687     1355.896     72.38321      1.249     2.12     4.039424     20.43713     219.1496        15     0.988     0.845 -32.17   0
       316    630.1105    181.7371 300.3087994 +22.6108899     971.9075     72.53078      1.304     2.36     4.118732     20.43713     151.0193        14     0.936     0.854  56.02   0
       317    911.4846    181.0805 300.3967099 +22.6949433     844.0092     72.58604      1.486     2.55     4.065354     20.43713     110.1229        10     0.951     0.611 -23.93   0
       318      1.9439    169.8802 300.1172470 +22.4192443     236.5865     59.80505      1.158     2.73     5.800382     20.43713     54.15726         6     0.866     0.465  30.26  24
       319     52.2780    167.7772 300.1335662 +22.4337322     397.8249     72.40167      1.393     2.89     5.035724     20.43713     63.44363         9     1.025     0.594 -78.40   0
       320    262.2811    163.9888 300.2000735 +22.4955933     758.5062     72.42014      1.378     2.83     4.287063     20.43713     99.06618        11     0.941     0.778  70.42   0
       321    930.8543    163.9293 300.4083138 +22.6958071     297.9414     72.47548      1.628     5.20     4.204042     20.43713     33.70771         5     1.176     0.649  67.23   0
       322    185.3003    163.7117 300.1762272 +22.4724416     212.9273     72.60445      1.209     5.19     4.266518     20.43713     28.12194         6     1.123     0.679  48.65   0
       323    124.0520    158.8306 300.1587715 +22.4526806     2307.914     72.47548      1.587     2.77     4.323269     20.43713     247.4972        27     1.219     1.142  50.83   0
       324    947.2818    155.9476 300.4160263 +22.6984274     763.8699     72.47548      1.455     3.23     4.220443     20.43713     84.52274        12     1.018     0.863 -13.82   0
       325     73.7236    156.0067 300.1440468 +22.4367822     504.8738     72.36475      1.437     3.21     4.715028     20.43713     59.22275         7     0.863     0.631  87.82   0
       326    281.4781    152.0981 300.2098999 +22.4979306     5628.002     72.54921      1.407     2.46     4.280067     20.43713     692.2392        38     1.259     1.111  55.52   0
       327     65.5547    146.4300 300.1446140 +22.4315835     1274.596     72.47548      1.665     2.99     4.839888     20.43713     153.3904        22     1.312     1.067  30.87   0
       328    265.1890    143.1083 300.2077491 +22.4904668     601.1047     72.38321      1.271     2.39     4.278283     20.43713     100.5155         9     0.896     0.600 -36.89   0
       329    925.6684    133.7481 300.4164846 +22.6855728     3478.625     72.43858      1.431     2.66     4.278519     20.43713     440.6736        29     1.256     1.017  88.59   0
       330    475.1560    129.0491 300.2776364 +22.5493351     696.6629     72.47548      1.367     2.67     4.270832     20.43713     102.9557        14     1.103     0.745  66.12   0
       331    228.1719    129.5525 300.2006336 +22.4754796     304.8864     72.45703      1.153     2.70     4.275778     20.43713     49.40592         5     0.729     0.431 -24.91   0
       332    589.1879    126.6594 300.3139158 +22.5828015     225.7602     72.42014      1.098     3.37     4.221222     20.43713     42.19734         5     0.769     0.428 -18.61   0
       333    399.2153    120.6109 300.2567378 +22.5241613     626.3708     72.38321      1.410     2.66     4.298557     20.43713     72.96468        10     0.903     0.708  83.06   0
       334    403.1240    119.4953 300.2583158 +22.5250117     362.1311     72.58604      1.205     3.77      4.29858     20.43713      57.5473         6     0.826     0.494  -6.90   1
       335    165.4515    118.1768 300.1848222 +22.4534147     637.0065     72.43858      1.485     3.03     4.294397     20.43713     81.24803        10     0.940     0.761  37.43   0
       336    526.4744    116.3024 300.2977458 +22.5610425     1731.534     72.58604      1.266     2.18     4.210216     20.43713     222.5202        17     1.010     0.822  57.61   0
       337    454.7115    116.6601 300.2752900 +22.5396506      404.371     72.51235      1.124     2.67     4.280315     20.43713     66.22473         8     0.864     0.606  17.30   0
       338     62.7762    116.9743 300.1533016 +22.4222928     288.7484     72.40167      1.435     4.64     4.890687     20.43713     45.75996         7     1.131     0.540 -24.45   0
       339    587.9826    115.3775 300.3171987 +22.5791974     443.2703     72.42014      1.236     2.45     4.230846     20.43713     60.85313         7     0.810     0.551  30.46   0
       340    270.1679    111.8060 300.2194475 +22.4829667     384.0628     72.43858      1.484     3.31     4.276607     20.43713     47.47067         7     0.900     0.600  71.91   0
       341    814.8819    105.7200 300.3910287 +22.6443525     387.2111     72.58604      1.080     2.06     4.351193     20.43713     70.17779         5     0.703     0.430  13.32   0
       342    662.2103    102.1689 300.3446022 +22.5976264     209.4009     72.43858      1.029     3.46     4.247729     20.43713     43.16375         5     0.804     0.519 -43.04   0
       343    960.6423    100.1984 300.4382726 +22.6863865     328.8908     72.43858      1.412     4.22     4.073277     20.43713     41.06404         7     0.977     0.725  22.84   0
       344    300.4786     95.9702 300.2340091 +22.4874994     5900.201     72.43858      1.405     2.53     4.279462     20.43713     773.6649        33     1.226     1.054  66.87   0
       345    151.5098     95.4377 300.1878609 +22.4427053     799.5703     72.42014      1.543     2.91     4.345585     20.43713     83.96662        11     0.919     0.813  35.16   0
       346    929.7162     93.9607 300.4306488 +22.6753376     310.4434     72.40167      1.608     3.86     4.325445     20.43713     41.75086         5     0.959     0.584  17.71   0
       347    272.4392     89.8293 300.2272791 +22.4773336     344.5151     72.43858      1.659     5.04      4.27924     20.43713     32.95346         8     1.040     0.692 -51.72   0
       348    315.5905     87.5375 300.2414437 +22.4896043     309.4203     72.36475      1.465     3.88     4.254866     20.43713     44.08519         8     0.888     0.732 -38.23   0
       349    776.5781     87.2495 300.3850777 +22.6275746     206.4015     72.43858      1.258     3.49     4.387633     20.43713     34.45874         5     0.751     0.468 -74.31   0
       350     62.5978     86.4067 300.1631564 +22.4134617     426.4011     72.25384      1.220     3.43      4.83233     20.43713     54.53746         6     0.951     0.433  34.40   0
       351    546.5659     81.3681 300.3153282 +22.5570176     6208.422     72.45704      1.326     2.33     4.084523     20.43713     844.8358        33     1.193     1.020  65.78   0
       352    432.0899     81.2133 300.2797420 +22.5226872     717.1874     72.38321      1.386     2.28     4.117862     20.43713     94.98097         9     0.761     0.708 -18.10   0
       353    603.5353     76.0787 300.3347843 +22.5725563     332.0794     72.53078      1.160     3.21     4.230717     20.43713     46.00247         6     0.795     0.499  89.11   0
       354    799.0170     71.4429 300.3971967 +22.6297446      844.111     72.45703      1.543     4.63     4.387633     20.43713     95.46095        17     1.430     0.981 -78.06   0
       355    891.2212     69.9559 300.4264263 +22.6569118     529.1318     72.49392      1.294     3.83     4.293942     20.43713     72.53557         9     1.098     0.673  36.61   0
       356    239.2254     64.9690 300.2250094 +22.4602393     395.0347     72.43858      1.288     4.29     4.292112     20.43713     58.77917         8     0.880     0.610  49.27   0
       357    597.9897     63.9790 300.3369797 +22.5674170     379.6084     72.42014      1.192     2.50     4.185225     20.43713     64.93263         9     0.768     0.743  71.14   0
       358    674.9450     61.4593 300.3617681 +22.5897331     6170.767     72.49392      1.352     2.28     4.116621     20.43713     997.6311        33     1.201     1.042  68.38   0
       359    449.8213     60.3962 300.2920093 +22.5220150     1427.868     72.40167      1.334     2.59     3.879317     20.43713     213.9785        19     1.129     0.919  44.55   0
       360    786.1293     57.6704 300.3976444 +22.6219257     428.0188     72.51235      1.880     4.52     4.387633     20.43713     69.34441         8     1.230     0.596  69.09   0
       361    716.2186     58.7727 300.3754991 +22.6013164     1000.891     72.45703      1.470     2.58     4.293301     20.43713     134.0613        14     1.021     0.898 -38.26   0
       362    731.8994     54.9420 300.3816273 +22.6049087     585.4238     72.53078      1.387     2.76     4.363965     20.43713     88.54179        10     0.928     0.703  52.84   0
       363     45.3737     53.4282 300.1684951 +22.3988283     325.2246     72.42014      1.687     5.46     4.685086     20.43713     41.54816         7     1.054     0.798 -27.05   0
       364   1001.7036     52.3448 300.4665971 +22.6849021      565.937     72.53078      1.670     3.97     3.490707     20.43713     58.78822        10     1.138     0.669  54.31   0
       365    198.6692     52.6772 300.2163835 +22.4445555     606.0021     72.54921      1.521     3.38     4.377351     20.43713     83.02979        13     1.092     0.830  77.61   0
       366    770.4032     50.5686 300.3950450 +22.6151760     378.2804     72.42014      1.113     2.72     4.387633     20.43713     84.04752         9     1.010     0.584 -28.10   0
       367    734.3763     45.2077 300.3855548 +22.6028504      828.531     72.43858      1.706     4.51     4.371619     20.43713       93.104        17     1.522     0.859  38.72   0
       368    719.0942     46.3398 300.3804256 +22.5986015     2710.271     72.53078      1.358     2.44     4.292636     20.43713     381.4207        25     1.112     1.024  79.13   0
       369    359.9930     47.0835 300.2683713 +22.4912821     423.2361     72.36475      1.263     2.88     3.823591     20.43713     55.04517         7     0.860     0.618  20.05   0
       370     12.7015     40.4160 300.1625622 +22.3852980      798.389     72.34628      1.609     3.73     4.559687     20.43713     94.39803        13     1.150     0.843  35.74   0
       371    980.8467     40.3010 300.4639945 +22.6751964     146.6305     72.45703      1.075     3.45     3.553774     20.43713     33.65074         5     0.977     0.352  45.57   0
       372    805.5857     38.0378 300.4100736 +22.6221016     1528.968     72.43858      1.397     2.68     4.387941     20.43713     176.0792        20     1.065     0.938  56.72   0
       373    965.8966     35.8446 300.4607754 +22.6694412      332.118     72.45703      1.609     5.32     3.609217     20.43713     35.11893         8     1.256     0.636  42.84   0
       374    883.6201     32.6303 300.4361561 +22.6438984     299.6846     72.43858      1.619     3.38     4.205784     20.43713     31.39716         5     1.039     0.319 -68.28   0
       375    743.4891     31.1737 300.3929439 +22.6015416      793.542     72.40167      1.328     3.00     4.387633     20.43713      110.141        13     0.976     0.879 -24.60   0
       376    549.2968     30.4048 300.3326994 +22.5431839     1135.177     72.34628      1.439     3.00      3.71819     20.43713     133.2156        15     1.063     0.882  61.31   0
       377    122.2156     30.4973 300.1998066 +22.4152732     669.3405     72.34628      1.508     3.40     4.583243     20.43713     68.30753         9     1.096     0.608 -34.43   0
       378    453.0388     28.7058 300.3032832 +22.5138697     975.9652     72.43858      1.589     2.90     3.538595     20.43713     116.9583        14     0.987     0.932  73.10   0
       379    835.0865     27.3001 300.4227511 +22.6278414     409.3558     72.60445      1.236     2.58     4.385122     20.43713     65.08742         7     0.803     0.628  56.30   0
       380    282.7565   1014.9763 299.9299714 +22.7459435     1279.883     72.49392      2.567    10.20     67.89297     20.43713     79.24593        32     2.316     1.761  11.76  19
       381    792.6535     19.2978 300.4121168 +22.6128404     712.2774     72.53078      1.456     2.73     4.387633     20.43713     78.61472         9     0.855     0.655   6.29   0
       382     16.7675     18.2259 300.1710174 +22.3801445     488.8561     72.43858      1.815     5.46      4.23353     20.43713     39.92138         9     1.085     0.776  72.99   0
       383    646.8913     15.6778 300.3678686 +22.5681691      383.365     72.58604      1.335     3.78     4.035816     20.43713     54.35481         7     1.048     0.664  35.17   0
       384    550.3190     15.7340 300.3377729 +22.5392719       413.05     72.54921      1.607     4.15     3.625624     20.43713     37.76497         7     1.099     0.447 -61.20   0
       385    538.8537   1015.3871 300.0095190 +22.8229253     469.4371     72.45703      2.029     7.23     2.676505     20.43713      39.8351        11     1.466     1.017 -27.70  16
       386    291.9309   1015.1810 299.9327578 +22.7487564     757.7496     72.43858      2.939     6.31     64.49004     20.43713     36.19637         8     1.498     0.747 -50.93  17
       387    751.7681     10.5460 300.4022102 +22.5980863      376.735     72.45704      1.178     2.43     4.387633     20.43713     40.18757         5     0.697     0.461  21.01   0
       388    408.0625   1013.3482 299.9694774 +22.7830903     616.9942     72.49392      1.901     5.73     3.832775     20.43713      38.9553        11     1.204     0.997  -1.40   0
       389    226.4941   1012.2439 299.9133674 +22.7282686     3777.801     72.45704      8.795    27.12     69.94595     20.43713     82.76546       323     5.589     5.325 -27.12  19
