#   1 NUMBER                 Running object number                                     
#   2 X_IMAGE                Object position along x                                    [pixel]
#   3 Y_IMAGE                Object position along y                                    [pixel]
#   4 ALPHA_J2000            Right ascension of barycenter (J2000)                      [deg]
#   5 DELTA_J2000            Declination of barycenter (J2000)                          [deg]
#   6 FLUX_APER              Flux vector within fixed circular aperture(s)              [count]
#   7 FLUXERR_APER           RMS error vector for aperture flux(es)                     [count]
#   8 FLUX_RADIUS            Fraction-of-light radii                                    [pixel]
#   9 FWHM_IMAGE             FWHM assuming a gaussian core                              [pixel]
#  10 BACKGROUND             Background at centroid position                            [count]
#  11 THRESHOLD              Detection threshold above background                       [count]
#  12 FLUX_MAX               Peak flux above background                                 [count]
#  13 ISOAREA_IMAGE          Isophotal area above Analysis threshold                    [pixel**2]
#  14 A_IMAGE                Profile RMS along major axis                               [pixel]
#  15 B_IMAGE                Profile RMS along minor axis                               [pixel]
#  16 THETA_IMAGE            Position angle (CCW/x)                                     [deg]
#  17 FLAGS                  Extraction flags                                          
         1    219.3517     17.0017 300.2354054 +22.4424389     3879.568     72.46323      1.544     2.56      4.97783     20.44929     461.4372        40     1.545     1.155  53.92   0
         2    641.6589     14.1185 300.3677504 +22.5680700     435.5822     72.53706      1.424     3.49     4.610979     20.44929     57.43175         7     0.953     0.631  74.60   0
         3    780.8331      9.6312 300.4125647 +22.6084312     817.5811     72.50015      1.379     3.07     5.174654     20.44929     107.5942        15     1.100     0.904 -54.67   0
         4    335.4870      9.0643 300.2740918 +22.4749449     1171.186     72.57394      1.342     2.57     4.935949     20.44929      141.221        15     0.993     0.860  81.21   0
         5    746.5227      8.9827 300.4020830 +22.5979774     353.1442     72.48169      1.284     2.97     5.188097     20.44929     44.65714         8     0.819     0.662  -3.81   0
         6    818.6412      4.3003 300.4260761 +22.6182104     847.1021     69.94494      1.739     4.39     5.076476     20.44929     87.11114        17     1.337     0.943 -85.44  24
         7    742.1460      4.2507 300.4022528 +22.5953063      455.493     69.88752      1.160     2.71     5.197042     20.44929     71.16028         5     0.891     0.345 -47.07  16
         8    838.6185      1.5259 300.4332024 +22.6233893      1506.18     57.44467      0.972     2.13     4.969739     20.44929     315.7054        12     0.828     0.673  15.93  24
         9    681.5888    999.9791 300.0600176 +22.8632829     8496.852     72.46323      1.939     4.36      3.24367     20.44929     464.9195        45     1.495     1.425  -2.55   3
        10    343.1350   1023.7177 299.9469566 +22.7685479     76.84619     56.17267      1.144     3.89     13.18137     20.44929     47.48433         6     1.064     0.408  11.13  24
        11    280.2910   1013.0751 299.9308786 +22.7466334      2228.92     72.64766      5.996    27.10     57.83221     20.44929     87.84216       149     8.118     2.512  -6.86  19
        12    248.4805    999.3665 299.9254502 +22.7331540     4271.568     72.44476      8.041    24.93     60.79445     20.44929     99.98888       309     6.034     4.421 -77.99  19
        13    267.1740    999.1441 299.9313339 +22.7387016     5469.843     72.48169     12.066    48.65     54.14641     20.44929     105.9088       666    12.676     5.182 -47.38  19
        14    285.6848    986.7635 299.9411176 +22.7407076     7591.496     72.46323      8.525    40.23     40.67064     20.44929     2382.451       674     9.752     4.607  60.74  19
        15    131.5693   1013.2328 299.8846038 +22.7020307     5320.847     72.50015     12.813    58.23     65.33608     20.44929     108.2224      1041    12.424     7.573  32.71  27
        16    124.8699    957.2563 299.9007356 +22.6839730     5208.182     72.50015     27.207    93.26     27.83818     20.44929     106.8669      4183    21.578    16.461 -78.10  18
        17    974.3222    983.9080 300.1564808 +22.9464367     741.8871     72.62924      2.022     8.02     3.284664     20.44929     49.58883        18     1.484     1.249  -4.70   0
        18    177.5996    962.8336 299.9153060 +22.7014020     1081.504     72.44476     14.376    16.71      41.3323     20.44929     44.54571        22     4.293     1.808 -28.29   3
        19    178.9493    970.9668 299.9130793 +22.7041390     1692.026     72.50015      6.738    12.82     47.44558     20.44929     52.19982        37     2.265     2.021  69.49   3
        20    403.1299   1011.5766 299.9695682 +22.7830713     714.3304     72.50015      2.313     4.66     3.315122     20.44929     54.81143        11     1.114     0.855  82.59   0
        21    195.6729    970.9377 299.9182862 +22.7091510     1555.546     72.51861      4.699    12.87     47.44558     20.44929     51.57085        28     2.626     1.754 -20.84   2
        22    179.0358   1020.9081 299.8968556 +22.7184824     1676.597     69.23345      2.979    12.49      85.6536     20.44929     55.21893        52     2.870     2.063  -9.83  24
        23    167.3276    967.6110 299.9105595 +22.6996880     925.8886     72.50015      4.307     4.09      45.1531     20.44929     44.78458         5     1.255     0.381  14.71   1
        24      2.6170    972.4058 299.8578334 +22.6516072     913.1806     63.25411      4.375     6.95    -6.512479     20.44929     42.57991        16     1.600     0.846  58.02  24
        25    580.1036    961.5859 300.0409094 +22.8218258     523.4419     72.38932      1.957     4.31     3.353608     20.44929     40.30814         9     1.005     0.781  76.47   0
        26    608.4066    957.7031 300.0509847 +22.8292009     1425.406     72.37083      1.705     3.74     3.407638     20.44929     113.3999        23     1.236     1.130 -30.55   0
        27    699.9161    967.0549 300.0764400 +22.8593296     6968.714      72.5555      1.852     4.07     3.398671     20.44929      454.577        48     1.454     1.419  38.83   0
        28    595.0148   1004.8034 300.0314886 +22.8386999     2272.813     72.31535      1.824     4.21     3.173942     20.44929     183.9127        28     1.358     1.225 -44.84   0
        29    502.1036    954.2020 300.0190329 +22.7963090     950.8592     72.38932      1.728     4.26     3.253254     20.44929     80.08661        20     1.241     1.140  -7.14   0
        30    432.8408    952.1558 299.9981463 +22.7749419     6597.628      72.5555      1.771     3.81     3.259064     20.44929     532.3136        45     1.428     1.357  -0.01   0
        31      3.8738   1014.4731 299.8445360 +22.6640402     1377.669     68.59265      7.989    12.90    -15.11108     20.44929     40.14148        33     3.572     1.295  65.91  27
        32    465.1176    938.9558 300.0124835 +22.7808388      604.738     72.44476      1.884     6.64     3.263274     20.44929     41.06287        12     1.278     0.967  49.93   0
        33     19.7194   1003.2072 299.8531226 +22.6655705     979.6804     72.40781      9.085     9.50    -3.113585     20.44929     37.79066        16     1.949     1.293 -69.12   2
        34    979.2690    930.8921 300.1752746 +22.9326926     2199.859     72.61081      1.988     4.81     3.328003     20.44929     121.7311        32     1.512     1.341 -52.74   0
        35    629.5067    928.8851 300.0669307 +22.8272586     370.5712     72.66608      1.516     5.25     3.527053     20.44929     34.45406         9     1.283     0.607 -15.30   0
        36    661.6307    925.7197 300.0779645 +22.8359838      117.331     72.48169      1.134     3.82     3.529927     20.44929     34.55892         5     1.038     0.404  73.94   0
        37    768.1829    919.8391 300.1130696 +22.8662451     772.7519     72.50015      2.137     7.18      3.69248     20.44929     59.33478        14     1.474     0.979  55.90   0
        38    803.0618    914.2426 300.1257588 +22.8750950     981.3255     72.48169      1.709     4.30     3.731792     20.44929     75.92596        21     1.264     1.117 -39.12   0
        39    580.5233    914.6075 300.0563242 +22.8084700     362.1243     72.42628      1.552     4.15     3.593936     20.44929     38.86448         6     1.053     0.466  35.25   0
        40    687.1003    997.7042 300.0624746 +22.8642829      9365.49     72.68449      1.885     4.22     3.251375     20.44929     559.9547        47     1.458     1.435  48.40   3
        41     13.2143    911.2087 299.8810321 +22.6372494     540.0046     72.38932      1.718     4.13     3.655598     20.44929     68.75552         8     1.094     0.818 -84.99   0
        42    825.1224    907.7673 300.1347404 +22.8798490      11313.3     72.46323      1.732     3.79     3.729062     20.44929     792.3367        48     1.401     1.348  -0.50   0
        43    781.9785   1000.9349 300.0909807 +22.8936627     569.5018     72.44476      1.634     6.39     3.101462     20.44929     45.44151        14     1.248     0.919 -53.93   0
        44   1016.3307    907.3605 300.1944899 +22.9370395     495.9157     72.44476      2.062     5.89     3.306126     20.44929     28.19762         9     1.082     0.904 -55.01   0
        45    871.1625    908.1290 300.1489731 +22.8937537     416.4188     72.46323      1.464     5.20     3.686076     20.44929      46.7683         9     1.006     0.759  -1.76   0
        46      7.4916   1010.7633 299.8468666 +22.6640636     1272.021     72.44476      9.308    14.98    -12.48053     20.44929     43.25711        33     4.930     1.266  63.58  27
        47    137.2301    899.2618 299.9234415 +22.6710564     1126.876     72.50015      3.087     3.53     9.439438     20.44929      68.5552        12     1.017     0.819  42.00   2
        48    876.4865    895.5731 300.1547173 +22.8917436     394.8674     72.48169      1.749     4.85     3.679643     20.44929     38.51805         7     1.333     0.877 -77.78   0
        49    530.3854    896.0313 300.0467594 +22.7881009     462.1014     72.48169      1.569     3.98     3.599875     20.44929     41.63548         8     1.009     0.584  69.47   0
        50    833.5805    889.7953 300.1432229 +22.8772236     1508.996     72.44476      1.683     4.29     3.738529     20.44929     110.2117        21     1.290     1.020  66.40   0
        51    126.7047    890.0179 299.9231777 +22.6652465      517.379     72.38932      2.186     6.04     7.805017     20.44929     42.72293         9     1.063     0.966  -3.12   0
        52    685.3296    886.5785 300.0980784 +22.8318545     529.7448     72.50015      1.736     6.01     3.563337     20.44929     53.12517        11     1.281     0.792  28.95   0
        53    871.4106    883.2620 300.1571398 +22.8866867     750.0567     72.40781      1.700     6.42     3.698849     20.44929     50.48432        19     1.294     1.188  10.35   0
        54    919.9800    874.6424 300.1750855 +22.8987677     523.7911     72.51861      1.782     4.90     3.662207     20.44929     50.68961         9     1.337     0.847 -20.46   0
        55    771.2108    873.4540 300.1291021 +22.8538347      813.668     72.48169      1.624     4.44     3.753547     20.44929     76.54746        15     1.111     0.949  86.48   0
        56    484.2056    869.9943 300.0408559 +22.7667775     4266.137     72.33385      1.560     3.25     3.388085     20.44929     434.3798        32     1.269     1.155 -34.05   0
        57    215.5296    989.8195 299.9183142 +22.7205254     1862.854     72.50015      5.324    16.67     61.96463     20.44929     63.76036        58     4.419     1.749  77.56   3
        58    782.9347    870.7498 300.1336348 +22.8565728     563.6588     72.51861      1.609     4.09     3.774604     20.44929     58.52813        11     0.967     0.918  78.84   0
        59    262.9232    858.9681 299.9756129 +22.6972254      468.573     72.48169      1.354     3.82     5.491288     20.44929      109.302         8     0.963     0.817 -14.44   0
        60      3.3360   1021.8806 299.8419586 +22.6660014     1035.289     59.52675      3.704     8.34    -17.56549     20.44929     41.25407        15     2.035     0.955  69.27  27
        61    527.8733    857.5876 300.0584816 +22.7763147     357.9861     72.50015      1.461     4.08     3.730702     20.44929     51.03036         6     1.030     0.483  -6.05   0
        62    209.6075    855.5037 299.9601659 +22.6802320     733.4384     72.37083      1.655     4.48     6.841085     20.44929     65.30167        13     1.162     0.911 -41.22   0
        63    186.3193    852.6452 299.9538574 +22.6724230     1520.484     72.46323      1.739     3.48     6.699657     20.44929     171.0212        22     1.230     1.177 -29.04   0
        64   1012.4680    840.2456 300.2151163 +22.9166007     2069.603     72.46323      1.895     4.82     3.748085     20.44929     124.8219        28     1.366     1.281 -83.40   0
        65    717.9160    840.8904 300.1230890 +22.8285074     435.5669     72.62923      1.887     3.99     3.834113     20.44929     40.41366         6     1.004     0.453 -38.82   0
        66    795.7715    834.2460 300.1495074 +22.8499382       577.88     72.51861      1.559     4.49     3.973991     20.44929     53.97294        15     1.138     1.040 -42.38   0
        67    218.5101    834.8397 299.9696528 +22.6769771     457.7125     72.48169      1.602     3.48     5.847498     20.44929     49.19912         7     0.870     0.616 -20.66   0
        68    664.0891    828.0764 300.1104901 +22.8086906     4757.274     72.62923      1.516     3.09     3.914982     20.44929     442.8672        30     1.200     1.134  18.12   0
        69    153.6813    828.8502 299.9514522 +22.6558035     386.7981     72.50015      1.556     5.44     5.424788     20.44929     42.48026         8     1.295     0.644 -15.77   0
        70    466.2797    824.9796 300.0499169 +22.7484828     539.8566     72.48169      1.514     3.91     3.660959     20.44929     63.76553        15     1.125     0.965  39.85   0
        71    214.3564    821.6551 299.9726489 +22.6719489      1249.74     72.48169      1.611     3.11     5.232838     20.44929     146.5966        19     1.183     0.992   5.57   0
        72    684.6376    820.5793 300.1193281 +22.8126988     701.8784     72.50015      1.419     3.94     3.968773     20.44929     70.14557        12     0.986     0.861  39.97   0
        73    482.8518    820.1359 300.0566490 +22.7520632     265.5812     72.53706      1.350     3.61     3.685542     20.44929     41.23355         5     1.270     0.296 -31.79   0
        74    233.3802    819.0066 299.9794236 +22.6768979     326.6527     72.44476      1.578     5.28     4.992693     20.44929     41.90771         8     1.167     0.673  -3.22   0
        75    601.4704    811.9021 300.0962500 +22.7852719      330.782     72.61081      1.392     4.11     4.087013     20.44929     38.40535         7     1.010     0.803  -7.01   0
        76    840.2083    807.7764 300.1719643 +22.8556547     4207.368     72.48169      1.608     3.36     4.021341     20.44929     338.3302        34     1.260     1.230  50.76   0
        77    248.7105    801.8889 299.9897551 +22.6765878      449.692     72.64766      1.555     4.26     4.269513     20.44929     51.84267         9     1.230     0.812 -50.68   0
        78    557.0815    800.2567 300.0862171 +22.7686186      603.803     72.51861      1.413     2.91     3.964402     20.44929     76.22195        10     0.843     0.786 -85.45   0
        79    203.5756    798.3531 299.9768745 +22.6620301     930.9769     72.50015      1.596     3.67      4.23853     20.44929     106.9732        19     1.365     0.883 -11.63   0
        80    353.1819    790.2725 300.0260174 +22.7045984     53889.16     72.48169      1.563     2.98     4.048692     20.44929     5367.279        96     1.417     1.380   1.00   0
        81    618.6158    793.6655 300.1075185 +22.7851773     519.0723     72.46323      1.348     3.42     4.168825     20.44929     64.59583        10     1.003     0.753 -76.13   0
        82    611.0212    789.3369 300.1065611 +22.7816575     1609.407     72.44476      1.430     2.87     4.170988     20.44929     158.1103        21     1.086     1.010  -8.31   0
        83   1023.3362    789.0354 300.2351600 +22.9051425     467.4592      58.3002      1.154     2.44     4.389372     20.44929     70.70796         7     0.728     0.619  74.78  24
        84    281.7768    788.3485 300.0044378 +22.6826246     561.0856     72.48169      1.828     4.38     4.230111     20.44929     50.56606        10     1.222     0.723  60.73   0
        85    639.8971    785.6381 300.1167556 +22.7892531     825.3972     72.46323      1.384     3.58     4.160306     20.44929     102.9314        14     1.113     0.837  14.24   0
        86     39.2845    784.8273 299.9302257 +22.6088438     816.3364     72.48169      1.769     4.18     4.109364     20.44929     77.28358        16     1.228     1.092 -43.88   0
        87      6.4307    785.4999 299.9198036 +22.5991747     732.7335     72.46323      1.781     4.30     4.059192     20.44929     72.96479        13     1.287     0.883 -27.66  16
        88    650.7769    784.0397 300.1206635 +22.7920560      556.709     72.51861      1.374     3.89     4.155408     20.44929     55.27854        11     0.998     0.777 -14.10   0
        89    970.3826    781.3907 300.2211294 +22.8870816     327.5191     72.42628      1.663     4.86     4.316693     20.44929     37.03467         6     0.909     0.741 -12.47   0
        90    756.1657    780.1097 300.1547702 +22.8225196     520.3866     72.46323      1.536     4.60     3.985892     20.44929     49.42745        11     1.138     0.740  -2.51   0
        91    793.8907    770.5779 300.1696244 +22.8310889     617.7618     72.40781      1.329     2.94     3.916777     20.44929     81.88219        13     1.039     0.800  -0.84   0
        92    402.8821    767.5444 300.0488663 +22.7129846     31823.62     72.53706      1.521     2.94     3.960803     20.44929     3228.754        66     1.332     1.255  25.47   0
        93    417.0891    768.0519 300.0531211 +22.7173915     2067.907     72.50015      1.564     3.18     3.914141     20.44929     202.9759        26     1.242     1.122  48.28   0
        94    926.0697    763.5785 300.2131025 +22.8686872     2677.558     72.48169      1.579     3.30     4.274848     20.44929     224.3251        27     1.181     1.172 -15.83   0
        95    955.8254    762.0554 300.2228763 +22.8771647      259.203     72.48169      1.794     6.00     4.322252     20.44929     27.59428         7     1.293     0.783  41.90   0
        96    413.8924    762.0386 300.0540815 +22.7147069     622.0359     72.48169      1.556     3.68     3.925147     20.44929      58.6055        10     0.913     0.747   8.48   0
        97    683.8741    759.4573 300.1389640 +22.7949193     964.3173     72.53706      1.530     3.39     4.082854     20.44929     84.08194        16     1.038     0.987  41.43   0
        98    520.3192    759.6011 300.0879919 +22.7459244     419.1635     72.37083      1.510     3.54      3.87369     20.44929     50.43953         7     0.964     0.483   5.41   0
        99     90.2913    755.0162 299.9557609 +22.6156042     400.7321     72.40781      1.445     4.55     4.186902     20.44929     59.49893        11     1.020     0.986  69.11   0
       100    531.0063    754.1846 300.0930793 +22.7475742     911.9131     72.38932      1.434     3.01     3.892559     20.44929     102.1988        15     1.002     0.943  85.38   0
       101    932.1434    751.1715 300.2190300 +22.8669422     450.9433     72.48169      1.320     5.27     4.326063     20.44929     52.29221        10     1.146     0.699  42.26   0
       102    476.8418    749.5093 300.0777414 +22.7299898     448.6216     72.48169      1.483     4.56     3.813501     20.44929     50.42049        10     1.139     0.748 -64.32   0
       103    432.6682    750.8620 300.0635564 +22.7171305     306.9971     72.53706      1.388     5.54     3.887304     20.44929     47.06934        10     1.329     0.650  -0.81   0
       104    285.4551    759.3755 300.0150006 +22.6754158     864.3524     72.51861      1.586     4.01     4.211537     20.44929     90.30331        12     0.997     0.919 -14.97   0
       105    118.5833    748.6620 299.9666163 +22.6222724     577.3156     72.46323      1.799     3.95     4.200594     20.44929     62.51656        10     1.051     0.759 -71.65   0
       106    909.8131    746.0652 300.2137275 +22.8587847     513.1097     72.42628      2.004     4.60     4.143135     20.44929     33.40276         8     0.851     0.706  41.61   0
       107    282.7902    743.7802 300.0192416 +22.6701418     537.5038     72.46323      1.478     4.80      4.20193     20.44929     71.38553        13     1.136     0.939  54.06   0
       108    606.2219    734.0993 300.1230248 +22.7643593     467.3114     72.40781      1.431     4.43     4.162123     20.44929      47.1386         8     0.869     0.642 -41.83   0
       109    575.7615    732.5872 300.1140324 +22.7547929     608.8765     72.48169      1.617     4.05     4.050832     20.44929     66.63921        13     1.195     0.826 -56.04   0
       110    614.0586    733.0004 300.1258221 +22.7663932     198.5493     72.44476      1.413     3.72     4.169785     20.44929     28.55302         5     0.658     0.606  -0.02   0
       111    485.2656    731.5948 300.0861864 +22.7273737     364.5867     72.48169      1.431     3.47     3.844724     20.44929     46.14817         7     0.850     0.653  71.39   0
       112    992.4622    728.8644 300.2450929 +22.8786028     4532.593     72.51861      1.627     3.57     4.351924     20.44929     369.1851        33     1.269     1.223   2.82   0
       113    597.7853    729.7147 300.1218232 +22.7605711     1351.524     72.42628      1.462     2.92     4.136953     20.44929     170.0248        17     1.066     0.924   3.99   0
       114    517.7722    729.3920 300.0970195 +22.7364887     254.4771     72.46323      1.305     4.72     3.912897     20.44929     40.54097         8     0.997     0.633 -18.73   0
       115    679.8605    724.6311 300.1490353 +22.7837152     194.2134     72.51861      1.039     2.66     4.080659     20.44929     43.28813         5     0.727     0.444  19.08   0
       116    980.8655    720.3383 300.2442476 +22.8726788      1646.01     72.51861      1.606     3.13     4.358723     20.44929     150.6399        22     1.170     1.067  40.55   0
       117    360.4255    714.9480 300.0527567 +22.6851561     230.3911     72.50015      1.221     4.13     4.146227     20.44929     37.82973         5     0.913     0.533  45.98   0
       118    343.8206    714.1826 300.0478409 +22.6799560     811.6216     72.46323      1.493     2.99     4.137961     20.44929     87.98649        11     0.981     0.686 -12.07   0
       119    807.2064    711.5381 300.1929672 +22.8181205      2631.99     72.44476      1.571     2.83     3.716486     20.44929     254.0302        32     1.388     1.105  -6.01   0
       120   1012.1696    710.2476 300.2572917 +22.8791558     1778.901     72.50015      1.682     3.86     4.326948     20.44929     130.6998        24     1.346     1.117 -24.91   0
       121     29.6330    701.3909 299.9543483 +22.5820204     847.5538     72.48169      1.806     4.31     4.444151     20.44929     78.59813        15     1.166     0.981  77.69   0
       122    889.5279    697.6025 300.2231568 +22.8387828     542.4249     72.42628      1.581     3.24     4.269608     20.44929     58.57938        11     1.013     0.773  20.02   0
       123    192.3931    697.9796 300.0060263 +22.6298813     555.1849     72.46323      1.576     3.37     4.131928     20.44929     73.74552        11     0.986     0.858 -20.68   0
       124    925.7212    688.4687 300.2374101 +22.8470012     148931.4     72.59238      1.573     2.99     4.467911     20.44929     15032.76       159     1.464     1.440  33.40   0
       125    688.2109    692.2606 300.1621579 +22.7769215      305.195     72.42628      1.197     3.94     4.056673     20.44929     38.04261         6     0.779     0.569  36.84   0
       126    778.1628    688.5739 300.1913805 +22.8028203     778.5363     72.50015      1.484     3.48     3.748509     20.44929     97.30677        14     1.067     0.968 -42.68   0
       127    958.8144    681.2421 300.2500785 +22.8548379      420.283     72.50015      1.610     4.83     4.423974     20.44929     46.62756         7     1.052     0.630  21.03   0
       128    257.8494    680.0961 300.0321855 +22.6443868     264.8507     72.53706      1.477     4.36     3.979431     20.44929     34.28922         5     0.777     0.697  71.30   0
       129    611.9119    677.1716 300.1432997 +22.7497183      1742.27     72.46323      1.406     3.07     4.206378     20.44929     168.5635        22     1.058     1.040  12.50   0
       130    793.2225    674.5902 300.2006182 +22.8033159     9573.044     72.48169      1.421     2.65     3.767394     20.44929     1102.778        43     1.196     1.180   1.06   0
       131    274.8644    675.9781 300.0388139 +22.6483091     322.8405     72.46323      1.590     3.62     3.953012     20.44929     34.85498         5     0.811     0.489  28.27   0
       132    294.6450    669.5879 300.0470410 +22.6524085     4901.329     72.48169      1.479     2.68     3.937452     20.44929     647.5392        33     1.176     1.141  61.29   0
       133      8.4414    667.8720 299.9586592 +22.5660475     1615.381     72.46323      1.659     3.22     4.791197     20.44929     188.8195        27     1.318     1.194  18.16  16
       134    377.0695    667.6638 300.0733009 +22.6765769     1389.848     72.51861      1.629     6.70     4.217864     20.44929     162.7485        18     1.453     0.865  -8.70   0
       135    252.1320    665.2842 300.0352213 +22.6384215     585.8467     72.59238      1.640     2.87     3.953601     20.44929     60.33213         7     0.751     0.645   8.87   0
       136    585.1607    663.2767 300.1394858 +22.7377092     757.0636     72.46323      1.371     2.73     4.279211     20.44929     93.12836        10     0.944     0.656 -18.02   0
       137    576.5971    655.3001 300.1394117 +22.7328515     3268.499     72.35234      1.368     2.45     4.343068     20.44929     417.3762        26     1.117     1.026  46.08   0
       138    566.9413    649.0983 300.1384209 +22.7281761     1501.746     72.57394      1.345     2.45     4.402932     20.44929     201.4632        16     0.995     0.868  42.78   0
       139    495.5322    648.7518 300.1163056 +22.7066690     266.3678     72.48169      1.344     4.53     4.365721     20.44929     36.32615         7     0.905     0.644   8.13   0
       140    762.4036    648.4451 300.1995113 +22.7865700     311.3052     72.48169      1.699     4.25     3.817222     20.44929      27.5957         5     0.971     0.531 -44.67   0
       141    960.4575    646.9059 300.2617499 +22.8454620     417.9399     72.53706      1.364     3.84      4.47756     20.44929     50.98215        11     1.029     0.733 -12.90   0
       142    477.6696    646.4625 300.1114903 +22.7006562     303.2055     72.51861      1.222     3.08     4.373117     20.44929     48.08553         5     0.739     0.455  20.57   0
       143    230.1721    645.3474 300.0348726 +22.6261134     606.7736     72.50015      1.422     3.13     3.954159     20.44929     71.26487        12     0.998     0.782  -2.97   0
       144    244.6313    643.6110 300.0399318 +22.6299523     491.0346     72.48169      1.259     2.91     3.947896     20.44929     67.68324        10     0.857     0.790  -7.50   0
       145   1013.5308    640.4711 300.2803943 +22.8595082     552.1673     72.53706      1.470     4.47     4.446545     20.44929     57.43267        14     1.157     0.891 -55.13   0
       146    269.9796    640.5118 300.0488196 +22.6366662      543.525     72.40781      1.526     3.84     3.937903     20.44929     54.27689         9     1.079     0.769   2.65   0
       147    491.6767    638.8428 300.1183255 +22.7026680     1738.069     72.46323      1.340     2.41     4.421673     20.44929     259.5837        20     1.103     0.906  37.45   0
       148    300.9774    640.5123 300.0584579 +22.6459635     413.0015     72.40781      1.588     4.29      3.98124     20.44929     43.23122         6     1.049     0.499   1.45   0
       149    590.5714    639.3480 300.1489462 +22.7324594     465.5084     72.50015      1.331     2.89     4.428485     20.44929     69.96171         8     0.814     0.754  59.43   0
       150    145.5989    633.6823 300.0123768 +22.5973955     19977.11     72.37083      1.618     3.00     4.140432     20.44929     2417.198        65     1.412     1.315  43.57   0
       151    576.6579    634.2629 300.1462666 +22.7268285     1056.822     72.53706      1.316     2.51     4.496727     20.44929     133.8846        18     1.072     0.993  45.93   0
       152     66.6267    635.4399 299.9872693 +22.5742055     676.5424     72.53706      1.525     2.98     4.587345     20.44929     70.23807        13     0.988     0.825 -47.76   0
       153    611.8850    633.3074 300.1575455 +22.7371131     288.1975     72.66608      1.302     2.68     4.411763     20.44929     48.64164         7     0.801     0.599  21.13   0
       154    329.9939    625.6644 300.0723058 +22.6504042     174.0616     72.44476      1.167     2.66     4.168387     20.44929     47.47308         5     0.851     0.472   2.05   0
       155    659.8620    621.9668 300.1761713 +22.7482351     187.3642     72.48169      1.340     4.92     4.332576     20.44929     35.86951         9     1.013     0.765  58.18   0
       156    994.6129    620.6100 300.2809473 +22.8481336     1064.597     72.37083      1.484     2.80     4.533585     20.44929     115.7577        16     1.093     0.871   7.79   0
       157     91.6558    617.9794 300.0007176 +22.5767065     1506.559     72.48169      1.810     4.72     4.500967     20.44929      110.547        24     1.535     0.989 -81.64   0
       158    157.9048    618.8804 300.0210100 +22.5968404     266.0238     72.59238      1.337     3.40     3.996911     20.44929     47.23374         8     0.978     0.663 -14.24   0
       159    861.8625    618.3083 300.2403013 +22.8077097     503.6314     72.57394      1.596     2.58     4.459693     20.44929     64.99591         8     0.812     0.734 -11.19   0
       160    540.1385    614.8386 300.1412089 +22.7103034     379.2907     72.48169      1.297     2.46      4.74135     20.44929     68.95554         8     0.839     0.642   5.73   0
       161    934.7756    613.2162 300.2646884 +22.8280869     761.0427     72.48169      1.711     3.55     4.519355     20.44929     76.63095        14     1.082     0.924 -60.58   2
       162    930.7651    612.9329 300.2635299 +22.8268042     456.9212     72.48169      1.427     2.64     4.516393     20.44929     52.23138         5     0.622     0.608 -84.09   3
       163    644.4708    605.8601 300.1766110 +22.7389961     525.1963     72.51861      1.257     2.66     4.447474     20.44929     91.34281        11     0.968     0.731  62.51   0
       164    496.8586    606.9341 300.1303057 +22.6950595     674.4199     72.51861      1.261     2.52     4.627365     20.44929     110.6407        11     0.944     0.704  81.26   0
       165    691.6972    603.9995 300.1919248 +22.7526143     494.0716     72.35234      1.401     3.19     4.210889     20.44929     61.78184         8     1.000     0.541  68.90   0
       166    662.3660    603.8569 300.1828352 +22.7437836     556.0509     72.50015      1.257     2.81      4.40521     20.44929     92.68193        11     0.975     0.730 -50.02   0
       167    540.7670    602.9281 300.1452741 +22.7070715      900.837     72.48169      1.407     2.79     4.805078     20.44929     117.7805        13     0.911     0.885  -8.32   0
       168    974.8195    598.4461 300.2819753 +22.8358348     3426.117     72.51861      1.523     2.82     4.551424     20.44929     387.5361        29     1.197     1.175  44.00   0
       169    506.4324    598.3315 300.1360802 +22.6954593     1525.352     72.48169      1.249     2.41     4.666142     20.44929     208.5932        19     1.043     0.943  10.46   0
       170     68.4024    591.8953 300.0019673 +22.5622467     4941.672     72.38932      1.634     2.98     4.557949     20.44929     620.3583        38     1.317     1.288  63.93   0
       171    482.0390    593.3367 300.1301110 +22.6867124      315.965     72.48169      1.186     2.70     4.568103     20.44929     52.90832         5     0.885     0.342 -46.11   0
       172    369.8692    585.0792 300.0978935 +22.6507115     8984.847     72.59238      1.349     2.57     4.412969     20.44929     1211.921        42     1.201     1.099  50.24   0
       173    627.2505    586.4066 300.1775683 +22.7282475     365.5622     72.48169      1.684     3.39     4.620485     20.44929     29.34391         5     0.764     0.437  21.06   0
       174    492.3233    582.1127 300.1369579 +22.6865725     9061.784     72.61081      1.294     2.38     4.611339     20.44929     1149.782        35     1.109     1.041  67.41   0
       175    136.3419    578.0366 300.0275774 +22.5786525     236.1114     72.48169      1.236     3.59     4.108393     20.44929     41.66072         7     0.962     0.645 -78.97   0
       176    904.0190    576.1674 300.2671353 +22.8082263     1854.999     72.48169      1.371     2.87      4.50191     20.44929      216.337        22     1.094     1.018 -86.98   0
       177    988.6638    573.5679 300.2943758 +22.8328292     12416.97     72.48169      1.524     2.87     4.539925     20.44929     1305.226        45     1.262     1.218  77.29   0
       178    552.9058    571.7014 300.1591974 +22.7017420     11682.08     72.66608      1.341     2.38     4.834148     20.44929     1788.013        43     1.146     1.093  56.35   0
       179    722.3033    567.7515 300.2132351 +22.7513716      503.518     72.51861      1.300     2.84     4.268996     20.44929      64.7247         6     0.741     0.548 -40.69   0
       180    280.2574    567.0226 300.0758897 +22.6186567      1414.69     72.48169      1.516     3.07     3.919375     20.44929     161.1442        20     1.121     1.012  62.55   0
       181    438.4669    566.4358 300.1252908 +22.6659257     264.1198     72.48169      1.159     3.61      4.58357     20.44929     51.97579         6     0.933     0.447 -15.20   0
       182    527.1196    564.7632 300.1534242 +22.6920205     394.8325     72.44476      1.323     3.03     4.772919     20.44929     59.02746         9     0.941     0.638  50.09   0
       183    484.6036    559.8936 300.1417730 +22.6778779      4470.84     72.38932      1.339     2.36     4.582394     20.44929     652.9656        31     1.171     1.001  32.87   0
       184    827.4359    560.0598 300.2484943 +22.7806577     808.2765     72.50015      1.304     2.50     4.376133     20.44929     116.9177        13     1.054     0.793  73.23   0
       185    462.8402    558.3439 300.1355036 +22.6709089     1161.126     72.46323      1.313     2.64      4.56338     20.44929     153.0415        17     0.994     0.964  41.92   0
       186    217.2376    557.6198 300.0593513 +22.5970581     647.1926     72.50015      1.406     2.74     3.915447     20.44929     104.2312        11     0.980     0.774 -85.75   0
       187    904.5225    555.4915 300.2740090 +22.8024343     1590.417     72.62924      1.532     3.06     4.501874     20.44929     172.2376        20     1.256     0.952 -61.85   0
       188    150.5179    555.7318 300.0392275 +22.5765045     394.8717     72.59238      1.661     5.21     3.975344     20.44929     42.67947         8     1.262     0.608 -12.19   0
       189    424.8599    553.9505 300.1251126 +22.6582615     299.9933     72.53706      1.118     3.09     4.548528     20.44929      46.6054         7     0.702     0.695  44.60   0
       190    785.0133    552.5597 300.2377094 +22.7657942      721.787     72.50015      1.280     2.62     4.328485     20.44929     102.0195        15     1.001     0.859  39.19   0
       191    601.2115    547.4570 300.1821123 +22.7092559       200907     72.44476      1.310     2.32     4.863129     20.44929     27116.53       184     1.393     1.345  -3.65   0
       192    562.0298    547.9818 300.1697426 +22.6976641     187.7249     72.46323      1.248     3.73     4.866303     20.44929     27.00975         5     0.640     0.625  88.31   0
       193    287.2533    547.3333 300.0844603 +22.6151029     3555.522     72.50015      1.372     2.59     3.913657     20.44929     409.5433        25     1.133     1.012  34.79   0
       194    853.0877    543.6780 300.2618114 +22.7836334     511.1978     72.62924      1.384     3.20      4.46232     20.44929     58.08444        10     0.894     0.792   1.08   0
       195    491.7529    527.6719 300.1544637 +22.6707674     2767.735     72.46323      1.374     2.32      4.54726     20.44929     395.1718        24     1.059     0.989  59.10   2
       196    336.1828    530.2519 300.1052243 +22.6248709      413.925     72.48169      1.093     1.90      4.13858     20.44929     85.73283         7     0.778     0.510 -31.00   0
       197    941.6009    527.9451 300.2945182 +22.8056203     196.7433     72.40781      1.035     3.11     4.506343     20.44929     48.73368         8     0.830     0.650  -1.85   0
       198    903.5072    524.4203 300.2837849 +22.7931990     386.2008     72.40781      1.399     2.96     4.456505     20.44929     50.60559         8     0.939     0.763  63.47   0
       199    722.8216    523.4267 300.2277941 +22.7387912     180.1525     72.46323      1.137     3.48     4.429705     20.44929     33.24027         5     0.796     0.439 -19.99   0
       200    920.6160    519.6345 300.2906739 +22.7969470     205.7835     72.48169      1.120     4.19     4.484163     20.44929       36.229         6     1.117     0.449 -34.45   0
       201    888.8239    514.1162 300.2825537 +22.7858397     1683.522     72.44476      1.325     2.36     4.397279     20.44929     228.1015        20     1.090     0.924  75.89   0
       202    809.2318    516.6249 300.2569288 +22.7627220     274.2662     72.48169      1.007     2.04     4.371459     20.44929       64.279         5     0.659     0.474 -12.25   0
       203    760.0817    511.6836 300.2432171 +22.7465790     2664.848     72.61081      1.312     2.26     4.359493     20.44929      412.989        24     1.055     0.974 -49.38   0
       204     19.1246    512.6283 300.0124055 +22.5247212     748.5305     72.50015      1.480     2.92     4.797757     20.44929      95.1518        11     1.031     0.754 -24.55   0
       205    398.2554    511.5492 300.1306066 +22.6381107     210.7922     72.51861      1.266     3.42     4.340203     20.44929     31.53403         5     0.754     0.449 -20.63   0
       206    969.2310    508.7375 300.3093734 +22.8083721     334.0985     72.50015      1.538     3.45     4.506365     20.44929     35.66204         5     0.975     0.353  44.18   0
       207    665.0708    508.3029 300.2147163 +22.7171432     505.1132     72.61081      1.302     2.40     4.627074     20.44929     81.55164         7     0.816     0.551 -35.03   0
       208    547.3837    507.3285 300.1783866 +22.6815977     691.3057     72.48169      1.227     2.56     4.679259     20.44929     109.6333        14     0.949     0.858  75.14   0
       209   1017.4620    505.5765 300.3254438 +22.8219044     1286.727     72.46323      1.568     3.96     4.519037     20.44929     140.0775        21     1.217     1.094 -46.49  16
       210   1003.2092    505.0065 300.3211830 +22.8174731     953.1168     72.33385      2.032     3.30     4.515264     20.44929      104.397        13     1.105     0.806  37.33   0
       211    889.0377    504.0260 300.2858974 +22.7830033     2277.706     72.50015      1.553     3.64     4.365942     20.44929     270.0031        29     1.621     0.981  76.65   0
       212    642.4588    502.2285 300.2096465 +22.7086228     457.4651     72.48169      1.099     3.94     4.648671     20.44929     63.74894         9     0.964     0.712  68.82   2
       213    642.3331    498.2990 300.2108834 +22.7074562     356.7262     72.57394      1.154     3.53     4.629245     20.44929     49.72575         5     0.830     0.470  44.23   3
       214    480.6822    501.0277 300.1596713 +22.6597970     376.1664     72.48169      1.342     4.37      4.39306     20.44929     48.32188         8     0.849     0.668   9.63   0
       215    927.2413    499.1293 300.2993994 +22.7930363     4268.264     72.44476      1.365     2.69     4.484649     20.44929     493.4565        29     1.140     1.078  36.69   0
       216    568.5049    498.9221 300.1876921 +22.6855126     144.0509     72.61081      1.099     3.01     4.667841     20.44929     39.22704         6     0.779     0.495 -83.49   0
       217    664.9459    496.0591 300.2186536 +22.7135878     284.7535     72.53706      1.241     2.82     4.555702     20.44929     44.96045         5     0.772     0.505  60.08   0
       218    587.9714    494.7538 300.1951066 +22.6901486      431.673     72.51861      1.329     2.70     4.677498     20.44929     72.61893         7     0.892     0.668 -70.63   0
       219   1018.9381    489.8165 300.3310226 +22.8178147     748.2363     72.46323      1.451     4.15     4.522515     20.44929     80.05592        12     1.134     0.783  47.78  16
       220    159.4043    489.3724 300.0635395 +22.5601257     1042.134     72.44476      1.382     2.54     3.889367     20.44929     117.0039        14     0.888     0.878 -22.45   0
       221    958.4282    487.1846 300.3130039 +22.7989408     126.9418     72.50015      1.044     3.37     4.498156     20.44929     33.32744         5     0.764     0.431  67.32   0
       222   1015.4163    479.1617 300.3333842 +22.8136965      316.744     72.50015      1.428     5.33     4.515553     20.44929     56.60739         8     1.498     0.667 -39.28  16
       223    151.7787    479.2562 300.0644544 +22.5549353     490.1388     72.51861      1.617     2.94     3.900825     20.44929     54.25588         7     0.851     0.590  66.79   0
       224    759.5173    473.8625 300.2553235 +22.7355408     469.6284     72.57394      1.161     2.47     4.338128     20.44929     85.43888         8     0.851     0.591  40.29   0
       225    648.5243    471.7451 300.2214345 +22.7016818     422.0886     72.51861      1.468     4.25     4.522279     20.44929     45.35243         6     0.903     0.617 -19.95   0
       226    700.8206    469.7243 300.2383799 +22.7167685     746.4846     72.48169      1.223     2.09     4.392594     20.44929      119.748        12     0.850     0.770  51.28   0
       227    196.8965    470.6835 300.0812605 +22.5660051     857.5809     72.64766      0.794     1.47     3.955765     20.44929     342.8644         6     0.666     0.451  13.49   0
       228   1015.1558    462.4511 300.3387293 +22.8088132     567.8317     72.51861      1.419     2.82     4.457687     20.44929     78.08336         8     0.829     0.673  56.60   0
       229    761.4389    462.0688 300.2597519 +22.7327268     867.5381     72.44476      1.263     2.38     4.312683     20.44929     120.1332        13     0.922     0.806 -18.46   0
       230    918.7866    458.2441 300.3100399 +22.7787503     977.6921     72.50015      1.338     2.55     4.361881     20.44929      121.909        14     0.926     0.882 -32.22   0
       231    902.9726    454.6242 300.3062845 +22.7729743     709.4399     72.46323      1.265     2.49      4.25833     20.44929     113.7689        11     1.008     0.768  38.23   0
       232    647.2176    452.3814 300.2273149 +22.6957264     3212.154     72.48169      1.242     2.26     4.529253     20.44929     423.1192        23     1.085     0.907  57.37   0
       233   1007.8742    451.3216 300.3400718 +22.8034329     439.7794     72.59238      1.240     3.02      4.41857     20.44929     73.08736        10     0.877     0.777 -62.27   0
       234    123.1266    443.6158 300.0671221 +22.5361131     354.0436     72.48169      1.465     4.11     4.164148     20.44929     39.89425         7     0.861     0.631 -76.95   0
       235    419.0090    439.6529 300.1604085 +22.6236849     228.1368     72.48169      1.355     4.81      4.27397     20.44929     32.53407         7     0.950     0.690  69.04   0
       236    487.3052    439.5060 300.1817087 +22.6441113     372.6837     72.64766      1.230     3.68     4.298752     20.44929     49.70966         7     0.844     0.658   5.53   0
       237   1017.0064    430.2794 300.3497527 +22.8001155     987.2495     72.40781      1.493     3.08     4.348948     20.44929     104.4308        17     1.055     0.969  56.84  16
       238    930.5538    431.1518 300.3225058 +22.7744841     515.4581     72.50015      1.447     3.24     4.343889     20.44929     63.16436        10     0.995     0.641  28.92   0
       239    666.4775    428.7979 300.2409704 +22.6947196      402.544     72.38932      1.387     3.94     4.462999     20.44929     59.29649         8     0.993     0.706  64.34   0
       240    757.9148    426.3831 300.2702402 +22.7214147     1040.309     72.44476      1.220     2.32     4.239081     20.44929     170.0715        17     0.999     0.920  71.47   0
       241    553.6523    426.9026 300.2064525 +22.6603723     417.2017      72.5555      1.238     2.70     4.394718     20.44929      85.8955        10     0.935     0.732  43.52   0
       242    261.8568    424.4572 300.1164628 +22.5722123     717.9787      72.5555      1.507     2.82      4.26216     20.44929     81.89529        12     0.908     0.858  63.94   0
       243    102.1656    422.4146 300.0674916 +22.5237418     214.6863     72.48169      1.156     3.88     4.382273     20.44929     36.52619         6     1.195     0.360  60.18   0
       244    324.2025    420.2324 300.1372216 +22.5896897     3619.456     72.44476      1.282     2.35     4.275566     20.44929     443.8486        24     1.072     0.972  60.03   0
       245    271.4240    414.8923 300.1225424 +22.5723343     7588.906     72.40781      1.367     2.49     4.282302     20.44929     1047.179        39     1.230     1.095  68.87   0
       246    656.4547    405.9770 300.2452572 +22.6851590     18774.84     72.50015      1.273     2.21     4.453587     20.44929     2613.067        49     1.150     1.088  76.61   0
       247    674.0999    405.8576 300.2507920 +22.6904104     769.1985     72.57394      1.699     6.17      4.40182     20.44929     64.21981        16     1.661     0.705 -37.02   0
       248    503.7818    407.2670 300.1973029 +22.6397878     344.8677     72.46323      1.298     3.40     4.290827     20.44929     45.28103         5     0.950     0.351  47.52   0
       249    412.1795    409.1927 300.1681721 +22.6128894     4927.568     72.44476      1.292     2.44     4.281184     20.44929     597.0366        27     1.089     0.994  66.64   0
       250    514.8806    402.8143 300.2022029 +22.6418343     478.6882     72.46323      2.122     5.60     4.296076     20.44929      43.3001         7     1.649     0.537  12.72   0
       251    899.6776    402.2688 300.3222552 +22.7569347     280.0982     72.59238      1.506     4.51     4.100498     20.44929      33.3439         5     0.824     0.703  28.97   0
       252    853.4070    396.4731 300.3097114 +22.7414139     569.6049     72.42628      1.509     2.89     3.949922     20.44929     59.01913         8     0.892     0.631  -2.72   0
       253    276.3723    393.0759 300.1311627 +22.5675534     411.0578     72.48169      1.337     3.34     4.286242     20.44929     53.17413         9     0.958     0.641  34.87   0
       254    990.2239    388.5495 300.3549458 +22.7800970     876.2678     72.50015      1.686     3.18     4.261732     20.44929     102.5011        14     1.148     0.851 -55.93   0
       255    211.1497    386.0429 300.1131677 +22.5459805     2018.702     72.51861      1.378     2.36     4.288269     20.44929     248.4805        25     1.177     1.009  61.05   0
       256    699.9448    387.1562 300.2649134 +22.6927771     361.3409     72.48169      1.436     2.91     4.293138     20.44929      50.5238         8     0.807     0.738  17.59   0
       257    597.0546    375.3868 300.2366885 +22.6585739     6685.619     72.48169      1.272     2.27     4.367849     20.44929     985.9561        31     1.101     0.969  68.28   0
       258   1010.6901    375.7989 300.3654687 +22.7825561     1149.603     72.38932      1.414     2.71     4.241868     20.44929     147.2843        16     1.067     0.868  55.48   0
       259    311.9150    374.6206 300.1482054 +22.5729081     684.4476     72.42628      1.339     2.97     4.279949     20.44929     107.6378        11     1.015     0.729 -36.02   0
       260    169.6527    367.8574 300.1061716 +22.5283178     561.2753     72.53706      1.384     2.19     4.375305     20.44929     95.45946         9     0.816     0.717 -62.34   0
       261     16.9622    365.6508 300.0594473 +22.4818970     1313.463     72.48169      1.503     3.21     4.838544     20.44929     145.0312        20     1.125     1.017 -47.85   0
       262    710.8738    365.7510 300.2752659 +22.6898980     591.1808     72.48169      1.279     1.95     4.237427     20.44929     81.86989         8     0.726     0.643 -48.78   0
       263    801.2300    364.3836 300.3038644 +22.7165643     1233.381     72.48169      1.402     3.19     4.089714     20.44929      167.847        14     1.073     0.762  63.60   0
       264    503.7253    361.6296 300.2120986 +22.6266595     6312.487     72.50015      1.251     2.14     4.301062     20.44929     1024.234        31     1.103     0.983  68.95   0
       265    993.0293    356.4615 300.3662364 +22.7717080     696.8378     72.50015      1.391     3.22     4.211309     20.44929     73.88483        11     1.067     0.703  15.94   0
       266    895.6212    356.1480 300.3359612 +22.7424584     1365.872     72.48169      1.346     2.56     4.132979     20.44929     167.7612        20     1.087     0.972 -69.78   0
       267    488.3045    350.3720 300.2109525 +22.6188046     501.3345     72.40781      1.205     2.16     4.338272     20.44929     76.96455         5     0.683     0.459  17.59   0
       268    570.7718    348.0544 300.2373760 +22.6428460     531.4136     72.48169      1.335     3.91     4.290123     20.44929     68.26342         9     1.031     0.632  48.07   0
       269     15.1730    346.9854 300.0649488 +22.4760033     1096.411     72.50015      1.471     3.22     4.859838     20.44929     125.9905        18     1.143     0.963 -43.94   0
       270    849.3163    347.2243 300.3244218 +22.7260290     380.1542     72.44476      1.448     3.50      4.11856     20.44929     39.15324         6     0.740     0.632 -49.85   0
       271    551.6964    346.3991 300.2319744 +22.6366557     331.9352     72.35234      1.142     2.60     4.330401     20.44929     44.03422         5     0.690     0.473 -14.49   0
       272    868.2634    343.9735 300.3313833 +22.7307670     554.3857     72.48169      1.211     2.41     4.151016     20.44929     79.51908        11     0.837     0.801  30.72   0
       273    150.3743    343.1924 300.1081845 +22.5154564     158.1105     72.48169      1.040     3.27     4.465645     20.44929     39.38089         5     0.749     0.437  70.06   0
       274    391.3354    340.8238 300.1838774 +22.5870045     2490.072     72.46323      1.285     2.42     4.389183     20.44929     393.5141        20     1.001     0.955  50.54   0
       275    109.6180    338.1798 300.0971462 +22.5017973     1068.825     72.48169      1.423     3.05      4.47943     20.44929     130.0636        16     1.058     0.921  48.40   0
       276    360.5818    330.2242 300.1777502 +22.5747435     29629.18     72.48169      1.315     2.34     4.392984     20.44929     3803.788        72     1.305     1.150  71.91   0
       277    895.4400    327.8994 300.3450728 +22.7342808     1420.547     72.46323      1.405     2.36     4.310511     20.44929     201.5005        19     1.184     0.917 -59.42   0
       278     56.9215    318.0375 300.0873100 +22.4802139     5074.249     72.46323      1.524     2.96     4.656606     20.44929     564.4592        35     1.292     1.176  36.10   0
       279    810.4081    316.9405 300.3221222 +22.7056720     606.1388     72.42628      1.183     2.35     4.322887     20.44929     89.70535         8     0.864     0.571 -77.40   0
       280    234.8443    316.6739 300.1430457 +22.5331653     470.7775     72.46323      1.430     4.24     4.469058     20.44929      60.7953         9     1.101     0.572 -13.59   0
       281    458.8470    315.5606 300.2130817 +22.5999768     522.5165     72.51861      1.384     2.47     4.635963     20.44929     82.18816         9     0.834     0.720  14.88   0
       282    771.0511    310.1680 300.3120544 +22.6919405      1957.09     72.51861      1.297     2.25     4.311407     20.44929     276.9472        22     1.075     0.958 -69.91   0
       283    637.3109    312.1154 300.2697586 +22.6524488     255.2701     72.61081      1.541     4.33     4.251261     20.44929     38.67555         6     0.997     0.683  41.61   0
       284    986.2270    302.9674 300.3814754 +22.7542853     642.9863     72.48169      1.333     3.57     4.305322     20.44929      78.8474        12     1.001     0.888  48.69   0
       285    432.8128    294.5319 300.2118037 +22.5861346     2214.752     72.50015      1.512     2.82     4.787547     20.44929     323.3817        22     1.292     0.863  58.78   0
       286    645.0407    293.3247 300.2782632 +22.6493629     314.4958     72.46323      1.351     4.27     4.260988     20.44929     41.83509         7     0.754     0.691  47.46   0
       287    871.9561    287.6056 300.3508265 +22.7156629     640.7467     72.48169      1.396     2.58     4.603201     20.44929     100.7364        10     0.906     0.737 -62.18   0
       288    864.7425    288.4083 300.3483172 +22.7137343     167.9196     72.46323      1.131     3.38      4.60749     20.44929     35.96324         5     0.774     0.427 -22.08   0
       289      5.0170    285.7520 300.0816626 +22.4553820     776.3768      71.9257      2.101     6.22     4.714531     20.44929     79.45393        14     1.764     0.616 -32.80  16
       290    771.3522    285.5742 300.3201285 +22.6849595     263.4838     72.50015      1.196     3.67     4.421527     20.44929      42.8544         6     0.858     0.529  48.44   0
       291    754.0562    285.4229 300.3147880 +22.6797372     468.3735     72.50015      1.375     2.71     4.372398     20.44929     61.29388         6     0.774     0.486   8.65   0
       292    722.8015    284.3394 300.3054013 +22.6700669     328.5825     72.44476      1.309     3.21     4.324628     20.44929     41.24902         7     0.832     0.593  25.35   0
       293    508.6864    274.1176 300.2420400 +22.6030002     1189.941     72.61081      1.265     2.37     4.851464     20.44929     180.0096        13     0.893     0.802  62.05   0
       294     81.6142    274.7281 300.1090326 +22.4751846     225.2382     72.48169      1.253     3.70     4.686779     20.44929     36.47458         6     0.706     0.664 -17.51   0
       295    892.0903    267.5059 300.3636253 +22.7159092     348.9711     72.64766      1.483     4.13     4.675079     20.44929     36.13309         6     0.979     0.497   3.46   0
       296    753.5754    265.9820 300.3209458 +22.6740036     2213.974     72.48169      1.249     2.21     4.528777     20.44929     328.9425        20     0.999     0.910  55.77   0
       297   1014.8526    260.3735 300.4042250 +22.7505990     3200.249     72.50015      1.397     2.43     4.290996     20.44929     425.7082        28     1.216     1.066  85.07   0
       298    461.8828    249.7218 300.2353875 +22.5819687     540.0317     72.59238      1.262     2.54      4.83559     20.44929     96.57006         8     0.885     0.588  70.17   0
       299    136.6264    243.9914 300.1360970 +22.4828517     1380.665     72.48169      1.609     3.23     4.844812     20.44929     143.7943        22     1.296     0.984 -36.35   0
       300    167.4804    243.5617 300.1458253 +22.4919770     613.5428     72.44476      1.428     2.88      4.83805     20.44929     85.61111        11     0.998     0.734  81.38   0
       301    885.0226    240.8204 300.3700792 +22.7061184     152.5686     72.48169      1.187     4.22     4.794996     20.44929     37.32933         5     0.951     0.602 -34.87   0
       302    874.4816    237.3730 300.3679112 +22.7019717     396.3146     72.48169      1.453     2.96     4.822235     20.44929     40.89838         6     0.836     0.483  -2.67   0
       303    220.8431    235.9296 300.1648883 +22.5057796     401.1562     72.44476      1.320     3.75     4.806113     20.44929      69.0739        11     1.152     0.756  26.58   0
       304   1015.4080    233.3164 300.4131762 +22.7429808     506.1157     72.40781      1.936     4.50     4.361552     20.44929     67.43601         9     1.150     1.019  64.94   0
       305      7.2046    231.5879 300.0999120 +22.4404895      287.534     72.35234      1.150     3.46     4.600427     20.44929     31.09098         5     0.740     0.467 -15.60   0
       306    896.9045    229.9690 300.3773040 +22.7065535     404.8715     72.42628      1.315     2.26     4.830056     20.44929     57.88951         5     0.616     0.568  -2.99   0
       307    825.2735    227.6521 300.3557250 +22.6844463     574.9945     72.50015      1.177     2.52     4.867111     20.44929     97.30321        11     0.900     0.747  65.67   0
       308    415.6856    227.1081 300.2283477 +22.5616307     353.3257     72.64766      1.190     3.29     4.815998     20.44929     52.81021         8     0.935     0.630  29.26   0
       309    915.6887    220.4373 300.3862530 +22.7094338     248.7644     72.46323      1.136     2.87     4.836477     20.44929     55.85321         5     0.728     0.639 -51.30   0
       310    923.3258    216.4669 300.3899223 +22.7105773     2106.606      72.5555      1.325     2.37     4.833525     20.44929     280.2052        21     1.122     0.936  59.15   0
       311    341.8540    213.6532 300.2097434 +22.5356440     2244.911     72.51861      1.349     2.35     4.789362     20.44929     331.8826        23     1.172     0.939  53.07   0
       312    419.6690    208.7805 300.2355318 +22.5575576     1157.696     72.48169      1.464     2.50     4.816143     20.44929     165.0643        17     1.015     0.978 -89.33   0
       313    171.5801    208.6882 300.1584108 +22.4831907     391.5729     72.42628      1.633     3.80     4.933036     20.44929     53.80048         6     1.055     0.629  47.94   0
       314    821.6771    208.0151 300.3609737 +22.6777220     593.1365     72.50015      1.246     2.95      4.89386     20.44929      77.1251        11     0.929     0.790  59.71   0
       315    928.8624    205.1550 300.3953181 +22.7089801     405.0027     72.50015      1.230     4.24     4.838867     20.44929     53.79551         8     0.855     0.646  45.38   0
       316     18.2496    201.8211 300.1129968 +22.4352552     490.5215     72.48169      2.231     3.98     4.629405     20.44929     44.52444         6     0.772     0.588 -35.31   0
       317    354.8626    200.6989 300.2179913 +22.5358198      363.544     72.57394      1.332     3.94     4.801322     20.44929     51.57072         5     0.906     0.630  73.63   0
       318    236.4108    200.7596 300.1811353 +22.5003434     888.5754     72.48169      1.495     2.63     4.867066     20.44929     135.2609        14     1.097     0.854  52.29   0
       319    774.3868    197.7349 300.3495696 +22.6606093     1662.182     72.42628      1.287     2.36     4.894577     20.44929     234.7351        18     1.039     0.900  52.66   0
       320     89.2845    198.0529 300.1362861 +22.4554687     229.3284     72.53706      1.201     4.04     4.910385     20.44929     39.70998         6     0.990     0.657  35.36   0
       321    839.3495    197.3135 300.3699534 +22.6799339      595.209     72.48169      1.155     2.54     4.900817     20.44929     94.24848         9     0.903     0.611  37.11   0
       322    257.9234    194.1432 300.1899697 +22.5048896     579.3168     72.51861      1.278     3.09     4.856341     20.44929     82.18664        11     1.045     0.724 -34.71   0
       323    778.3965    189.0217 300.3536452 +22.6593038     832.6638     72.44476      1.551     4.02     4.902261     20.44929     93.72163        16     1.241     1.002 -87.64   0
       324    698.9571    188.6131 300.3290259 +22.6354042     1200.627     72.50015      1.242     2.40      4.86348     20.44929     198.2688        15     0.990     0.804  62.03   0
       325    520.4529    185.1284 300.2745686 +22.5809491     307.5353     72.46323      1.269     3.25     4.804955     20.44929     46.15585         6     0.988     0.458 -31.76   0
       326    894.4984    180.1451 300.3927147 +22.6915013     1470.781     72.57394      1.344     2.57     4.890016     20.44929     179.6944        19     1.032     0.972  87.30   0
       327    625.2658    180.3185 300.3087628 +22.6109548      1024.12     72.59238      1.297     2.32     4.841354     20.44929     136.4432        14     0.929     0.831  67.27   0
       328    906.4598    179.1593 300.3967639 +22.6947974     807.2618     72.48169      1.407     2.90     4.881969     20.44929     106.1706        16     1.090     0.839 -81.47   0
       329   1023.0134    169.4558 300.4362626 +22.7268814      926.145     60.04156      1.285     2.50     4.726509     20.44929     148.4814        14     1.096     0.754  83.59  24
       330     46.9741    166.3409 300.1334251 +22.4336793     599.5192     72.48169      1.451     4.34     4.744172     20.44929     63.29151        14     1.238     0.905 -27.43   0
       331    257.2007    162.3994 300.2000393 +22.4955540      660.404     72.25981      1.294     3.69     4.907691     20.44929     84.53327        12     1.113     0.773  35.89   0
       332    119.1212    157.1128 300.1588332 +22.4526551     2221.728     72.62924      1.515     3.05     4.948727     20.44929     214.1737        23     1.155     1.082  75.84   0
       333    942.3999    154.1360 300.4160866 +22.6983531     785.9119     72.46323      1.366     2.81     4.878288     20.44929     107.2805        14     1.000     0.862  54.56   0
       334     69.0137    154.2413 300.1441954 +22.4368114     518.9343     72.50015      1.313     2.20     4.841848     20.44929     72.01762         7     0.702     0.642   0.90   0
       335    276.5210    150.4982 300.2099060 +22.4979239     5716.081     72.61081      1.397     2.38     4.900785     20.44929     799.5132        37     1.221     1.105  69.87   0
       336    258.2440    151.2155 300.2039902 +22.4926536     316.0819     72.50015      1.183     4.79     4.917411     20.44929     44.80332         7     0.986     0.659  86.38   0
       337     60.6428    145.0193 300.1445849 +22.4316540     1470.068     72.50015      1.630     2.87     4.830624     20.44929     164.6745        21     1.195     1.036  78.72   0
       338     22.4006    146.0181 300.1323815 +22.4204772     341.3427     72.40781      1.784     4.14      4.70538     20.44929     26.26546         5     0.779     0.628   2.94   0
       339    260.0941    141.2788 300.2077874 +22.4903532     575.0901     72.62924      1.412     2.99     4.924901     20.44929      81.1482        10     0.968     0.694 -79.20   0
       340    920.7185    132.1259 300.4164627 +22.6855328     3578.886     72.59238      1.373     2.62     4.901364     20.44929     439.4953        27     1.193     1.023  89.80   0
       341    470.1037    127.2249 300.2776738 +22.5492259     707.6675     72.40781      1.372     2.51     4.789325     20.44929     87.23743        10     0.833     0.739 -81.74   0
       342    222.8877    128.0722 300.2005016 +22.4754107     412.7586     72.62923      1.533     3.84     4.962008     20.44929     55.19336         8     0.921     0.729  64.12   0
       343    584.3075    125.2695 300.3138593 +22.5828636      380.864     72.61081      1.305     3.51     4.769941     20.44929     44.11517         5     0.822     0.482  43.96   0
       344    394.1404    119.3344 300.2565946 +22.5242057     671.1862     72.51861      1.723     3.24     4.909232     20.44929     70.51537         9     0.976     0.671 -29.68   2
       345    397.8539    117.6735 300.2582885 +22.5248407     478.7745     72.50015      1.679     2.78     4.910774     20.44929     52.16134         6     0.743     0.560  36.27   2
       346   1023.5276    130.9291 300.4489168 +22.7159483     1628.531     57.28137      1.148     2.99     5.020539     20.44929     322.3507        15     1.177     0.611  88.16  24
       347    160.3657    116.0721 300.1849575 +22.4532282     673.8759     72.48169      1.342     2.56     4.949366     20.44929     91.27082        12     0.911     0.802  38.75   0
       348    521.4613    114.5796 300.2977591 +22.5609714     1739.102     72.44476      1.236     2.16      4.77703     20.44929      243.662        17     0.990     0.862  67.68   0
       349    449.3298    114.9794 300.2751791 +22.5394844     549.6306     72.48169      1.196     2.94     4.841767     20.44929     82.09317         9     0.913     0.682  40.98   0
       350    582.8654    113.7985 300.3171295 +22.5791337     381.6434     72.46323      1.337     2.38      4.75184     20.44929     52.69037         6     0.743     0.530  53.88   0
       351    265.3734    109.8675 300.2196132 +22.4829103     495.4472     72.46323      1.548     2.62     4.951123     20.44929     71.21371         8     0.787     0.759 -36.90   0
       352    166.6316    100.2863 300.1920226 +22.4505713      176.832     72.46323      1.240     3.45     4.948105     20.44929      32.6797         5     0.751     0.459 -75.55   0
       353    955.5233     98.4901 300.4382227 +22.6862682     427.6978     72.62924      2.499     5.67     5.008955     20.44929     32.71439         8     1.118     0.812 -10.06   0
       354    802.3699     95.2649 300.3915190 +22.6395120     358.2562     72.50015      1.273     4.07     5.123283     20.44929     63.86502         8     1.025     0.641  49.08   0
       355    295.4831     94.3576 300.2340044 +22.4874744     6122.514     72.44476      1.425     2.53     4.948587     20.44929     805.2578        37     1.305     1.072  60.36   0
       356    146.7092     94.1050 300.1878346 +22.4428256      831.918     72.66608      1.682     3.65     4.945243     20.44929     93.54159        13     1.180     0.752  -0.41   0
       357    924.8663     92.1266 300.4307252 +22.6752647      310.393     72.51861      1.148     2.80     4.907818     20.44929     69.31282         7     0.905     0.599   4.23   0
       358    267.3445     87.8783 300.2273546 +22.4771827     313.8327     72.51861      1.308     4.17     4.952258     20.44929     48.23684         7     1.011     0.521  64.26   0
       359    310.6025     85.7041 300.2415117 +22.4895171     382.4771     72.38933      1.174     3.42     4.941922     20.44929     48.26009         6     0.829     0.541 -47.54   0
       360     57.6133     84.7862 300.1631710 +22.4134478     422.5097     72.40781      1.312     2.48     5.039101     20.44929     59.47472         8     0.904     0.562 -17.82   0
       361    541.6036     79.8045 300.3153035 +22.5570051     6332.819     72.29684      1.352     2.42     4.853369     20.44929      903.778        34     1.154     1.053  77.19   0
       362    426.9264     79.5786 300.2796843 +22.5225991     698.0565     72.48169      1.251     2.64     4.969542     20.44929     119.7896        13     1.005     0.789 -80.99   0
       363    598.2752     74.4524 300.3346836 +22.5724341     400.4019     72.48169      1.191     3.40     4.710649     20.44929     46.16616         5     0.732     0.457  20.26   0
       364    562.9932     73.8147 300.3239045 +22.5616873     323.9121     72.38932      1.587     5.10     4.824036     20.44929     39.06469         8     1.070     0.687 -20.86   0
       365    735.2662     71.1778 300.3784164 +22.6124999     306.4341     72.46323      1.211     2.45     5.088214     20.44929     57.73719         5     0.791     0.444  41.70   0
       366    794.1741     69.5306 300.3973074 +22.6296562     776.0483     72.48169      1.425     2.57      5.13327     20.44929     126.3904        13     0.991     0.839 -56.64   0
       367    886.4847     68.2393 300.4265014 +22.6569074     515.0076     72.46323      1.354     3.31     4.951361     20.44929     72.12295        11     1.006     0.740  42.01   0
       368    234.5013     63.8582 300.2249290 +22.4604413      555.366     72.57394      1.365     2.53     4.967582     20.44929     79.23608         9     0.858     0.680  19.30   0
       369    670.0027     59.8296 300.3617630 +22.5897013     6415.836     72.42628      1.384     2.46     4.716764     20.44929     942.6116        38     1.221     1.113  78.10   0
       370    592.7110     62.0893 300.3369586 +22.5672131     474.9688     72.64766      1.381     3.47     4.735056     20.44929     58.42894         9     0.996     0.595  41.65   0
       371    444.8956     58.8967 300.2919799 +22.5220355     1566.653     72.66608      1.422     2.51     5.013434     20.44929     224.2797        22     1.154     1.035 -46.68   0
       372    710.9285     57.3379 300.3753200 +22.6012346     852.1538     72.51861      1.142     2.26     4.953898     20.44929     124.6011        11     0.943     0.674  83.29   0
       373    780.7399     55.1956 300.3977674 +22.6215119     518.5264     72.44476      2.044     3.64     5.138032     20.44929     47.90039         8     0.921     0.852  30.62   0
       374    726.9653     53.3557 300.3816072 +22.6048890     701.5677     72.53706      1.277     2.93     5.059473     20.44929     83.20248        10     0.914     0.768 -77.20   0
       375    193.6832     51.0173 300.2164016 +22.4445225     645.2507     72.44476      1.581     4.13     4.963246     20.44929     75.08676        12     1.229     0.920  88.04   0
       376    997.0026     51.1735 300.4664997 +22.6850597     530.4682     72.42628      1.462     2.24     5.181029     20.44929     74.08735         8     0.782     0.625 -23.36   0
       377    765.4753     48.8352 300.3950721 +22.6151140     556.9487     72.44476      1.456     2.55     5.138954     20.44929     61.98836         6     0.670     0.639  43.67   0
       378    714.2297     44.7445 300.3804305 +22.5986003     2914.384     72.50015      1.361     2.40     4.972659     20.44929     460.2398        27     1.149     1.010  73.99   0
       379    355.1145     45.7358 300.2683122 +22.4913637      478.439     72.57394      1.519     2.81     4.978246     20.44929     75.34505         8     0.968     0.582 -59.03   0
       380    729.3839     43.7391 300.3854779 +22.6028466     908.4882     72.44476      1.757     4.60     5.081452     20.44929     90.67085        16     1.504     0.750  53.49   0
       381      7.5601     38.9948 300.1624649 +22.3852947     757.2725     72.50015      1.399     3.76     6.043386     20.44929     116.9166        14     1.214     0.814 -36.88  16
       382    800.6306     36.3979 300.4100595 +22.6220563     1524.084     72.44476      1.221     2.12     5.154424     20.44929     228.3125        20     1.129     0.849  59.58   0
       383    738.5856     29.5885 300.3929315 +22.6015299     813.9352     72.40781      1.427     3.58     5.160328     20.44929     111.6343        14     1.199     0.748 -40.80   0
       384    544.1617     28.6989 300.3326651 +22.5430766      1059.55     72.50015      1.304     2.53     5.105898     20.44929     148.3367        14     0.999     0.804  81.52   0
       385    116.9244     28.5595 300.1998234 +22.4150714     656.3459     72.44476      1.665     4.24      5.03284     20.44929     73.48698        11     1.058     0.820  58.53   0
       386    448.1219     26.8180 300.3033812 +22.5137797     901.4751     72.48169      1.424     3.62      5.13578     20.44929     105.5625        17     1.165     1.039  83.83   0
       387    830.2888     25.7322 300.4227607 +22.6278622     385.5966     72.62924      1.286     3.57     5.034804     20.44929     58.45825         9     0.969     0.697  43.90   0
       388    224.1644   1018.0049 299.9118264 +22.7311985     1062.679     72.50015      3.450     6.66     83.36111     20.44929     47.59216        14     1.779     0.699 -40.65  19
       389    787.4462     17.7858 300.4119828 +22.6127562     515.0041     72.50015      1.194     2.55     5.166751     20.44929     81.06824         9     0.820     0.713  74.43   0
       390    227.4887   1013.5424 299.9143119 +22.7309170     1584.751      72.5555      4.119     9.79     79.50869     20.44929     51.76881        28     1.832     1.615 -34.88  19
       391    219.6796   1011.0831 299.9126849 +22.7278677      3121.75     72.61081      5.743    23.08     78.01199     20.44929     78.05223       136     4.823     3.202  38.91  19
       392    221.9738   1004.7070 299.9154728 +22.7267283     2105.488     72.42628      8.383    17.37     73.42703     20.44929     57.23731        64     3.845     2.181  88.27  19
       393    546.4965    989.0370 300.0215152 +22.8196214     382.0065     72.48169      1.493     4.21     3.128775     20.44929     42.43398         6     1.010     0.500  89.70   0
       394    195.6444   1019.6771 299.9024179 +22.7231158     577.7028     72.29684      1.528     3.85     84.88944     20.44929     49.12019         5     1.116     0.381  73.99  16
       395    534.1893   1013.7363 300.0096466 +22.8230157     462.7242     72.42628      1.859     6.89     2.974086     20.44929     36.15267         8     1.476     0.953 -56.17   0
