#   1 NUMBER                 Running object number                                     
#   2 X_IMAGE                Object position along x                                    [pixel]
#   3 Y_IMAGE                Object position along y                                    [pixel]
#   4 ALPHA_J2000            Right ascension of barycenter (J2000)                      [deg]
#   5 DELTA_J2000            Declination of barycenter (J2000)                          [deg]
#   6 FLUX_APER              Flux vector within fixed circular aperture(s)              [count]
#   7 FLUXERR_APER           RMS error vector for aperture flux(es)                     [count]
#   8 FLUX_RADIUS            Fraction-of-light radii                                    [pixel]
#   9 FWHM_IMAGE             FWHM assuming a gaussian core                              [pixel]
#  10 BACKGROUND             Background at centroid position                            [count]
#  11 THRESHOLD              Detection threshold above background                       [count]
#  12 FLUX_MAX               Peak flux above background                                 [count]
#  13 ISOAREA_IMAGE          Isophotal area above Analysis threshold                    [pixel**2]
#  14 A_IMAGE                Profile RMS along major axis                               [pixel]
#  15 B_IMAGE                Profile RMS along minor axis                               [pixel]
#  16 THETA_IMAGE            Position angle (CCW/x)                                     [deg]
#  17 FLAGS                  Extraction flags                                          
         1    860.5948     17.6375 300.4334924 +22.6231549     2089.253     72.77825      1.463     2.61     5.011189     20.52773     259.3383        24     1.188     1.014  80.34   0
         2    243.9944     12.8676 300.2431061 +22.4371467     834.6579     72.72264      1.383     4.20     5.376813     20.52773     89.08569        14     1.145     0.967 -20.35   0
         3    808.9434     10.2971 300.4197742 +22.6055853     829.8726     72.85233      1.326     2.76     4.980497     20.52773     105.6911        13     0.952     0.879  86.62   0
         4    516.3769      8.5253 300.3292362 +22.5174891     431.8385     72.79678      1.952     4.14     4.469543     20.52773     36.64734         8     1.049     0.499   0.34   0
         5    566.5747      2.3259 300.3468700 +22.5307382     326.6672     62.03587      1.239     3.46     4.393119     20.52773      43.7702         5     0.727     0.477 -76.11  24
         6    235.0114    980.9838 299.9259134 +22.7122980     441.2852      72.7041      2.302     3.75     39.72208     20.52773     31.83628         5     1.064     0.380  34.44   0
         7    617.1406   1021.8937 300.0314589 +22.8387216     2188.938     65.75028      1.806     4.23       3.4584     20.52773      155.814        27     1.369     1.224 -19.93  24
         8    241.1575   1013.9460 299.9170966 +22.7235925     1949.615     72.75972      9.340    41.56     54.89899     20.52773     78.65062       301     8.695     5.514  52.04  27
         9    270.4628   1016.9578 299.9252249 +22.7332547     5366.508     72.75972      8.558    23.69     48.47422     20.52773     99.62455       362     5.631     5.335 -86.90  19
        10    309.2147   1005.1137 299.9411259 +22.7414935     9026.931      72.7041      9.865    31.95     28.23542     20.52773     180.4888       832    11.420     4.981  61.21  19
        11    144.5769    982.5910 299.8972903 +22.6856042     3942.918     72.75972     27.108    87.92     31.93856     20.52773     134.6046      3277    19.235    15.158 -45.59  27
        12    455.0045    969.2545 299.9981341 +22.7749700     6397.089     72.74118      1.807     3.73     2.740844     20.52773     475.5391        47     1.443     1.426  -6.73   0
        13    147.7859    946.1072 299.9101583 +22.6761105     3671.686     72.68555     22.868    51.16     13.70497     20.52773     84.73221       865    10.935     6.642 -35.00   3
        14    601.8569    978.0138 300.0409824 +22.8215472     470.8777     72.74118      1.883     5.01     3.032728     20.52773     32.50096         5     1.153     0.615  14.23   0
        15      2.0944    953.1312 299.8626260 +22.6343703     994.9144     60.96148      1.433     3.87     2.974526     20.52773     124.6904        19     1.456     0.767  80.20  24
        16   1001.3802    947.9682 300.1752363 +22.9327343      2013.68     72.75972      2.061     4.79     2.797456     20.52773     104.9677        31     1.416     1.379 -13.09   0
        17    651.9163    945.0252 300.0673018 +22.8270991     507.3199     72.72264      2.305     4.52     3.008277     20.52773     32.50827         7     1.067     0.544  30.37   0
        18    313.4155    978.1975 299.9511911 +22.7350373     221.2015     72.61131      1.571     5.79     18.66683     20.52773     75.76958        12     1.279     0.737  -3.63   0
        19    790.4493    936.8740 300.1131008 +22.8663087     747.0995     72.75972      2.128     7.25     3.035143     20.52773     48.62827        15     1.526     0.964  29.60   0
        20    824.8063    931.1682 300.1256621 +22.8749732     1013.693     72.75972      1.722     4.93     2.987367     20.52773     70.00926        18     1.260     1.003  21.91   0
        21    603.3344    931.8459 300.0564653 +22.8087438     472.4234     72.75972      1.887     4.03     2.745904     20.52773     40.33367         8     0.888     0.715 -32.94   2
        22    630.6666    974.9092 300.0509614 +22.8292995     1521.198     72.87083      1.751     4.22     3.145259     20.52773     93.19112        23     1.253     1.167  28.91   0
        23    722.0533    984.1102 300.0764239 +22.8593534     6701.596     72.79678      1.884     4.01     3.266654     20.52773     417.2856        50     1.497     1.467  -2.84   0
        24    847.1844    924.7852 300.1347122 +22.8798507     11283.02      72.7041      1.859     3.96     2.989314     20.52773      705.797        56     1.491     1.462  -2.33   0
        25    893.1840    924.8630 300.1490231 +22.8936646     422.8763     72.74118      1.812     7.13      2.97079     20.52773     36.83188         9     1.362     1.046  -6.57   0
        26    290.0482   1015.9265 299.9316485 +22.7388393     6528.539     72.75972      8.772    27.13      42.2946     20.52773     124.3431       509     6.437     6.028   8.01  27
        27     52.7639   1003.1700 299.8620768 +22.6639279     791.5934     72.77825      3.319     5.79     3.555031     20.52773     60.37238        13     1.292     0.844  40.60   0
        28    980.1706    918.8646 300.1780928 +22.9180188     324.4912     72.77825      1.366     4.92     2.945052     20.52773      31.9636         7     0.937     0.730  46.78   0
        29    158.8094    916.7574 299.9231316 +22.6710070     1279.086     72.75972      6.701     5.78     4.519086     20.52773      57.0051        24     1.586     1.160  -2.56   0
        30    552.2852    912.9286 300.0467306 +22.7880013     537.6803     72.87083      2.599     6.17      2.60049     20.52773      43.6917        10     1.711     0.625  46.89   0
        31    899.0189    911.9157 300.1550544 +22.8916964     354.7144     72.68555      1.721     5.42       2.9801     20.52773     38.14916         6     1.222     0.679  15.15   0
        32    996.6904   1000.6813 300.1566183 +22.9464653     855.0477     72.87083      2.103     7.19     2.393297     20.52773     53.14999        19     1.413     1.282 -10.39   0
        33    147.0000    907.0713 299.9226137 +22.6646846     932.0971     72.62988      4.489     5.90     4.337978     20.52773     41.77992         9     1.537     0.636  84.79   2
        34    855.7340    906.9114 300.1431920 +22.8772825     1307.436     72.87083      1.675     3.74     2.999074     20.52773     107.9141        21     1.214     1.069  36.74   0
        35    707.6843    903.8889 300.0980521 +22.8320203     501.1088     72.88934      1.745     5.61     2.947268     20.52773      47.2154         9     1.115     0.795  29.70   0
        36    893.6716    900.5603 300.1570822 +22.8868328     707.2074     72.74118      1.650     4.50     2.993163     20.52773     51.45135        15     1.087     1.006   0.44   0
        37    215.7290    985.5425 299.9184375 +22.7078154     1692.311     72.77825      5.374    14.12     44.36417     20.52773     57.41373        42     2.713     2.044  27.80   2
        38    942.1899    891.5511 300.1751376 +22.8987902     443.2335     72.77825      1.605     5.94      2.98166     20.52773     40.11411        12     1.040     0.956 -81.97   0
        39    793.6081    890.7309 300.1290978 +22.8540098     569.0898     72.74118      1.739     5.70     2.990217     20.52773     50.19817        10     0.966     0.948 -40.85   0
        40    506.2334    886.9299 300.0408574 +22.7667259     4168.051     72.75972      1.664     3.30     3.012511     20.52773     386.0745        34     1.305     1.230  20.94   0
        41    804.8776    887.4519 300.1336757 +22.8564475     474.2382     72.75972      1.747     5.51     2.992132     20.52773     40.02033        12     1.154     0.921 -53.82   0
        42    285.3348    876.3104 299.9756095 +22.6973922     406.3119     72.87083      1.901     3.46     4.517345     20.52773     41.23883         5     0.748     0.461  80.31   0
        43    549.9303    874.5878 300.0584705 +22.7762937     368.9041     72.77825      1.803     5.64      2.97482     20.52773      27.0106         7     1.313     0.683 -30.34   0
        44    168.3893    875.2954 299.9395952 +22.6619966     359.9184     72.68555      1.250     3.46     4.344064     20.52773     45.40207         5     0.726     0.476  78.98   0
        45    231.6058    872.6303 299.9601062 +22.6802096      906.487     72.75972      2.090     4.63     5.445715     20.52773     56.86805        17     1.289     1.089 -64.30   0
        46    208.6478    869.7863 299.9538966 +22.6725026     1574.016     72.75972      1.765     4.22     4.849735     20.52773     118.1465        23     1.255     1.192 -21.94   0
        47    145.9585   1018.0543 299.8861788 +22.6961831     4232.601     72.74118      8.794    30.84      50.7002     20.52773     80.35084       317     6.337     4.298  14.37  27
        48    739.7853    857.1820 300.1232444 +22.8282397     253.9135     72.74118      1.262     3.66     2.986934     20.52773     36.22732         5     1.147     0.335  77.53   0
        49    818.3903    851.2035 300.1496775 +22.8500916     687.2023     72.57415      1.729     4.40     3.000763     20.52773       50.419        12     0.980     0.909 -13.38   0
        50    686.2125    845.1010 300.1104888 +22.8087068     4898.584     72.66699      1.645     3.21     2.863297     20.52773     421.6088        38     1.340     1.246  20.94   0
        51    191.8871    981.2227 299.9124346 +22.6994183     1384.093     72.68555     11.287    17.66     40.93084     20.52773     51.21582        45     3.507     2.472  29.39   3
        52    488.7150    842.3768 300.0498983 +22.7486872     611.5449      72.7041      1.474     3.41     3.194144     20.52773     69.04411        11     1.016     0.762 -30.73   0
        53    236.2481    838.8769 299.9725270 +22.6719240     1347.604     72.75972      1.746     3.62     4.004825     20.52773     120.4811        21     1.218     1.070  53.99   0
        54    706.8931    837.4986 300.1194020 +22.8127261     757.9735     72.94481      1.586     4.12     2.928338     20.52773     57.97383        13     1.123     0.854 -63.40   0
        55    255.1842    835.6320 299.9794678 +22.6766770     375.8589     72.74118      1.669     6.65     3.946689     20.52773     39.47911        11     1.365     0.910  22.47   0
        56    623.3845    828.2548 300.0964051 +22.7850295     351.8069     72.75972      1.471     4.66     2.984648     20.52773     28.81508         7     0.882     0.699 -21.24   0
        57    862.2980    824.8516 300.1719313 +22.8556875     4085.795     72.83381      1.674     3.48     3.025994     20.52773     339.9244        33     1.309     1.215  13.48   0
        58    270.7307    818.7714 299.9897833 +22.6765074     459.5224     72.75972      1.675     5.44     3.782363     20.52773     46.08092        11     1.096     0.761  50.78   0
        59    578.9982    817.2798 300.0861570 +22.7685672     572.9609     72.66699      1.606     3.73      3.12501     20.52773     51.70298         9     0.901     0.698  63.64   0
        60    225.6542    815.4508 299.9768527 +22.6620263     1073.776     72.79678      1.717     3.47     3.776769     20.52773     105.2644        17     1.217     0.932  29.70   0
        61    640.7332    810.8390 300.1074704 +22.7852335     608.3984     72.72264      1.662     4.17      3.04008     20.52773     61.00768        14     1.111     0.945  21.85   0
        62    375.2924    807.3877 300.0259953 +22.7046191      52888.5      72.7041      1.638     3.07      3.49686     20.52773     4981.274        94     1.451     1.429  32.73   0
        63    633.0052    806.4243 300.1065000 +22.7816487     1545.364     72.74118      1.592     2.96      3.08944     20.52773     140.0833        21     1.199     1.018  -8.92   0
        64    348.8787    805.0402 300.0185447 +22.6960201     263.0152     72.74118      1.349     5.40     3.616903     20.52773     33.32394         9     1.266     0.650  69.10   0
        65    303.4420    805.8749 300.0041460 +22.6826252     374.9251     72.74118      1.471     4.31      3.65767     20.52773     55.08138         7     1.165     0.454 -35.03   0
        66    661.8940    802.4407 300.1167903 +22.7891685     758.6443     72.77825      1.454     4.27     3.021397     20.52773     83.76849        15     1.183     0.972 -63.04   0
        67     61.4611    802.1166 299.9301783 +22.6089146     803.9039     72.87083      1.762     4.60     3.456934     20.52773     72.24297        15     1.191     1.076 -66.86   0
        68     29.4482    802.4977 299.9201131 +22.5994123     593.3247     72.79678      1.878     2.79     3.396296     20.52773      52.6997         9     0.879     0.709 -72.92   2
        69    672.9437    801.0392 300.1206868 +22.7920796     617.0804     72.75972      1.475     4.49     2.990713     20.52773     59.96655        13     1.161     0.842  32.80   0
        70    993.0302    797.0662 300.2217226 +22.8868892     349.9629     72.75972      2.206     3.82     3.183928     20.52773     31.12435         5     1.037     0.404  59.21   0
        71    778.9844    796.8211 300.1550869 +22.8226628      433.398     72.74118      1.460     4.05      3.01779     20.52773     45.31445        10     0.932     0.756  85.14   0
        72    573.1548    794.6335 300.0917027 +22.7603150     222.9417     72.79678      1.436     3.41     3.209179     20.52773     27.87506         5     0.780     0.431 -19.40   0
        73    816.2067    787.3542 300.1697627 +22.8311029     620.6725     72.77825      1.404     4.26     3.102737     20.52773     58.01577        16     1.125     1.037  16.17   0
        74    425.0476    784.6304 300.0488704 +22.7130179     31179.69     72.77825      1.569     2.96     3.308596     20.52773     2987.697        76     1.403     1.355  34.77   0
        75    439.3429    785.0953 300.0531660 +22.7174398      2008.73     72.83381      1.542     3.04     3.308596     20.52773     203.0089        21     1.098     1.042 -58.86   0
        76    948.0484    780.5034 300.2130833 +22.8686515     2799.083     72.79678      1.679     3.48     3.331811     20.52773     217.5543        32     1.338     1.245  41.42   0
        77    435.9673    779.1712 300.0540422 +22.7147273     732.9019     72.75972      2.087     4.77     3.308596     20.52773     67.14711        11     1.066     0.874  14.87   0
        78    977.3923    779.2119 300.2226525 +22.8770741      400.615     72.64844      1.389     3.45     3.412523     20.52773     33.44438         5     0.780     0.441  70.92   0
        79    705.9615    776.5611 300.1389290 +22.7949525     1089.864     72.83381      1.804     3.68     3.136804     20.52773     83.91953        19     1.242     0.963  10.50   0
        80    542.2316    776.4365 300.0879952 +22.7458177     575.4343     72.79678      1.884     4.60     3.255847     20.52773     48.56501         9     1.002     0.725  52.71   0
        81    307.6025    776.3770 300.0150309 +22.6754123     816.0132      72.7041      1.554     3.50     3.628167     20.52773     77.65005        16     1.137     0.903 -43.15   0
        82    553.1766    771.5209 300.0929999 +22.7476895     991.3815     72.72264      1.706     3.60     3.264733     20.52773     81.93806        19     1.232     0.972  -8.51   0
        83    112.5484    772.0425 299.9558240 +22.6156286     551.0623     72.77825      1.551     1.97     3.559964     20.52773     59.99143         6     0.723     0.498  88.93   0
        84    954.4105    768.5721 300.2189466 +22.8671307     559.1808     72.75972      1.538     3.81     3.473531     20.52773     54.81178        10     1.146     0.621 -22.23   0
        85    455.3034    767.5688 300.0638299 +22.7171986     581.7988      72.7041      1.808     5.60     3.308596     20.52773     43.72047        13     1.091     1.019  56.63   0
        86    410.7654    767.3268 300.0500541 +22.7037683     507.2692     72.74118      1.764     5.55     3.339113     20.52773     37.44102        11     1.080     0.803 -45.60   0
        87    140.5369    765.9562 299.9664975 +22.6222847     559.6473     72.75972      1.828     4.18      3.59509     20.52773     55.76397        10     1.228     0.673 -64.18   0
        88    498.6674    766.0579 300.0778130 +22.7297725     544.2635     72.79678      1.617     3.74      3.29976     20.52773     63.14413        11     0.994     0.884  18.99   0
        89    931.4366    763.4021 300.2134652 +22.8587608     508.1264     72.77825      1.711     6.43     3.456397     20.52773      45.9787        11     1.381     0.840  22.37   0
        90    305.0493    760.6586 300.0193476 +22.6701372     511.9794     72.81529      1.435     4.41     3.623966     20.52773     58.64693        13     1.173     0.864   4.67   0
        91    628.0845    751.2803 300.1228987 +22.7643436     484.7602     72.90783      1.411     3.91      3.32625     20.52773     51.09601        12     1.132     0.812  16.75   0
        92    598.1935    749.4225 300.1141972 +22.7548470     565.7302     72.74118      1.535     3.06     3.340544     20.52773     64.49815         8     0.897     0.704 -66.08   0
        93    507.3779    748.6683 300.0861772 +22.7273945     395.0333     72.77825      1.636     3.59     3.312355     20.52773     42.45647         8     0.922     0.633 -73.61   0
        94   1014.4839    745.8677 300.2450613 +22.8786086     4284.435     72.87083      1.705     3.65     4.034389     20.52773     303.2006        38     1.341     1.318  62.77   0
        95    620.0579    746.8042 300.1218551 +22.7606518     1419.937     72.72264      1.485     3.09     3.345649     20.52773      167.474        20     1.094     1.049 -11.74   0
        96    920.8281    746.9937 300.2154932 +22.8508683     833.7605     72.75972      0.543     0.85      3.57681     20.52773     520.4055         7     0.472     0.422  -5.34   0
        97    539.9910    746.3030 300.0970953 +22.7364970     423.5223     72.66699      1.422     2.52     3.323743     20.52773     49.49934         7     0.726     0.633  16.20   0
        98   1003.0259    737.3008 300.2442735 +22.8727141     1645.406      72.7041      1.700     3.61     4.116749     20.52773     119.3145        23     1.210     1.122 -32.08   0
        99    366.0208    731.1570 300.0478970 +22.6799668     847.2692     72.79678      1.461     3.13     3.558939     20.52773     91.12981        10     0.832     0.811  88.86   0
       100    829.5020    728.4547 300.1930565 +22.8181727     2601.737     72.85233      1.727     3.26      3.49351     20.52773     227.6848        32     1.544     1.152  -1.01   0
       101     51.7541    718.6498 299.9542986 +22.5820697     733.1394     72.77825      1.760     4.93     3.539531     20.52773     71.91954        15     1.273     0.989  84.53   0
       102    214.8208    714.9456 300.0061618 +22.6299492     516.4755     72.75972      1.617     4.00     3.623597     20.52773     71.37852        13     1.357     0.786 -15.89   0
       103    911.5923    714.3150 300.2232384 +22.8387130     547.1115     72.68555      1.668     3.50     3.691912     20.52773     63.16056         9     1.009     0.817 -38.64   0
       104    947.7900    705.4711 300.2373981 +22.8470189     145799.6     72.74118      1.644     3.10     3.855162     20.52773     13134.77       179     1.590     1.536  61.55   0
       105    454.6243    710.8101 300.0820707 +22.7007067     269.1371     72.75972      1.045     4.25     3.324019     20.52773     25.52248         5     0.946     0.544 -39.94   0
       106    710.2291    709.1182 300.1621850 +22.7768671     171.8426     72.77825      1.247     3.51     3.388622     20.52773     41.50918         7     0.818     0.747 -45.94   0
       107    800.0132    705.8680 300.1912106 +22.8028470     839.7057     72.77825      1.665     2.88     3.396178     20.52773     75.04201        10     0.850     0.767 -81.15   0
       108    980.4510    698.3639 300.2498922 +22.8547628     474.4334     72.77825      1.395     4.12     4.002729     20.52773     52.75454        11     1.008     0.849 -72.63   0
       109    634.0424    694.4413 300.1432312 +22.7498119     1623.452     72.85233      1.384     2.64      3.48714     20.52773     165.3347        19     1.048     0.932  12.21   0
       110    815.2775    691.6294 300.2005952 +22.8033323     9308.016     72.74118      1.491     2.76     3.409159     20.52773     978.0551        42     1.254     1.187 -70.42   0
       111    316.7131    686.6542 300.0470304 +22.6524053     4935.807     72.79678      1.542     2.90     3.529211     20.52773     554.3893        33     1.241     1.162  58.92   0
       112     30.5413    685.3286 299.9585412 +22.5661476     1769.913     72.79678      1.747     3.62     3.537793     20.52773     170.8013        26     1.288     1.210 -73.64   0
       113    398.8602    684.9340 300.0731351 +22.6765543     1136.231     72.79678      1.424     2.79     3.392413     20.52773     138.0045        17     1.064     0.905  12.48   0
       114    274.2994    682.3862 300.0352316 +22.6384559     512.4792     72.66699      1.433     4.01     3.543512     20.52773     53.45071        11     1.022     0.784  39.55   0
       115    606.9409    680.2188 300.1394165 +22.7376028     843.5499     72.72264      1.466     2.99     3.586829     20.52773     82.92295        12     0.923     0.840  68.99   0
       116    598.6882    672.4316 300.1393784 +22.7328926     3181.694     72.72264      1.375     2.43     3.614232     20.52773     397.7073        27     1.146     1.027  15.95   0
       117    588.9489    666.1798 300.1383785 +22.7281775     1505.613     72.74118      1.433     2.82     3.627993     20.52773     175.3167        20     1.152     0.973  52.35   0
       118    518.1581    665.5869 300.1165381 +22.7067806     355.8525     72.77825      1.606     4.44     3.513134     20.52773     41.40324         7     1.248     0.449  25.39   0
       119    982.7453    664.2583 300.2616936 +22.8456503     426.0687     72.81529      1.638     3.86     4.005137     20.52773     46.50751         8     0.986     0.655 -34.41   0
       120    252.3229    662.3402 300.0349151 +22.6261112     710.8812     72.81529      1.597     3.60     3.542392     20.52773     75.64835        11     1.144     0.744 -69.19   0
       121    499.6521    663.3052 300.1115210 +22.7005761     181.1499     72.83381      1.380     4.05     3.431653     20.52773     26.68348         6     0.895     0.524  44.78   0
       122    266.4426    660.7587 300.0398180 +22.6298937     727.9486     72.85233      1.682     3.37     3.517942     20.52773     71.00034        12     0.992     0.863  45.57   0
       123    322.9414    657.3553 300.0584890 +22.6458669     303.9002     72.79678      1.337     4.68     3.461918     20.52773     39.40093         8     1.090     0.792  75.19   0
       124    292.2350    657.5490 300.0488792 +22.6367108     492.0272     72.77825      1.634     3.78     3.476102     20.52773     63.11284        14     1.221     0.814   8.79   0
       125    613.0372    656.5731 300.1489996 +22.7326415     537.7631     72.77825      1.571     4.59     3.628834     20.52773     51.03189        12     1.051     1.022 -76.62   0
       126    513.6101    655.8848 300.1182759 +22.7026316     1704.461     72.72264      1.362     2.61     3.510358     20.52773     224.7561        20     1.083     0.971  85.06   0
       127    167.6708    650.7616 300.0123701 +22.5973896     19553.73     72.72264      1.653     3.14     3.614916     20.52773     2017.238        67     1.476     1.360  26.38   0
       128    598.7620    651.3929 300.1462390 +22.7268742      972.849     72.77825      1.355     2.68     3.654321     20.52773     132.5925        14     1.022     0.866 -84.72   0
       129     88.8325    652.1360 299.9874314 +22.5741248     632.4158     72.75972      1.622     4.16     3.834063     20.52773     68.66927        11     1.247     0.620  46.89   0
       130    633.8763    650.1888 300.1575624 +22.7370559      475.904     72.77825      1.586     4.51     3.601884     20.52773     36.80559         8     0.839     0.689  43.93   0
       131    351.9497    642.7900 300.0722423 +22.6503890     354.6391     72.75972      1.421     4.83     3.404049     20.52773     39.16588         8     0.901     0.781 -78.32   0
       132    682.2108    639.0075 300.1762468 +22.7483345     377.4235     72.62988      1.836     3.84     3.575446     20.52773     22.95065         5     0.831     0.510  34.23   0
       133   1016.7582    637.4222 300.2810225 +22.8481275     945.4835     72.79678      1.386     2.96     3.982076     20.52773     106.4798        16     1.031     0.921  11.96   0
       134    113.7354    635.0480 300.0007195 +22.5766973     1555.322     72.77825      1.843     4.66     3.806077     20.52773     115.4576        24     1.445     1.107 -75.39   0
       135    883.6599    635.2284 300.2402376 +22.8076221     333.7314     72.77825      1.393     4.10     3.771215     20.52773     49.15262         9     0.879     0.784   1.58   0
       136    180.0535    635.1416 300.0212934 +22.5966245     331.6036     72.81529      1.286     3.59     3.582216     20.52773     50.62848         7     0.907     0.486  44.28   0
       137    562.0735    631.9868 300.1411251 +22.7103024     404.5087     72.77825      1.460     2.91      3.74059     20.52773     72.60228         7     0.961     0.504  57.36   0
       138    956.4796    629.9391 300.2646575 +22.8279196     901.7079     72.81529      2.012     4.33     3.895622     20.52773     75.77666        15     1.350     0.776   2.13   0
       139    701.5918    628.9063 300.1855652 +22.7512430     385.4866     72.66699      1.664     4.90     3.617023     20.52773     31.94468         6     1.105     0.616 -36.68   0
       140    518.7845    624.2021 300.1301820 +22.6950879     687.0047     72.61131      1.383     3.27     3.598212     20.52773     82.64793        11     1.018     0.743 -38.19   0
       141    666.7592    622.5770 300.1767743 +22.7389843     347.4381     72.79678      1.221     2.64     3.654246     20.52773     76.59335         9     0.946     0.657  33.95   0
       142    714.0455    621.0905 300.1919838 +22.7527310     516.0881     72.74118      1.395     3.82     3.653988     20.52773     51.69518         9     0.976     0.788  26.12   0
       143    684.6104    620.8638 300.1828901 +22.7438431     616.8562      72.7041      1.285     2.66     3.657824     20.52773     96.29515        10     0.907     0.730  41.36   0
       144    563.2180    619.9451 300.1453942 +22.7071882     1064.846     72.74118      1.608     3.64     3.776385     20.52773     113.8074        20     1.392     0.927  26.44   0
       145    996.7775    615.4490 300.2819320 +22.8358273     3214.803     72.75972      1.558     3.00     3.888376     20.52773     341.6801        29     1.222     1.180   7.38   0
       146    528.5089    615.3460 300.1360859 +22.6954611     1766.209     72.81529      1.472     2.76     3.696536     20.52773      182.733        23     1.220     0.957  30.50   0
       147    893.7665    613.0219 300.2506042 +22.8042699     302.1214     72.75972      1.323     4.02      3.87947     20.52773     47.11343         8     1.099     0.583 -24.35   0
       148    503.6578    610.7570 300.1298435 +22.6866922     259.5354     72.72264      1.116     3.50     3.497392     20.52773     28.49399         5     1.214     0.291 -35.67   0
       149     90.4199    608.8973 300.0019738 +22.5621997     5100.553     72.68555      1.706     3.32     3.838863     20.52773     526.1515        41     1.384     1.319  48.88   0
       150    391.9032    602.0576 300.0979031 +22.6506822     9066.237     72.83381      1.449     2.72     3.314888     20.52773     1020.344        45     1.282     1.175  66.88   0
       151    514.3409    599.1462 300.1369406 +22.6865620     8910.171     72.81529      1.420     2.56     3.640174     20.52773     988.2892        43     1.257     1.160  44.95   0
       152    279.6811    596.3470 300.0648630 +22.6153834     275.5818     72.77825      3.294     4.90     3.385326     20.52773     24.04265         6     0.935     0.728  16.82   0
       153    158.1890    595.5577 300.0273609 +22.5787084     166.1243     72.75972      1.126     3.64     3.582238     20.52773      30.1081         5     1.001     0.381  84.38   0
       154   1010.7269    590.6157 300.2943517 +22.8328685     12255.57     72.75972      1.599     2.96     3.753182     20.52773     1190.487        53     1.327     1.324 -89.60   0
       155    926.1722    593.2538 300.2671295 +22.8082982     1892.486     72.79678      1.461     2.89     3.761177     20.52773     203.4255        24     1.148     1.094 -20.88   0
       156    574.9764    588.7741 300.1591823 +22.7017632     11612.55     72.72264      1.420     2.52     3.872785     20.52773     1535.945        46     1.248     1.136  57.96   0
       157    744.5637    584.7144 300.2133094 +22.7514290     561.8353     72.74118      1.474     2.36     3.706826     20.52773      71.5604         8     0.844     0.579  71.33   0
       158    302.4306    584.2360 300.0758703 +22.6187319     1330.722     72.77825      1.421     2.99     3.371317     20.52773     144.0795        20     1.213     0.913  25.74   0
       159      3.4187    581.1917 299.9839559 +22.5281436     2436.932     67.04998      1.724     3.45     3.429245     20.52773     235.8864        31     1.332     1.301  53.34  24
       160    549.2510    581.9952 300.1533775 +22.6921043     428.2599     72.74118      1.260     3.63      3.91348     20.52773     51.94662         9     0.982     0.651  57.26   0
       161    460.2903    583.1680 300.1253136 +22.6657680     358.0887      72.7041      1.347     4.57     3.485355     20.52773     45.76343         7     0.826     0.808  17.20   0
       162    506.6329    576.8469 300.1417868 +22.6778486     4453.229     72.79678      1.427     2.55     3.725858     20.52773     573.6414        29     1.201     1.027  52.21   0
       163    849.4305    576.9432 300.2485085 +22.7806198     761.3609     72.77825      1.439     2.97     3.603689     20.52773     88.40363        13     0.953     0.924 -25.58   0
       164    484.8184    575.3427 300.1354875 +22.6708761     1217.295     72.74118      1.346     2.49     3.626193     20.52773     160.5353        20     1.200     0.915 -86.80   0
       165    239.0882    574.6093 300.0593069 +22.5969687     724.8879     72.68555      1.559     3.33     3.343228     20.52773     79.23461        15     1.126     0.953 -34.25   0
       166    926.3885    572.4127 300.2739684 +22.8023738     1513.344     72.66699      1.522     3.04     3.615778     20.52773     146.3738        20     1.147     1.001 -62.12   0
       167    623.2725    564.4746 300.1821119 +22.7092627     199221.6     72.81529      1.392     2.45      3.95974     20.52773     23467.27       199     1.479     1.450  67.04   0
       168    173.2579    571.7144 300.0397890 +22.5763890     297.8742     72.87083      1.590     4.05     3.453408     20.52773      39.1058         6     0.906     0.653 -78.10   0
       169    807.1500    569.5909 300.2377217 +22.7658390     923.2426     72.75972      1.528     3.32     3.424279     20.52773      102.234        14     1.103     0.812  12.27   0
       170    447.6150    570.8589 300.1253691 +22.6584335     331.7504     72.74118      1.027     2.92     3.528264     20.52773     51.66451         5     0.922     0.342  -4.26   0
       171    309.3297    564.3846 300.0844643 +22.6151041     3472.032     72.77825      1.500     2.63     3.367885     20.52773     354.5285        29     1.193     1.083  75.93   0
       172    875.2001    560.5890 300.2618534 +22.7836412     521.0881     72.57415      1.478     3.70     3.548866     20.52773     58.47672         8     0.898     0.776 -25.27   0
       173    513.8272    545.0195 300.1543651 +22.6708671     2472.834     72.75972      1.407     2.59     3.941598     20.52773     340.9667        25     1.359     0.967 -89.28   0
       174    358.3213    547.3359 300.1052364 +22.6249041      453.709     72.85233      1.352     2.62     3.378596     20.52773     56.45865        10     0.851     0.782  36.18   0
       175    963.4975    545.4305 300.2943042 +22.8057350     139.6695      72.7041      1.333     3.97      3.43977     20.52773      33.5488         6     0.913     0.716  79.00   0
       176    924.9378    541.3649 300.2836029 +22.7930164     192.0441     72.77825      1.206     2.41     3.430775     20.52773      45.1144         6     0.780     0.725  14.45   0
       177    744.8332    540.6053 300.2277233 +22.7388384     226.9313     72.74118      1.106     3.42     3.791439     20.52773     36.44107         5     0.728     0.467  14.87   0
       178    830.9634    533.6890 300.2568054 +22.7626583     316.2415     72.74118      1.389     2.99     3.526247     20.52773     38.44532         7     0.741     0.642   3.20   0
       179    910.7993    530.7924 300.2826297 +22.7857428     1840.079     72.57415      1.614     2.90     3.459375     20.52773     212.7961        27     1.541     1.094  73.94   0
       180    797.6957    531.6194 300.2471113 +22.7520964        344.9     72.66699      1.384     4.39     3.571941     20.52773     37.42844         5     0.802     0.698 -79.29   0
       181    782.1062    528.6943 300.2432043 +22.7465849     2530.942     72.92632      1.386     2.51     3.679255     20.52773     340.7363        26     1.146     1.051  50.45   0
       182     40.9523    529.9468 300.0122564 +22.5247091     756.4944     72.79678      1.516     2.87     3.437837     20.52773     89.91142        10     0.929     0.694 -31.48   0
       183    687.0514    525.2673 300.2147082 +22.7171168     514.6469     72.77825      1.504     2.79     3.943576     20.52773     52.53502         8     0.818     0.643 -48.44   0
       184    569.1838    524.4772 300.1782666 +22.6815627     694.0928     72.75972      1.375     3.37     4.039905     20.52773     81.01839        11     1.046     0.709 -77.37   0
       185    911.1087    521.1653 300.2858533 +22.7830686     2268.904     72.74118      1.717     3.91     3.481188     20.52773     252.8924        27     1.451     1.071  78.16   0
       186    664.5201    519.3939 300.2095994 +22.7086773     568.7682     72.68555      1.244     3.64      4.01335     20.52773     67.56726         9     1.042     0.655 -37.59   2
       187    664.2572    515.7094 300.2107143 +22.7075401     441.0137     72.81529      1.944     5.20     4.034167     20.52773     44.45868         7     1.254     0.609 -72.51   3
       188    450.5909    519.2842 300.1430482 +22.6445188     266.8363      72.7041      1.124     2.84     3.661179     20.52773     46.16269         6     0.819     0.517  41.39   0
       189    503.0597    517.6694 300.1598981 +22.6597856     375.9684     72.79678      1.551     5.14     3.835896     20.52773     39.66109         9     1.141     0.655  60.34   0
       190    949.2918    516.1307 300.2993927 +22.7930586      4283.52     72.88934      1.483     2.68     3.435268     20.52773     441.3029        30     1.177     1.130 -56.65   0
       191    609.3868    512.4102 300.1947012 +22.6901474      356.389     72.66699      1.441     3.96     4.189574     20.52773     43.28019         8     0.903     0.733 -54.58   0
       192    181.3919    506.4584 300.0635123 +22.5601052     880.8548     72.74118      1.371     3.00     3.371136     20.52773     100.5463        17     1.132     0.918 -15.00   0
       193    841.9288    500.4139 300.2710309 +22.7563816     311.3432     72.75972      1.184     3.99     3.811323     20.52773      44.2267         7     1.004     0.627 -14.63   0
       194    200.4192    497.2767 300.0724070 +22.5631779     275.7809     72.75972      1.940     3.69     3.370934     20.52773     66.69567         5     1.718     0.228  41.75   0
       195    173.5870    496.7200 300.0642496 +22.5549694     396.9876     72.74118      1.665     4.67     3.377953     20.52773     41.03757         7     0.947     0.654 -19.83   0
       196    781.5903    490.5176 300.2554435 +22.7354611     478.5143      72.7041      1.461     2.94     4.000432     20.52773      56.0554         9     0.916     0.697  36.53   0
       197   1001.4008    487.1888 300.3250420 +22.8003452     207.2258     72.57415      1.365     4.30     3.451991     20.52773     34.12509         6     1.204     0.438  57.92   0
       198    722.7791    486.8210 300.2383230 +22.7167779     782.8543     72.75972      1.371     3.50     4.136817     20.52773     87.03372        14     1.065     0.873  51.50   0
       199    670.4127    488.1509 300.2215818 +22.7014682     437.2601     72.81529      1.560     3.33     4.197855     20.52773     43.56794         7     0.854     0.739   4.50   0
       200    783.3859    478.7974 300.2598093 +22.7326313     819.6458     72.59274      1.459     3.31     4.082727     20.52773     93.59915        14     1.084     0.844 -82.10   0
       201    940.6753    475.0137 300.3100608 +22.7786592      934.205     72.77825      1.350     3.11     3.478297     20.52773     103.9226        14     1.040     0.842  -5.12   0
       202    925.1187    471.1587 300.3064627 +22.7728919     551.0199     72.72264      1.497     4.00     3.529029     20.52773     66.66553        11     1.109     0.893 -61.48   0
       203    905.3315    471.4575 300.3001971 +22.7670513      305.492     72.77825      1.593     5.09     3.667384     20.52773     36.84411         7     1.175     0.623 -37.94   0
       204    669.2902    469.4138 300.2273172 +22.6957490     3130.527      72.7041      1.342     2.40     4.196672     20.52773     368.6678        27     1.143     1.056 -46.17   0
       205    145.5012    460.3417 300.0673358 +22.5361055     415.7388     72.85233      1.439     3.43     3.473519     20.52773     48.04448         5     0.742     0.457  69.75   0
       206    674.6439    457.2527 300.2329336 +22.6938595     222.9073     72.79678      1.254     3.44     4.146132     20.52773      30.0923         5     1.186     0.288  35.51   0
       207    440.6861    456.7173 300.1602857 +22.6235843     272.6838     72.88934      1.497     4.64     3.697412     20.52773     44.04359         6     1.211     0.504  40.07   0
       208    509.2548    456.4480 300.1817081 +22.6440617     351.7853     72.79678      1.359     3.07      3.79426     20.52773     41.35816         5     0.718     0.463  19.34   0
       209    952.4039    448.1081 300.3224551 +22.7744373     446.3549     72.66699      1.453     4.06     3.697564     20.52773     61.84739        13     1.116     0.855   0.14   0
       210    779.9693    443.3604 300.2702526 +22.7214245     941.6711     72.75972      1.330     2.53     4.070282     20.52773     129.7892        14     1.028     0.838  64.90   0
       211    575.7359    444.0240 300.2064339 +22.6604192     428.4745     72.74118      1.377     2.33       4.0212     20.52773     67.24723         7     0.726     0.620 -60.38   0
       212    283.7491    441.5750 300.1163958 +22.5721824     784.7653     72.77825      1.605     2.85     3.547415     20.52773     82.98268        11     0.882     0.816 -87.23   0
       213    346.2443    437.2380 300.1372356 +22.5896766     3629.869     72.83381      1.345     2.37     3.765532     20.52773     413.1387        31     1.192     1.043  59.36   0
       214    293.4410    431.9946 300.1225195 +22.5723384     7374.912     72.77825      1.436     2.47     3.600288     20.52773     902.4694        39     1.231     1.133  51.97   0
       215    434.2576    426.2675 300.1681726 +22.6129132     4859.303     72.79678      1.337     2.36     3.832001     20.52773     571.1704        28     1.072     1.059 -65.61   0
       216    678.4590    422.9330 300.2452654 +22.6851423     18518.69     72.79678      1.353     2.37     4.015921     20.52773      2269.67        59     1.310     1.141  58.91   0
       217    696.0275    422.8937 300.2507497 +22.6903948     916.0001     72.68555      1.978     6.78     4.031783     20.52773     65.25652        17     1.718     0.750 -28.71   0
       218    305.3146    421.0923 300.1297507 +22.5727689     247.3352     72.92632      1.194     3.46     3.701643     20.52773     44.56329         5     0.728     0.708 -55.68   0
       219    921.5843    419.1075 300.3222630 +22.7568707     262.1609     72.68555      1.311     3.76     3.896392     20.52773     45.96393         6     0.834     0.487  83.39   0
       220    875.4808    413.3210 300.3097702 +22.7414000     343.2267     72.88934      1.212     3.32     4.023677     20.52773     53.68292         5     0.760     0.420  64.72   0
       221    298.6553    409.8133 300.1313420 +22.5675340     329.4288     72.75972      1.274     4.79     3.741401     20.52773     38.43494         7     0.984     0.660  76.63   0
       222   1012.1546    405.7644 300.3548367 +22.7801548     729.7814     72.79678      1.477     3.80     4.100019     20.52773     71.21262        12     1.080     0.795  17.48   0
       223    549.2500    404.9760 300.2108677 +22.6412650     340.9641     72.75972      1.332     2.70      3.86321     20.52773     51.90201         5     0.938     0.540  17.16   0
       224    233.1017    403.1057 300.1131410 +22.5459515      2105.83     72.94481      1.482     2.67     3.721092     20.52773     219.9594        27     1.261     1.060  68.76   0
       225    619.0636    392.3821 300.2366891 +22.6585679     6669.408     72.74118      1.322     2.29     3.992676     20.52773     880.3141        36     1.238     1.011  73.31   0
       226    334.0486    392.0084 300.1481270 +22.5730340     666.3842     72.77825      1.320     2.61     4.011859     20.52773     97.80748        11     0.931     0.736  72.72   0
       227    191.5670    385.1082 300.1060746 +22.5283298     574.1009     72.72264      1.424     3.33     3.822385     20.52773     60.94588         8     0.866     0.662 -25.60   0
       228     38.7785    382.6476 300.0594075 +22.4817970     1334.786     72.77825      1.554     3.38      4.32274     20.52773     156.1953        19     1.167     1.017  27.56   0
       229    732.9759    382.8679 300.2752528 +22.6899625      538.088     72.74118      1.275     2.35     3.992398     20.52773     90.95423         9     0.763     0.740  89.21   0
       230    823.4807    381.3989 300.3039276 +22.7166499     942.5535     72.64844      1.160     2.98     4.049436     20.52773     125.0523        16     1.106     0.861  48.37   0
       231      7.7390    380.2676 300.0505411 +22.4718027     1435.641     72.79678      2.069     6.03     4.569799     20.52773     110.4035        25     1.656     1.166 -51.45  16
       232    525.7017    378.6760 300.2120763 +22.6266531     6222.666     72.90783      1.360     2.42     3.781315     20.52773     841.5198        38     1.210     1.149 -79.69   0
       233   1015.2514    373.3649 300.3663210 +22.7717655     612.7928     72.77825      1.438     2.54     4.185484     20.52773     77.16801         9     0.821     0.709  66.87   0
       234    917.6982    373.0775 300.3359955 +22.7424738     1459.047     72.88934      1.450     2.86     4.006479     20.52773     158.9472        18     1.129     0.885  76.86   0
       235    510.0380    367.3444 300.2108799 +22.6187038     520.2595     72.75972      1.339     2.51     3.733417     20.52773     68.60742         9     0.840     0.676  61.41   0
       236     17.6481    368.1294 300.0575578 +22.4712924     403.4585     72.74118      1.713     3.82     4.609078     20.52773     45.42612         6     1.272     0.329  -3.19   0
       237     37.3751    364.1341 300.0649807 +22.4760636     1120.059     72.74118      1.531     3.30      4.49473     20.52773     113.6223        17     1.118     0.961 -79.75   0
       238    870.6872    364.5518 300.3241087 +22.7259449     265.9201     72.75972      1.472     4.20     4.043417     20.52773     39.72153         6     0.923     0.707  82.11   0
       239    593.0240    365.4891 300.2373121 +22.6430388     422.8227      72.7041      1.308     2.30     3.845308     20.52773     61.99111         6     0.747     0.500   0.50   0
       240    573.7772    363.6036 300.2319326 +22.6367299     140.2262     72.72264      1.095     2.69     3.812594     20.52773     36.30235         5     0.706     0.466  16.38   0
       241    890.4961    360.7517 300.3315168 +22.7307844     455.6446     72.79678      1.272     3.08     4.038631     20.52773     59.20346        10     0.941     0.731 -88.56   0
       242    523.1031    361.6458 300.2167956 +22.6209823     255.4932     72.77825      1.362     3.90     3.736499     20.52773     42.51542         5     0.913     0.477   2.42   0
       243    413.2701    357.7750 300.1838782 +22.5869523     2599.062     72.75972      1.372     2.41     4.248382     20.52773     317.7037        24     1.140     0.980  43.38   0
       244    131.6405    355.2715 300.0971381 +22.5017938     1034.849     72.74118      1.573     3.24     4.031301     20.52773     100.2133        18     1.109     0.986  78.56   0
       245    382.6020    347.3075 300.1777363 +22.5747534     29332.26     72.66699      1.384     2.44     4.283722     20.52773     3459.014        68     1.334     1.188  58.79   0
       246    917.3682    344.8901 300.3450424 +22.7342707     1365.453      72.7041      1.397     2.43      4.04471     20.52773     182.1754        15     0.947     0.852  45.38   0
       247     78.8844    335.1043 300.0872944 +22.4801832     5006.526     72.94481      1.558     2.86     4.362755     20.52773     512.6656        37     1.287     1.238  65.17   0
       248    832.5386    333.6815 300.3222393 +22.7056459     467.5804     72.85233      1.246     3.27     4.038358     20.52773     65.43533         9     1.027     0.615  58.31   0
       249    256.6848    333.5899 300.1430352 +22.5330660     338.3479     72.72264      1.245     3.75     4.097535     20.52773     54.75188        10     0.948     0.762  23.40   0
       250    480.9595    332.4411 300.2131599 +22.5999632     476.0619     72.83381      1.269     3.59     3.856798     20.52773     71.81754         8     1.159     0.494  55.79   0
       251    793.0391    327.0769 300.3120744 +22.6919179     1824.314     72.74118      1.344     2.58     4.014997     20.52773     231.9134        21     1.111     0.939  75.66   0
       252    922.5580    324.3317 300.3533330 +22.7299135     203.9356     72.74118      1.510     3.46     4.040452     20.52773     29.50023         5     1.054     0.328  68.11   0
       253    600.7003    322.2027 300.2537513 +22.6329017      298.208     72.62988      1.362     3.03     3.802444     20.52773     58.79174         6     0.927     0.655 -18.04   0
       254   1008.2642    320.0767 300.3814388 +22.7543490     556.2164     72.83381      1.398     3.73     4.122307     20.52773     59.47304        10     0.946     0.706   6.57   0
       255      1.4520    320.2136 300.0680789 +22.4526845     383.4307     57.31318      1.191     2.66     4.985992     20.52773     51.91915         5     0.709     0.485  77.32  24
       256    454.7464    311.5050 300.2117982 +22.5860935     2084.353     72.83381      1.539     3.42      4.15743     20.52773     261.8098        28     1.387     1.032  58.95   0
       257    666.7822    310.4187 300.2781515 +22.6493125     389.2784     72.75972      1.559     4.65     3.805117     20.52773     37.42323         9     0.942     0.766 -11.37   0
       258    894.0329    304.4055 300.3509074 +22.7156432     532.9793     72.75972      1.376     3.42      4.04133     20.52773     70.77223         9     0.970     0.697  71.51   0
       259     28.0284    302.0859 300.0822140 +22.4554539     711.3774     72.75972      1.971     3.52     4.888638     20.52773     64.01395        10     1.120     0.701  10.90   2
       260    793.9501    301.8568 300.3205431 +22.6849408      336.263     72.81529      1.433     2.80     3.998068     20.52773     48.16578         5     0.872     0.611  26.54   0
       261    744.5758    301.5810 300.3052498 +22.6700743     320.0352     72.77825      1.258     3.84     3.953049     20.52773     38.19829         7     0.861     0.669  64.83   0
       262    530.7983    291.1561 300.2420674 +22.6030372     1346.832     72.74118      1.171     3.00     3.869585     20.52773      366.569        16     0.993     0.773  58.65   0
       263    338.1698    291.6195 300.1819899 +22.5454419     307.3243     72.75972      1.241     3.43      4.29825     20.52773     35.47497         5     0.763     0.445 -18.30   0
       264    270.4794    285.9203 300.1627924 +22.5235141     307.1858     72.88934      1.695     5.91     4.212796     20.52773     28.10115         8     1.694     0.580  68.25   0
       265    914.1469    284.3468 300.3636871 +22.7158976     274.4995     72.79678      1.286     2.71     4.041314     20.52773     49.12793         5     0.706     0.660 -75.81   0
       266    775.5195    282.9427 300.3209384 +22.6739840      2164.43     72.79678      1.306     2.49     4.020042     20.52773     277.9453        19     1.080     0.884  79.70   0
       267    583.1807    276.0308 300.2632803 +22.6143855      184.538     72.75972      1.345     3.78      3.82805     20.52773      34.0462         6     0.933     0.441 -54.72   0
       268      8.6594    268.2661 300.0871722 +22.4399384      72607.7     72.79678      1.702     3.09      5.06474     20.52773      7200.02       109     1.611     1.434  51.26  16
       269    484.0316    266.8799 300.2353905 +22.5820495     553.7598     72.75972      1.207     2.11     4.318281     20.52773     95.56437         9     0.749     0.690 -43.77   0
       270    158.7028    260.8424 300.1361883 +22.4828021     1388.956     72.75972      1.732     3.59     4.263868     20.52773     121.2493        21     1.260     1.028 -12.27   0
       271    189.2368    260.9207 300.1456513 +22.4919794     565.0112      72.7041      1.309     3.23     4.231375     20.52773     77.10593        11     0.985     0.791   9.67   0
       272    906.3484    258.1213 300.3697656 +22.7060213     171.2055     72.75972      1.135     3.43     4.072108     20.52773     33.41663         5     0.785     0.432  72.22   0
       273    242.8249    252.9697 300.1648865 +22.5057618     515.0953     72.75972      1.360     3.33     4.249529     20.52773     69.96695         9     0.966     0.649  81.66   0
       274     98.5914    249.9301 300.1210525 +22.4616452     384.0524     72.74118      1.551     3.40      4.84996     20.52773     40.05471         5     0.754     0.444  69.70   0
       275    918.7272    246.6270 300.3773542 +22.7064216     216.8572     72.75972      1.272     4.34     4.083503     20.52773     39.10729         7     0.931     0.577  50.74   0
       276    847.2861    244.4177 300.3558020 +22.6843977     606.2286      72.7041      1.345     3.31     4.154443     20.52773     82.20998        11     1.070     0.697  70.61   0
       277    437.5511    243.9116 300.2283805 +22.5615229      364.998     72.75972      1.237     2.13     4.419312     20.52773     66.02775         5     0.693     0.456  67.52   0
       278    938.0262    237.4917 300.3863350 +22.7095717     243.3563      72.7041      1.210     4.12     4.111957     20.52773     35.03457         5     0.773     0.628  86.24   0
       279    945.3034    233.2971 300.3899649 +22.7105437     2069.288     72.94481      1.514     2.61     4.132479     20.52773     238.4714        23     1.141     1.080  77.42   0
       280    441.7849    225.7331 300.2355949 +22.5575690     1015.838     72.74118      1.462     3.11     4.461185     20.52773     115.1895        18     1.143     0.918  -0.17   0
       281    193.2437    225.7422 300.1583088 +22.4830798     303.8683     72.75972      1.390     4.48      4.35548     20.52773     36.03614         7     0.900     0.634  38.48   0
       282    843.7437    225.0766 300.3609728 +22.6777756     599.0297     72.77825      1.503     4.07     4.222586     20.52773     70.53449        13     1.316     0.771 -18.43   0
       283    363.9037    230.5746 300.2097984 +22.5356214      2156.06     72.68555      1.464     2.63     4.429796     20.52773      258.695        26     1.271     1.034 -85.38   0
       284    488.7590    222.1900 300.2513602 +22.5706258     264.6734     72.75972      1.509     3.47     4.424961     20.52773     25.33932         5     0.992     0.350  45.15   0
       285     39.6609    219.9363 300.1124778 +22.4353638     368.6762     72.79678      1.533     4.30     5.096064     20.52773     32.43103         5     0.833     0.633   8.36   0
       286    258.5164    217.8918 300.1811436 +22.5003921     754.8391     72.92632      1.452     2.40      4.32331     20.52773     104.9781        13     0.916     0.828  12.12   0
       287    376.2956    217.4016 300.2179257 +22.5355511     232.1523     72.66699      1.300     3.55     4.449823     20.52773     45.12556         5     0.770     0.472  12.45   0
       288    861.6755    214.5529 300.3699757 +22.6801180     639.7325     72.75972      1.342     2.82      4.18374     20.52773     77.36629        12     0.993     0.740 -52.69   0
       289    796.3928    214.7203 300.3495767 +22.6606204     1565.495     72.68555      1.367     2.50     4.466781     20.52773     218.1832        18     1.005     0.943  68.22   0
       290    110.9238    214.7408 300.1362987 +22.4552407     316.3671     72.81529      1.648     4.82     4.897073     20.52773     32.85369         6     0.985     0.669  77.27   0
       291    280.0328    210.9233 300.1900931 +22.5048400     489.6513     72.75972      1.384     3.58     4.321675     20.52773     63.29147         9     1.043     0.706  40.88   0
       292    800.4035    206.5821 300.3534664 +22.6594813     756.1406     72.68555      1.398     3.18     4.477464     20.52773     77.85873        12     0.998     0.810  -1.70   0
       293    721.0124    205.6062 300.3290489 +22.6354279     1296.474     72.62988      1.380     2.47     4.333941     20.52773     171.7783        17     1.044     0.929  84.58   0
       294    569.8763    207.2359 300.2814576 +22.5906299     270.8526     72.72264      1.005     3.83     4.129745     20.52773     50.84369         6     1.042     0.432  30.74   0
       295    542.1357    201.9922 300.2745237 +22.5808129     350.0714     72.74118      1.293     3.75     4.263196     20.52773     43.91905         5     0.645     0.626  87.57   0
       296    916.5172    197.1155 300.3927276 +22.6915205     1475.209     72.88934      1.459     2.83     4.253086     20.52773     159.9067        21     1.188     0.948  44.71   0
       297    647.2405    197.3090 300.3087645 +22.6109495     1073.346     72.75972      1.436     2.66     4.023287     20.52773     122.9362        15     0.968     0.934  22.67   0
       298    928.2894    196.1437 300.3967130 +22.6947647     809.8993     72.79678      1.590     3.45     4.252576     20.52773     96.14436        11     1.031     0.836  81.51   0
       299     18.5975    185.1355 300.1172239 +22.4190578     165.4857     72.75972      2.228     3.44     5.171394     20.52773      41.5828         5     1.172     0.292  35.01   0
       300     68.6769    182.9649 300.1334814 +22.4334510     441.0486     72.72264      1.510     3.06     5.103948     20.52773     52.58797         7     0.925     0.660  47.62   0
       301    279.4702    179.2233 300.2002000 +22.4955666     676.3793     72.77825      1.329     2.93     4.328176     20.52773     95.49374        12     0.994     0.828 -24.48   0
       302    141.1684    174.1979 300.1588450 +22.4526676     2114.058     72.72264      1.528     2.87     4.619865     20.52773      207.116        26     1.222     1.099  57.41   0
       303    964.2219    171.2623 300.4159874 +22.6983627     792.7452     72.74118      1.575     3.36     4.458077     20.52773     91.65525        12     1.063     0.763  62.29   0
       304     90.7758    171.1900 300.1441647 +22.4366962     466.3756     72.75972      1.503     2.62      5.08431     20.52773     64.24115         9     0.819     0.756   4.39   0
       305    298.5253    167.5887 300.2098978 +22.4979355     5520.246     72.77825      1.446     2.45     4.340603     20.52773     693.7567        35     1.243     1.121  69.08   0
       306    280.4740    168.2397 300.2040743 +22.4927126      339.411     72.74118      1.060     4.36     4.329208     20.52773     45.20372         7     1.123     0.482 -82.53   0
       307     82.6803    161.9148 300.1446579 +22.4316060     1127.406     72.90783      1.522     3.11     5.105295     20.52773     131.8925        17     1.097     0.926  44.41   0
       308    282.1163    158.4444 300.2077616 +22.4903912     556.5967     72.72264      1.430     2.85     4.332851     20.52773     68.71957         9     0.874     0.686 -21.37   0
       309    942.6445    149.2155 300.4164098 +22.6855627     3562.794     72.77825      1.454     2.63     4.474071     20.52773     388.5635        30     1.161     1.130  55.48   0
       310    491.9015    144.3605 300.2775816 +22.5492023     572.5269     72.75972      1.374     3.39     4.499533     20.52773     72.31023        10     0.938     0.794  69.00   0
       311    245.3811    145.1989 300.2006367 +22.4755770     277.1299     72.68555      1.389     2.44     4.386299     20.52773     37.42023         5     0.701     0.461  73.12   0
       312    416.3073    136.3820 300.2566488 +22.5242629     800.8177     72.68555      1.988     3.07     4.460867     20.52773     69.32415        10     0.963     0.718  31.33   0
       313    471.8340    132.5049 300.2751817 +22.5397837     451.4486     72.74118      1.512     5.17     4.524577     20.52773     51.89295        10     1.195     0.632  65.01   0
       314    182.0064    133.2352 300.1848186 +22.4531461     578.0419     72.75972      1.349     4.96     4.414412     20.52773     73.34877        11     1.100     0.759  51.96   0
       315    543.4084    131.6403 300.2977367 +22.5609749     1725.084     72.75972      1.421     2.74     4.355616     20.52773     204.4651        17     1.065     0.894  82.54   0
       316     79.8948    132.0706 300.1534702 +22.4222019     394.1873     72.87083      1.520     5.67     5.091825     20.52773     39.46492         8     0.982     0.924  22.02   0
       317    605.4098    130.6084 300.3173723 +22.5792479     397.8255     72.64844      1.647     4.42     4.327486     20.52773     60.36622         9     1.310     0.627  52.29   0
       318    286.9154    127.0330 300.2194397 +22.4828063      427.711     72.72264      1.527     3.82     4.381338     20.52773     55.23056         7     0.921     0.608  69.37   0
       319    831.6444    121.2111 300.3908905 +22.6442835     470.4135     72.75972      1.766     2.88     4.630305     20.52773     46.95792         5     0.743     0.436 -70.74   0
       320    977.5110    115.6057 300.4381814 +22.6863281     446.8843     72.66699      1.536     3.71     4.559063     20.52773     41.44618         6     0.934     0.423 -71.36   0
       321    317.4930    111.3980 300.2340169 +22.4874775     6170.083     72.66699      1.501     2.62     4.432108     20.52773     727.6561        40     1.343     1.154  75.62   0
       322    168.6250    111.2139 300.1878005 +22.4428107     775.0546     72.75972      1.774     4.10     4.417393     20.52773     92.53244        13     1.154     0.815 -50.03   0
       323    823.9125    112.1399 300.3914224 +22.6393600     302.3778     72.85233      1.249     2.12     4.681145     20.52773     60.12011         8     0.782     0.635  44.07   0
       324     12.4563    107.5484 300.1404757 +22.3949426     657.4807     72.81529      1.633     3.92     5.233303     20.52773     66.07947        12     1.122     0.927 -62.11   0
       325    289.3250    105.4984 300.2271712 +22.4773421     384.7871     72.88934      1.510     3.73      4.42006     20.52773     45.66224         8     1.045     0.619 -38.38   0
       326    332.5211    102.3073 300.2416375 +22.4893687     295.8478     72.88934      1.368     3.24     4.450575     20.52773     48.65893         6     0.955     0.606  33.40   0
       327     79.1583    102.3142 300.1628894 +22.4134369     350.2603     72.72264      1.272     2.68     5.074385     20.52773     46.02882         6     0.725     0.615 -47.56   0
       328    563.6006     96.7706 300.3153286 +22.5569996     6239.328     72.72264      1.432     2.43     4.395691     20.52773     810.3127        39     1.231     1.136  77.45   0
       329    448.7943     96.5682 300.2796654 +22.5225543     620.8314     72.75972      1.403     3.81     4.496869     20.52773     75.64065        10     1.003     0.753  46.35   0
       330    815.8976     87.2730 300.3969876 +22.6298087     872.6891     72.88934      1.724     5.40     4.787805     20.52773     96.99925        15     1.577     0.756 -71.02   0
       331    908.5912     85.0629 300.4265959 +22.6569162     527.2169      72.7041      1.610     3.63     4.544763     20.52773     55.83764         8     0.846     0.696  44.67   0
       332    256.1561     80.9675 300.2248124 +22.4603555     383.0266     72.81529      1.374     3.19     4.606865     20.52773     50.37734         7     0.879     0.533 -41.51   0
       333    691.9373     76.9598 300.3617123 +22.5897334     6216.201     72.74118      1.417     2.39     4.400885     20.52773     825.8127        36     1.281     1.080  69.41   0
       334    614.7651     79.0588 300.3369997 +22.5672299      502.661     72.75972      1.422     2.73     4.353141     20.52773     48.96888         7     0.703     0.671  46.10   0
       335    466.8303     75.8604 300.2919909 +22.5220055     1536.807     72.79678      1.439     2.45     4.515721     20.52773     199.9184        21     1.097     1.016  76.61   0
       336    732.9853     74.1677 300.3754035 +22.6012197     906.6113     72.75972      1.396     2.65     4.601663     20.52773     105.5012        13     1.027     0.735  88.76   0
       337    803.1741     72.0416 300.3979610 +22.6216192     327.8202     72.81529      1.437     4.87     4.858666     20.52773     51.04553         9     1.188     0.785 -52.79   0
       338    749.1793     70.1933 300.3817369 +22.6049246     571.0339     72.74118      1.353     2.88     4.688556     20.52773     68.57095         8     0.852     0.715 -23.51   0
       339    215.7044     68.3599 300.2163254 +22.4446116      648.767     72.75972      1.492     3.03     4.703721     20.52773     83.14981        13     1.008     0.814 -38.89   0
       340     62.8579     69.2124 300.1685574 +22.3990451     301.4371     72.72264      1.521     3.40     4.969043     20.52773     29.42358         5     0.989     0.338  43.76   0
       341   1019.0484     67.9683 300.4665818 +22.6850500     530.9874     72.79678      1.412     2.65     4.462083     20.52773     67.70457        10     0.902     0.685  -0.94  16
       342    787.4933     65.4612 300.3952083 +22.6150328       575.27     72.85233      1.586     3.31     4.832901     20.52773     65.32156        12     1.036     0.857  46.15   0
       343    736.1331     61.7062 300.3804241 +22.5985783     2790.357     72.90783      1.450     2.50     4.695451     20.52773     380.0039        28     1.272     1.031  72.83   0
       344    377.3642     62.4328 300.2685113 +22.4913465     413.6079     72.77825      1.459     6.08     4.477211     20.52773     48.68976        11     1.145     0.946 -59.20   0
       345    751.2783     60.6647 300.3854799 +22.6028126     699.4537     72.85233      1.693     4.68     4.746094     20.52773     80.89996        12     1.416     0.607  53.59   0
       346     29.7478     55.9730 300.1625654 +22.3853178     759.3682     72.77825      1.589     2.66     5.153678     20.52773     95.65179        11     0.956     0.730   7.10   0
       347    822.6145     53.3144 300.4100904 +22.6220514     1729.841      72.7041      1.443     2.40     4.868624     20.52773     213.4708        24     1.231     1.018 -40.88   0
       348    901.3536     48.0066 300.4363533 +22.6440894     281.4718     72.77825      1.442     3.98     4.596107     20.52773     38.97746         5     1.045     0.434 -25.24   0
       349    760.5698     46.4566 300.3929806 +22.6015076     769.2342     72.77825      1.311     2.35     4.846003     20.52773      103.066        10     0.805     0.785 -69.17   0
       350    566.1708     45.9089 300.3326177 +22.5431477     1225.455     72.72264      1.535     2.74     4.393976     20.52773     146.7269        14     0.998     0.830  75.07   0
       351    138.5175     45.7439 300.1996694 +22.4149831     606.5629     72.81529      1.821     5.45     4.471157     20.52773     66.81507        12     1.133     1.041  89.18   0
       352    469.8347     43.8303 300.3033090 +22.5136992     841.3354     72.77825      1.349     2.55     4.517245     20.52773     113.2083        13     0.977     0.811  12.42   0
       353    852.0730     42.6509 300.4227282 +22.6278006     473.3573     72.77825      1.330     2.02     4.881326     20.52773     67.93371         6     0.764     0.477   1.07   0
       354    241.4565     33.9610 300.2354805 +22.4424464     3747.566     72.75972      1.530     2.66     5.138304     20.52773     413.6956        33     1.352     1.103  47.41   0
       355    809.7166     34.7907 300.4120758 +22.6128626     668.5688      72.7041      1.414     2.73     4.925408     20.52773     74.20451         8     0.831     0.663 -65.81   0
       356     33.6769     33.8808 300.1709464 +22.3801517     287.9687     72.87083      1.491     3.40     5.091718     20.52773     34.07952         5     0.787     0.425  72.89   0
       357    663.8586     31.2376 300.3677894 +22.5681791      406.055     72.77825      1.443     3.37      4.35868     20.52773      52.0157         7     0.760     0.666   9.40   0
       358    567.1703     31.4973 300.3376004 +22.5393037      264.883      72.7041      1.060     2.46     4.393119     20.52773      47.9499         5     0.721     0.451 -22.60   0
       359    802.7958     26.5467 300.4125915 +22.6084198      928.444     72.74118      1.515     3.06     4.940892     20.52773     105.7831        14     1.054     0.825  82.65   0
       360    357.3062     25.9880 300.2740863 +22.4748645     1264.749      72.7041      1.432     2.95      4.53749     20.52773     128.5408        20     1.218     0.917  46.35   0
       361    768.1622     25.3130 300.4021999 +22.5976988       418.77     72.74118      1.654     4.54     4.947022     20.52773     62.30471         7     0.934     0.626  47.57   0
       362    840.7280     21.5646 300.4260275 +22.6183392     767.0728     72.75972      1.613     3.89     4.975902     20.52773      73.9473        14     1.174     0.815  78.72   0
       363    763.8718     21.2589 300.4021773 +22.5952485     559.5431     72.79678      1.565     4.31     4.965881     20.52773     54.71163         7     0.889     0.596  33.67   0
       364    524.3432    971.2574 300.0190561 +22.7963518     1045.032     72.83381      1.802     4.06     2.352366     20.52773     73.87501        16     1.092     0.999  -0.74   0
       365    565.9395     16.2174 300.3421699 +22.5345420     518.1306      72.7041      1.439     3.37     4.393976     20.52773     65.04371         9     0.893     0.739  84.82   0
       366    803.8719   1017.4465 300.0910610 +22.8934607     693.1755     72.74118      1.874     6.73     3.425472     20.52773     50.15947        17     1.452     1.012  41.84  16
       367    703.7882   1016.8876 300.0600674 +22.8632803     8618.155      72.7041      2.033     4.54     3.433825     20.52773     467.9871        47     1.602     1.408  19.62  19
       368    709.4426   1014.6370 300.0625610 +22.8643307     9148.467     72.83381      1.919     4.25     3.423827     20.52773     532.8276        49     1.528     1.445  18.71  19
