#   1 NUMBER                 Running object number                                     
#   2 X_IMAGE                Object position along x                                    [pixel]
#   3 Y_IMAGE                Object position along y                                    [pixel]
#   4 ALPHA_J2000            Right ascension of barycenter (J2000)                      [deg]
#   5 DELTA_J2000            Declination of barycenter (J2000)                          [deg]
#   6 FLUX_APER              Flux vector within fixed circular aperture(s)              [count]
#   7 FLUXERR_APER           RMS error vector for aperture flux(es)                     [count]
#   8 FLUX_RADIUS            Fraction-of-light radii                                    [pixel]
#   9 FWHM_IMAGE             FWHM assuming a gaussian core                              [pixel]
#  10 BACKGROUND             Background at centroid position                            [count]
#  11 THRESHOLD              Detection threshold above background                       [count]
#  12 FLUX_MAX               Peak flux above background                                 [count]
#  13 ISOAREA_IMAGE          Isophotal area above Analysis threshold                    [pixel**2]
#  14 A_IMAGE                Profile RMS along major axis                               [pixel]
#  15 B_IMAGE                Profile RMS along minor axis                               [pixel]
#  16 THETA_IMAGE            Position angle (CCW/x)                                     [deg]
#  17 FLAGS                  Extraction flags                                          
         1    427.2929     17.3418 300.3033488 +22.5138388     672.9843     72.61726      1.284     2.78     5.639793      20.4719     91.59595        10     0.865     0.780 -62.17   0
         2    198.5508      7.3001 300.2354390 +22.4424640     3693.807     72.61726      1.529     2.72     6.118756      20.4719     456.4128        33     1.286     1.173  76.48  16
         3    766.5400      8.0292 300.4120375 +22.6126780     614.6247     72.58031      1.298     2.76     5.136726      20.4719     81.43704         9     0.845     0.695 -76.30   0
         4    620.9132      4.4289 300.3678237 +22.5680734     350.7296      70.4614      1.228     3.00     6.269801      20.4719     50.15546         6     0.742     0.605  49.28  16
         5    266.8398   1011.8305 299.9305757 +22.7513008     783.8208     72.56183      2.989     3.82     40.10032      20.4719     47.12893         5     1.505     0.279  -9.78   1
         6    275.3595   1018.4349 299.9310767 +22.7557511     3044.573     72.61726      8.746    42.87     33.28269      20.4719     65.80602       287    10.164     5.019  53.14  27
         7    227.2289    989.6009 299.9254897 +22.7330403     4479.679     72.52486      8.947    37.28     64.41924      20.4719     107.6163       404     8.740     4.414 -83.88  19
         8    246.4070    988.1283 299.9319319 +22.7383728     6165.555     72.52486     12.666    52.86     47.81498      20.4719     114.3401       746    11.513     6.736 -75.20  19
         9    265.9601    978.1661 299.9412527 +22.7413830     9431.341     72.59879     12.324    38.77     28.27716      20.4719     184.1735      1076    13.090     5.865  68.13  19
        10    104.8182    953.5875 299.8991522 +22.6859786     5560.073     72.52486     21.847    81.89     34.75303      20.4719     215.5685      2751    17.109    13.553 -16.87  19
        11    102.0091    922.1104 299.9085155 +22.6761110     4345.896     72.48786     18.411    57.91      10.6664      20.4719     1359.437      1100    13.807     6.740 -36.13   3
        12    574.1467    995.1261 300.0316413 +22.8386925     2389.098     72.58031      1.909     4.71     3.588052      20.4719      165.528        32     1.452     1.343  41.65   0
        13    660.5824    990.5283 300.0600585 +22.8632905     8770.688     72.56183      1.948     4.89      3.83724      20.4719     495.8441        46     1.580     1.420  14.20   3
        14    666.1856    988.2578 300.0625427 +22.8643188     9796.667     72.52486      2.006     5.05     3.867911      20.4719     570.8772        48     1.551     1.460  30.36   3
        15    760.3579    990.7399 300.0910788 +22.8932628     639.7007     72.54335      2.071     5.97     3.750075      20.4719     40.48443        11     1.131     0.888  86.90   0
        16      8.6430    977.3449 299.8615443 +22.6639205     1853.026     72.56183     10.464    16.06    -11.38287      20.4719     53.20219        63     3.730     1.922  46.51  25
        17    194.4055    981.2614 299.9179973 +22.7207992     1843.721     72.54335      3.735    14.09     64.41857      20.4719     55.92413        48     2.430     2.272  -2.92   2
        18    524.8616    980.2141 300.0211462 +22.8196337     344.9021     72.52486      1.979     5.12     3.641273      20.4719      58.3653         6     1.458     0.508 -39.83   0
        19    953.4119    974.3433 300.1566054 +22.9464115     794.4297     72.56183      1.903     5.76     3.987541      20.4719     48.93118        19     1.306     1.145 -31.99   0
        20    513.9458   1003.7432 300.0100938 +22.8231112     318.6235     72.61726      1.742     3.95     3.626906      20.4719     37.94397         5     0.887     0.505  47.12   0
        21    191.2264    974.2084 299.9193030 +22.7178228     927.4732     72.56183      3.173     7.39     59.10033      20.4719     38.67409        14     1.824     0.839 -86.90   3
        22    381.9466   1001.6155 299.9697038 +22.7829069     268.8382     72.54335      1.634     5.27      4.71893      20.4719     38.70219         5     1.013     0.776 -82.74   0
        23    171.8634    960.1144 299.9178677 +22.7079710     1418.391     72.65418      3.866    12.04     50.99134      20.4719     43.02521        26     2.402     1.681  20.80   2
        24    157.7536    960.7119 299.9132874 +22.7039079     1500.747     72.54335      6.176    13.45     53.27585      20.4719     46.58528        36     3.046     1.651  18.23   3
        25    678.8300    957.4728 300.0764958 +22.8592732     6909.666     72.56183      1.883     4.30     3.972559      20.4719     404.0667        47     1.500     1.421  19.93   0
        26    558.1443    952.0254 300.0406780 +22.8215255      575.573     72.56183      2.197     6.23     3.715424      20.4719     40.57489        10     1.487     0.733 -26.15   0
        27     21.1486    996.4677 299.8592092 +22.6731555     1214.308     72.56183      7.389     7.97     -5.10053      20.4719     57.97755        19     1.641     1.391  66.45   3
        28    830.6620    951.5291 300.1257481 +22.9030767     347.8263     72.59879      1.617     5.45        3.892      20.4719     32.99588         8     1.278     0.656 -15.81   0
        29    116.3460   1012.9930 299.8834124 +22.7064688      3040.98     72.56183     13.550    77.04     90.09604      20.4719     135.9036      1380    18.744     8.785  43.90  27
        30    587.3433    948.3332 300.0509716 +22.8292211     1623.526     72.59879      1.873     4.45     3.841272      20.4719     125.7044        27     1.404     1.232 -23.85   0
        31    481.0699    944.5941 300.0190993 +22.7962800     997.0529     72.52486      1.848     5.31     3.702916      20.4719     79.50835        20     1.413     1.059  13.27   0
        32    411.8599    942.6372 299.9981953 +22.7749612     6607.391     72.58031      1.825     4.10     4.069808      20.4719     509.3543        43     1.433     1.387  13.89   0
        33      3.8390    984.1461 299.8578400 +22.6644275     1543.441     68.51207     13.203    15.95    -17.70941      20.4719      39.3746        49     3.026     2.339  43.73  27
        34      1.3860    943.1229 299.8704198 +22.6519330     367.0177     56.80426      2.110     3.45     -3.19664      20.4719     30.50834         5     0.807     0.427  69.97  24
        35    199.3948    994.3160 299.9153021 +22.7260396     1187.012     72.48786      3.696     8.11     74.41097      20.4719     51.21503        19     1.550     1.187 -34.69   3
        36     51.5933    931.5380 299.8897843 +22.6636826     1138.828     72.52486      0.796     0.78     7.389086      20.4719     572.9434         5     0.644     0.375  52.72   0
        37    444.5555    929.6339 300.0125994 +22.7810367     572.6361     72.61726      1.811     4.90     3.813898      20.4719      49.8224         9     1.176     0.833  23.16   0
        38    147.5216    922.4153 299.9225613 +22.6898566     683.0389     72.58031      2.450     2.67     21.81353      20.4719     47.22097         5     0.731     0.440 -66.66   3
        39    141.9988    921.0394 299.9212921 +22.6878048     1390.005     72.58031     10.139    10.78     20.12799      20.4719     39.80957        26     2.432     1.332  33.34   3
        40    958.1708    921.5299 300.1752684 +22.9326678     2103.398     72.56183      1.982     5.04     4.405813      20.4719     107.4604        29     1.463     1.268  25.28   0
        41    608.2559    918.7657 300.0671008 +22.8270048      241.965     72.58031      1.343     2.74     4.102185      20.4719     38.49709         5     0.812     0.633 -33.95   0
        42    133.1400    918.5181 299.9193585 +22.6844234     828.5182     72.67264      5.014     5.11     17.58041      20.4719     32.33961         5     1.046     0.705 -83.60   1
        43    456.4704    917.6871 300.0201929 +22.7811822     185.1208     72.69109      1.368     4.04     3.874141      20.4719     31.74924         6     1.007     0.464   0.26   0
        44    746.8828    910.2516 300.1130589 +22.8661155       846.43     72.58031      2.080     6.22     4.048564      20.4719     45.53732        17     1.421     1.107  79.00   0
        45      6.8747   1009.6633 299.8504830 +22.6726522     2854.649     72.59879     13.005    46.15    -23.82822      20.4719     69.35918       570    10.112     5.845  85.94  27
        46    781.7831    904.6231 300.1257666 +22.8749591     1144.031     72.56183      1.945     4.83     4.074781      20.4719     79.36691        19     1.237     1.119 -16.12   0
        47    559.2478    905.4897 300.0561558 +22.8085009      324.884     72.52486      1.450     4.76      3.96594      20.4719       35.714         6     0.947     0.679  78.19   0
        48    203.5805    994.4175 299.9165704 +22.7273248     993.1133     72.54335      4.510     7.51     73.45044      20.4719     40.38585        12     1.562     1.012  61.73   3
        49    199.8263   1001.7039 299.9130330 +22.7282873     2975.792     72.52486      4.995    21.88     80.96168      20.4719     80.06122       137     5.093     2.610  39.07  18
        50    804.0900    898.2523 300.1347916 +22.8798147     11469.59     72.58031      1.796     3.96     4.097605      20.4719     778.9541        53     1.461     1.412 -11.13   0
        51    849.6904    898.2667 300.1490031 +22.8934834     366.0963     72.67264      1.664     5.81     4.229332      20.4719     42.18436        11     1.125     0.843 -26.05   0
        52    995.0942    897.7487 300.1945210 +22.9368975      532.537     72.63573      2.108     5.54     4.438108      20.4719     37.91118         8     1.050     0.825  -7.94   0
        53    115.6222    889.6962 299.9232857 +22.6709022     997.5936     72.46936      4.925     5.35      9.62232      20.4719     71.65247        18     1.358     1.213  42.42   0
        54    856.1105    885.8090 300.1550559 +22.8918292     497.9931     72.48786      1.857     5.42     4.275483      20.4719      45.7072        10     1.260     0.657  64.15   0
        55    508.9521    886.3235 300.0467283 +22.7879197     512.3049     72.56183      2.141     5.93     4.049176      20.4719     35.14066         8     1.068     0.925 -36.70   0
        56    812.5006    880.2679 300.1432616 +22.8771704     1419.014     72.65418      1.801     4.07     4.132859      20.4719     101.9261        22     1.234     1.148   9.49   0
        57    996.0380    879.5236 300.2007421 +22.9319443     451.3824     72.54334      1.819     5.09     4.431632      20.4719     43.59074        12     1.268     0.930  21.81   0
        58    664.2267    877.1677 300.0980623 +22.8318423     536.7585     72.56183      1.811     6.05     4.092227      20.4719      42.1562        10     1.298     0.792  43.60   0
        59    850.7629    873.4424 300.1574098 +22.8866751     872.6018     72.63573      2.443     7.15     4.287062      20.4719     47.54354        16     1.725     0.830  64.84   0
        60    960.0790    870.4648 300.1924698 +22.9185702     319.1035     72.67264      1.787     4.71     4.424148      20.4719     32.23289         5     1.075     0.586  74.81   0
        61    898.8951    865.2051 300.1750970 +22.8987301     596.5933     72.46936      1.928     5.46     4.397239      20.4719     50.57809         9     1.143     0.735  71.94   0
        62    750.5255    864.0172 300.1292283 +22.8539315     632.7414     72.56183      1.543     3.79     4.049559      20.4719     63.46345        11     1.024     0.898   4.45   0
        63    761.8287    861.1691 300.1336771 +22.8565010     577.6549     72.56183      1.711     4.56     4.057351      20.4719     53.15271        10     1.024     0.890  -2.90   0
        64    462.9844    860.2250 300.0409046 +22.7666463      4172.24     72.58031      1.638     3.60     4.308004      20.4719     378.4201        32     1.292     1.213  23.99   0
        65    123.3155    849.9117 299.9386109 +22.6618022     296.8618     72.69109      1.700     4.61     6.047162      20.4719     33.69139         5     1.191     0.507 -19.76   0
        66    506.4348    848.5314 300.0582320 +22.7763185     323.1915     72.56183      1.749     4.13     4.275338      20.4719      29.2196         5     0.980     0.496  -3.69   0
        67    188.1204    845.8702 299.9600687 +22.6800866     894.5721     72.67264      2.044     4.02     6.759729      20.4719     80.69549        18     1.271     1.034  23.89   0
        68     97.1165    844.3550 299.9322752 +22.6523475     481.1087     72.52486      1.949     3.75      5.23901      20.4719     37.87276         7     1.031     0.668  68.03   0
        69    165.4458    843.0233 299.9539454 +22.6724673     1528.301     72.58031      1.834     4.35     6.780712      20.4719     128.3847        27     1.401     1.245   6.76   0
        70     41.3472    832.6167 299.9187621 +22.6322465     335.6772     72.54335      1.295     5.04     4.985774      20.4719     34.32963         8     1.126     0.638  76.97   0
        71    991.5401    830.8013 300.2151805 +22.9165984     2252.246     72.52486      1.871     4.38     4.427501      20.4719      139.817        33     1.429     1.303  34.27   0
        72    697.1100    830.2520 300.1235607 +22.8282277     550.5168     72.58031      2.393     5.34     4.008333      20.4719     40.36601         8     1.160     0.719 -27.31   0
        73    775.2960    824.3793 300.1498355 +22.8499712     601.2438     72.46936      1.714     6.18     4.111735      20.4719     54.23566        13     1.260     0.942  53.19   0
        74    197.7280    824.3989 299.9700352 +22.6768104      454.888     72.45085      1.611     3.62     5.890206      20.4719     46.57314         8     0.967     0.755  67.84   0
        75    643.0883    818.5198 300.1105444 +22.8086682     4875.185     72.69109      1.617     3.33     4.231303      20.4719     442.4471        38     1.288     1.257 -41.04   0
        76    133.3286    818.9417 299.9517902 +22.6559247     510.2445     72.59879      1.723     4.21     5.355946      20.4719     41.26626         7     0.854     0.616  66.57   0
        77    445.4282    815.5330 300.0499691 +22.7485560     746.9122     72.54335      1.882     3.80      4.48677      20.4719     56.85981        13     1.126     0.778  49.25   0
        78    193.2538    812.0770 299.9726494 +22.6719338     1298.391     72.59879      1.649     4.01     5.430052      20.4719     124.7361        22     1.313     1.071  10.65   0
        79    663.6644    810.8770 300.1194388 +22.8126406     641.5525     72.65418      1.483     5.36     4.119261      20.4719     55.12356        12     1.141     0.799  29.04   0
        80    212.9915    809.5275 299.9796146 +22.6771234      385.729     72.54335      1.306     3.35     5.468559      20.4719     61.14904         9     0.977     0.724 -11.74   0
        81    727.8076    809.6343 300.1398286 +22.8315065     1041.231     72.56183      0.704     1.28     3.866698      20.4719     438.1167         6     0.546     0.450 -33.70   0
        82    579.8049    801.5660 300.0963448 +22.7848323     240.1802     72.54335      1.432     5.32     4.456137      20.4719      37.7318         8     1.046     0.763 -36.78   0
        83    819.1487    798.3284 300.1719737 +22.8556282     4335.868     72.56183      1.662     3.51     4.437364      20.4719     362.9959        36     1.320     1.281   8.11   0
        84    227.4804    792.4910 299.9896569 +22.6765823     482.9524     72.69109      1.642     3.94     5.178012      20.4719     50.52804        11     1.145     0.841  25.08   0
        85    535.9533    790.4201 300.0863125 +22.7684876     703.7421     72.61726      1.677     5.09     4.463782      20.4719     70.72542         9     0.925     0.791  87.64   0
        86    182.4119    788.4583 299.9769553 +22.6619064     1077.396     72.52486      1.811     4.96     4.834151      20.4719     101.5106        18     1.354     1.064  56.70   0
        87    597.9956    784.0254 300.1077113 +22.7852488     544.9599     72.52486      1.463     3.72     4.458273      20.4719     62.49221         9     0.899     0.756   8.10   0
        88    332.1344    780.7211 300.0260312 +22.7045933     53637.55     72.67264      1.652     3.27     4.817051      20.4719     5895.799        88     1.459     1.367  30.53   0
        89    590.0399    779.7935 300.1066090 +22.7816492     1547.107     72.59879      1.492     3.08     4.459503      20.4719     173.1404        20     1.152     0.980  19.40   0
        90   1002.8130    779.2291 300.2354625 +22.9051554     996.2099     72.56183      1.884     5.61     4.344526      20.4719     74.48496        18     1.387     1.017 -29.41   0
        91    260.7737    779.0333 300.0043838 +22.6827075     518.7453     72.58031      1.727     5.65     4.914455      20.4719     45.50653         8     0.970     0.927  -0.58   0
        92    618.8287    775.7767 300.1168811 +22.7891245     959.8364     72.56183      1.622     3.79     4.412619      20.4719     85.81247        17     1.191     0.938  56.40   0
        93     18.5480    775.5449 299.9302281 +22.6090398     879.5497     72.59879      2.049     4.10     4.876153      20.4719     73.20482        16     1.398     0.999   1.18   0
        94    629.9816    774.2126 300.1208634 +22.7920179     504.8103     72.52486      1.318     3.88     4.365182      20.4719     56.66061        10     0.982     0.757   1.26   0
        95    949.7050    771.3771 300.2214467 +22.8869937     417.8108     72.46936      1.946     4.41     4.553557      20.4719     43.24377         8     1.016     0.879  48.60   0
        96    735.3772    770.6217 300.1548682 +22.8225705     489.5412     72.56183      1.407     3.76     4.055318      20.4719     53.27334        10     0.992     0.792 -57.53   0
        97    381.8862    757.9943 300.0488959 +22.7129900     31580.52     72.48786      1.555     3.21      4.72175      20.4719     2987.847        74     1.408     1.317  19.55   0
        98    396.1549    758.4304 300.0531941 +22.7173935     2124.915     72.59879      1.606     3.27     4.674954      20.4719     212.5095        25     1.239     1.101  36.12   2
        99    393.4678    751.9545 300.0544625 +22.7147292     582.5187     72.54334      1.794     4.01     4.689792      20.4719      62.0132        12     1.123     0.967  71.81   2
       100    905.1135    754.0240 300.2131786 +22.8686519      2845.28     72.52486      1.718     3.65     4.649008      20.4719     199.8345        30     1.310     1.207 -14.57   0
       101    662.8051    749.9871 300.1389617 +22.7948981     1156.012     72.43234      1.656     3.45     4.298633      20.4719     102.5284        17     1.113     0.939  34.69   0
       102    499.6649    749.7582 300.0882295 +22.7459365      531.093     72.54335      1.896     3.97     4.463782      20.4719     46.44191         6     0.886     0.510 -48.01   0
       103    264.4300    749.6331 300.0150752 +22.6753686     917.2754     72.58031      1.733     3.91     4.767782      20.4719     94.63087        15     1.140     1.054   5.51   0
       104    557.7849    748.2025 300.1068312 +22.7629112     316.6192     72.41382      1.814     3.47     4.463466      20.4719     25.09385         5     0.997     0.349  45.62   0
       105     69.3137    745.5250 299.9557558 +22.6156625     524.0738     72.67264      1.745     6.06     4.796824      20.4719      64.2721        10     1.354     0.877 -52.21   0
       106    510.0265    744.7013 300.0930987 +22.7475908     876.3617     72.50636      1.477     3.14     4.463782      20.4719     99.21145        14     0.981     0.898  59.50   0
       107    910.7587    741.9657 300.2188580 +22.8668779     479.8866     72.61726      1.410     5.19     4.652075      20.4719     48.53555        10     1.015     0.751  37.11   0
       108    411.9723    741.1679 300.0637260 +22.7171813     335.2839     72.56183      1.301     3.24     4.640034      20.4719     45.61974         8     0.801     0.693  30.08   0
       109    456.1657    739.5647 300.0780012 +22.7299703     439.4442     72.63572      1.622     3.69     4.527065      20.4719     43.25758         8     0.882     0.669  48.76   0
       110    772.9058    760.9960 300.1696929 +22.8310502     674.8235     72.46936      1.447     3.14     4.330604      20.4719     74.51071        11     0.913     0.821 -45.72   0
       111     97.8037    739.3417 299.9666182 +22.6224363     567.1475     72.52486      1.659     4.90     4.726048      20.4719     47.45252        12     1.193     0.858 -50.76   0
       112    664.2486    738.7898 300.1430502 +22.7921150     358.6618     72.58031      1.605     3.65     4.333001      20.4719     31.80213         5     1.167     0.329  12.38   0
       113    888.6537    736.8414 300.2136296 +22.8587848     371.1815     72.56183      1.221     2.98     4.667137      20.4719     56.92928         9     0.903     0.782 -30.76   0
       114    262.3579    734.0726 300.0194871 +22.6702823     563.0817     72.54335      1.543     3.91     4.702597      20.4719     59.86369        11     1.032     0.803  28.03   0
       115    585.6611    724.6288 300.1231727 +22.7644974     488.5552     72.56183      1.524     3.15     4.509704      20.4719     55.20519         8     0.906     0.726  67.89   0
       116    555.0167    722.9175 300.1141856 +22.7548217     654.5417     72.52486      1.369     3.13     4.476849      20.4719     76.81215        10     0.877     0.768  88.26   0
       117    464.1396    722.2217 300.0861187 +22.7273821     353.0883     72.52486      1.307     4.16     4.468628      20.4719     48.78778         6     0.955     0.517 -25.97   0
       118    971.4196    719.4086 300.2451098 +22.8785628     4596.368     72.52486      1.693     3.70     4.453589      20.4719     394.3464        35     1.302     1.249   6.69   0
       119    576.8760    720.2985 300.1218439 +22.7606211     1278.232     72.70954      1.435     3.11     4.514557      20.4719      138.178        19     1.150     0.917  29.92   0
       120    659.1240    715.0551 300.1491663 +22.7837629     416.3584     72.59879      1.684     3.86     4.430627      20.4719     38.78559         7     0.982     0.646 -30.60   0
       121    959.9719    710.7983 300.2443366 +22.8726602      1760.71     72.50636      1.695     3.77     4.547594      20.4719     129.9227        23     1.304     1.074   7.69   0
       122    322.9371    704.5360 300.0479264 +22.6799723     884.3643     72.59879      1.543     3.63     4.773744      20.4719     74.21383        17     1.160     0.936 -19.99   0
       123    786.2661    702.0477 300.1930134 +22.8181190     2562.186     72.58031      1.573     3.24     4.567968      20.4719     215.5984        28     1.327     1.101  12.06   0
       124    990.9968    701.0233 300.2571917 +22.8791411     1755.864     72.52486      1.717     3.50     4.323124      20.4719     132.4937        22     1.217     1.072  41.17   0
       125      8.9240    692.1274 299.9543421 +22.5822296      681.621     72.63572      1.762     4.07     4.916533      20.4719     74.34043        10     1.118     0.812  13.41   0
       126    171.6031    688.2772 300.0061473 +22.6299242     638.5953     72.46936      1.676     5.00     4.578573      20.4719     65.95454        14     1.214     1.026 -72.81   0
       127    868.7340    688.0912 300.2232589 +22.8388108     502.6692     72.69109      1.537     3.39     4.694481      20.4719     74.57459        10     1.192     0.610  46.52   0
       128    451.2138    687.6074 300.0933419 +22.7135704     252.5659     72.45085      1.282     3.46     4.385257      20.4719     25.83603         5     1.260     0.275  54.79   0
       129    904.7076    678.9612 300.2374436 +22.8469609     149543.2     72.56183      1.589     3.22     4.839432      20.4719     12959.94       148     1.466     1.435  17.88   0
       130    667.3295    682.7365 300.1622234 +22.7769393     367.5821     72.59879      1.296     2.70     4.507942      20.4719     57.65014         6     0.706     0.646  44.12   0
       131    757.0833    679.4239 300.1912679 +22.8028774     782.0412     72.52486      1.429     3.16     4.564915      20.4719     85.39229        14     1.061     0.856  -6.63   0
       132    937.7287    671.9882 300.2500083 +22.8548455       384.88     72.58031      1.363     4.63     4.872131      20.4719     45.41208         9     1.033     0.670   1.34   0
       133    591.0036    667.6573 300.1433468 +22.7497381     1580.384     72.52486      1.409     2.88     4.777705      20.4719     179.9267        21     1.100     1.020  13.07   0
       134    772.1753    665.0372 300.2006458 +22.8032651     9496.866     72.58031      1.443     2.98     4.621765      20.4719     976.1583        40     1.227     1.153  40.74   0
       135    273.6764    660.0049 300.0470707 +22.6524215     4861.055     72.46936      1.509     3.29     4.915721      20.4719     561.1898        31     1.274     1.095  28.47   0
       136    355.5970    658.1757 300.0731480 +22.6764579     1242.565     72.50636      1.596     3.44     4.528213      20.4719     122.6598        20     1.184     1.041  65.37   0
       137    231.3351    656.0007 300.0352038 +22.6385761     494.8324     72.58031      1.640     3.12      4.64474      20.4719     86.58678         9     1.074     0.759  62.04   0
       138    563.9067    653.6063 300.1394726 +22.7375829     699.4379     72.45085      1.383     2.92     4.773886      20.4719     90.46619        13     0.950     0.867  85.39   0
       139    555.6146    645.7951 300.1394278 +22.7328548     3336.143     72.43234      1.460     2.61      4.82904      20.4719     448.0579        28     1.137     1.109  53.77   0
       140    545.9003    639.6669 300.1383935 +22.7281839     1271.696     72.65418      1.356     2.65     4.866672      20.4719     164.0849        19     1.047     0.972  13.16   0
       141    939.4926    637.7006 300.2616974 +22.8455189     548.2916     72.74642      1.780     3.34     4.876903      20.4719     48.58471         7     0.860     0.613 -14.23   0
       142    456.7092    636.7969 300.1115581 +22.7006296     224.3314     72.46936      1.150     3.07     4.405336      20.4719     38.87177         6     0.727     0.622 -21.10   0
       143    209.3693    635.7114 300.0349639 +22.6261669     661.7714     72.54335      1.473     3.79     4.743224      20.4719     73.72258        13     1.091     0.975  44.61   0
       144    223.5143    634.1719 300.0398622 +22.6299666     632.9221     72.56183      1.505     3.42     4.736157      20.4719     71.35687         9     0.910     0.676 -19.03   0
       145    992.7341    630.6157 300.2806081 +22.8594234      513.832     72.54335      1.954     6.04      4.68932      20.4719     41.68819         9     1.057     0.971  65.64   0
       146    280.1109    631.0108 300.0584897 +22.6460294     357.6519     72.50636      1.492     4.59     4.943149      20.4719     44.46371         7     0.931     0.718  -8.80   0
       147    249.3861    631.2267 300.0488640 +22.6368790     387.1635     72.56183      1.355     4.17     4.835639      20.4719     59.74152         6     0.945     0.525 -43.09   0
       148    569.9519    630.2303 300.1489484 +22.7326810     349.3051     72.58031      1.264     3.07     5.033991      20.4719     56.73672         8     0.810     0.742 -12.71   0
       149    470.7215    629.2575 300.1183686 +22.7026645       1862.5     72.59879      1.453     2.92     4.448073      20.4719     193.4058        19     1.158     0.922  41.05   0
       150    124.5982    624.0740 300.0123908 +22.5974057     19846.31     72.46936      1.685     3.40     4.872583      20.4719     1934.997        61     1.440     1.340  35.63   0
       151     45.6129    625.7672 299.9872954 +22.5742011     748.0417     72.54335      1.744     4.80     4.901975      20.4719     56.72896        16     1.249     1.010 -54.91   0
       152    555.5315    624.7364 300.1462422 +22.7267821     1023.357     72.61726      1.403     2.42     5.062022      20.4719     147.2029        14     0.937     0.840  -2.98   0
       153    590.8734    624.0093 300.1574847 +22.7371632     318.6892     72.56183      1.277     2.20     5.122119      20.4719     46.60145         5     0.636     0.533   0.56   0
       154    308.7615    615.9454 300.0722943 +22.6502949     250.5394     72.56183      1.424     5.80     4.899872      20.4719     37.89867         8     1.186     0.800 -88.17   0
       155    973.5742    610.9885 300.2810058 +22.8480450     1024.159     72.56183      1.575     3.50     4.877488      20.4719     92.59648        17     1.146     0.946  35.25   0
       156     70.4858    608.2394 300.0007164 +22.5766331     1661.683     72.54335      2.060     5.52      4.92724      20.4719     114.5633        29     1.722     1.193 -86.18   0
       157    840.4481    608.7162 300.2402244 +22.8075300     500.8895     72.54335      1.649     4.42     4.681511      20.4719     47.80018        11     1.221     0.742 -54.98   0
       158    137.0566    608.8421 300.0212099 +22.5967714     480.2805     72.52486      1.812     4.41     4.935761      20.4719     47.61852        10     1.199     0.852 -19.56   0
       159    518.9483    605.3954 300.1411328 +22.7102651     445.9564     72.56183      1.412     3.38     4.955606      20.4719     56.70461         8     0.876     0.652  -3.17   0
       160    913.6972    603.8041 300.2646619 +22.8280524     894.1519     72.46936      2.065     3.35     4.839644      20.4719     80.58868        11     1.039     0.723  43.46   2
       161    658.4466    602.1132 300.1856452 +22.7511189     329.2606     72.52486      1.401     4.65     5.209176      20.4719     34.11236         8     0.898     0.684  30.20   0
       162    475.6407    597.4303 300.1302369 +22.6949996     694.2522     72.56183      1.405     2.89     4.532503      20.4719     95.30161        13     0.970     0.854  37.16   0
       163    623.6633    596.0762 300.1767702 +22.7389641     533.3453     72.61726      1.479     3.24     5.246708      20.4719      72.8064        11     1.036     0.843 -48.75   0
       164    671.2114    594.3957 300.1921286 +22.7527258     505.1334     72.41382      1.372     3.30     5.204368      20.4719     75.98654        11     0.952     0.896 -79.80   0
       165    641.4260    594.1234 300.1829377 +22.7437247     607.4799     72.58031      1.399     3.37     5.233213      20.4719       75.837        11     0.936     0.827   3.76   0
       166    520.1056    593.3668 300.1453996 +22.7071575     1000.812     72.54334      1.486     2.78     4.987148      20.4719      106.581        14     1.062     0.782  41.05   0
       167    953.8147    589.0378 300.2819711 +22.8358191     3453.562     72.56183      1.544     3.23     4.877709      20.4719     306.3192        28     1.266     1.111   3.44   0
       168    485.5299    588.7500 300.1361345 +22.6954705     1739.083     72.56183      1.418     2.34     4.615595      20.4719      267.863        18     1.057     0.948 -43.30   0
       169    850.3964    586.1763 300.2506469 +22.8040313     255.0496     72.52486      1.214     4.11     4.749714      20.4719     38.16422         6     0.729     0.661 -12.28   0
       170     47.3518    582.2375 300.0019717 +22.5622345     5130.514     72.58031      1.766     3.32     4.974256      20.4719     491.1512        43     1.424     1.358  12.95   0
       171    992.9929    579.5542 300.2972736 +22.8448216      278.146     72.58031      1.362     3.97     4.889597      20.4719     30.15924         5     0.908     0.496  -2.44   0
       172    514.5509    579.7173 300.1481028 +22.7015729     370.1953     72.56183      1.150     2.55     4.953699      20.4719     66.05038         6     0.856     0.450   1.55   0
       173    348.8499    575.5035 300.0978992 +22.6507025     9213.317     72.63572      1.461     2.75     4.833407      20.4719     1052.067        40     1.233     1.158  39.48   0
       174    471.3343    572.5115 300.1369887 +22.6865532     8905.203     72.67264      1.392     2.56     4.566452      20.4719     1153.009        39     1.230     1.079  53.06   0
       175    236.8219    570.0048 300.0648388 +22.6155404     346.7923     72.52486      1.563     3.59     4.942099      20.4719     45.07394         6     0.894     0.652 -19.63   0
       176    717.6917    569.0422 300.2148451 +22.7593644     205.2276     72.56183      1.167     3.77     5.109113      20.4719     39.40234         6     0.843     0.636  50.43   0
       177    115.4172    568.8870 300.0274586 +22.5788170     193.3497     72.50636      1.316     3.46     4.962442      20.4719     43.32893         5     0.762     0.454 -71.73   0
       178    883.0942    566.6959 300.2671693 +22.8082230     2021.981     72.74642      1.526     2.77     4.794237      20.4719     215.7074        23     1.132     1.063 -69.51   0
       179    967.6750    564.0727 300.2944026 +22.8327916     12605.56     72.61726      1.522     3.04     4.872452      20.4719     1162.437        47     1.276     1.259  12.04   0
       180    531.8781    562.2021 300.1591855 +22.7017343     11552.46     72.46936      1.359     2.68     5.172428      20.4719     1388.971        41     1.175     1.108  36.90   0
       181    701.5624    557.8599 300.2134503 +22.7513203     519.6937     72.58031      1.392     2.82     5.180448      20.4719     85.90811        10     0.854     0.800  19.57   0
       182    259.3384    557.6259 300.0758606 +22.6187377     1294.456     72.56183      1.482     2.96      4.95082      20.4719     170.2925        18     1.077     0.931  10.12   0
       183    417.7247    556.9736 300.1253479 +22.6660253     343.9824     72.56183      1.501     3.85     4.492391      20.4719     30.49157         7     0.729     0.689 -72.89   0
       184    506.4931    555.3026 300.1535221 +22.6921464     434.5624     72.74642      1.577     2.83     4.897153      20.4719     49.67251         7     0.822     0.612  14.55   0
       185    463.5697    550.3427 300.1417702 +22.6778599      4404.26     72.58031      1.331     2.54      4.59831      20.4719     554.0119        26     1.136     0.978  35.60   0
       186    806.5645    550.4321 300.2485888 +22.7806327      617.473     72.59879      1.331     2.63     4.989772      20.4719     88.71292        13     0.924     0.831 -34.71   0
       187    441.7445    548.6351 300.1355312 +22.6708292     1467.281     72.58031      1.523     2.93     4.559351      20.4719     174.2352        18     1.165     0.925  57.43   0
       188    196.3036    548.1176 300.0593466 +22.5971103     740.0721     72.72798      1.454     3.15      4.97827      20.4719     94.62071        14     0.974     0.953 -78.87   0
       189    883.3828    545.8640 300.2740240 +22.8023214     1502.025     72.54334      1.531     3.60     4.821338      20.4719     144.4701        22     1.270     0.995 -11.56   0
       190    984.1970    543.8452 300.3061255 +22.8319220     319.3974     72.56183      1.778     6.09     4.880818      20.4719     33.33177         6     1.530     0.682 -52.80   0
       191    580.2253    537.9034 300.1821310 +22.7092398     204225.2     72.48786      1.378     2.58     5.343849      20.4719      24849.9       195     1.427     1.376   8.10   0
       192    403.9338    544.1326 300.1252255 +22.6582050      385.444     72.61726      1.293     2.15     4.590343      20.4719     60.00851         6     0.737     0.512 -30.71   0
       193    763.9453    542.9160 300.2377442 +22.7657097     824.1599     72.63572      1.342     3.31     5.123207      20.4719     96.49097        13     0.969     0.919  18.68   0
       194    968.7844    540.5250 300.3023953 +22.8263538     292.6534     72.56183      1.668     4.72     4.866188      20.4719     40.82133         6     1.362     0.464  25.10   0
       195    266.2852    537.7847 300.0844632 +22.6151245     3627.389     72.52486      1.514     2.73     4.956077      20.4719     468.3758        32     1.233     1.193  -4.51   0
       196    832.3522    534.0846 300.2619366 +22.7836562     465.8546     72.54335      1.306     2.54     4.914588      20.4719     63.68346         8     0.800     0.673   3.18   0
       197    445.8620    534.3751 300.1414428 +22.6679679     331.4183     72.56183      1.215     4.12     4.648386      20.4719     29.25893         6     0.758     0.640  54.05   0
       198    470.8375    518.4166 300.1543982 +22.6708686     2857.341     72.56183      1.487     2.61     4.811547      20.4719     338.9346        30     1.518     0.978 -84.21   0
       199    314.9551    520.6887 300.1051522 +22.6248053     550.7179     72.58031      1.394     3.84     4.907245      20.4719     58.95891         9     0.944     0.739 -41.37   0
       200    235.9441    519.5134 300.0809592 +22.6007839     2283.374     72.63572      0.675     0.18     4.974836      20.4719     1089.406         7     0.521     0.366  86.87   0
       201    882.1083    514.8101 300.2837096 +22.7930130     515.2224     72.50636      1.628     2.98      4.82253      20.4719     59.51892         8     0.905     0.704  60.39   0
       202    627.2852    515.4337 300.2040842 +22.7168819     291.2915     72.52486      1.162     3.38     5.327026      20.4719     33.96996         5     0.738     0.447  21.38   0
       203    701.4932    513.7921 300.2277371 +22.7386369     288.2563     72.46936      1.316     4.21     5.245121      20.4719     38.01289         6     1.024     0.493  84.86   0
       204    787.9618    507.0500 300.2568753 +22.7625939     412.0564     72.56183      1.393     2.50     4.976057      20.4719     56.93219         8     0.786     0.656  32.62   0
       205    867.8087    504.4622 300.2826100 +22.7857572     1700.979     72.50636      1.412     2.49     4.821147      20.4719     213.6566        18     1.029     0.941  23.94   0
       206    739.1182    502.1074 300.2432558 +22.7465470     2494.928     72.70954      1.294     2.53     5.184969      20.4719     326.9793        21     1.010     0.959  69.17   0
       207     99.0254    502.5081 300.0439144 +22.5548529      266.506     72.50636      1.128     3.06     4.995647      20.4719     48.47475         7     0.870     0.651 -66.84   0
       208    948.5370    498.8615 300.3096064 +22.8083140     299.5867     72.59879      1.197     2.71      4.84668      20.4719     49.24202         5     0.735     0.476  74.72   0
       209    643.5654    498.7646 300.2145674 +22.7169690      388.676     72.63573      1.164     3.36     5.324118      20.4719      69.1116         8     0.931     0.649  50.01   0
       210    526.3029    497.9612 300.1783070 +22.6816114     656.4899     72.54335      1.288     2.57      5.23572      20.4719     91.00303        11     0.847     0.811  16.35   0
       211    996.3659    496.2971 300.3253604 +22.8218927     1088.202     72.56183      1.320     3.03     4.892523      20.4719     126.9549        17     1.049     0.963 -73.28   0
       212    982.0021    495.4613 300.3211502 +22.8173532     1060.983     72.54335      2.459     3.56     4.878868      20.4719     84.62903        17     1.156     0.992  32.54   0
       213    868.1637    494.6342 300.2859113 +22.7830382     2241.782     72.63572      1.626     3.28     4.821147      20.4719     233.3303        30     1.458     1.099  74.74   0
       214    621.4919    492.7227 300.2096526 +22.7086214     631.1035     72.70954      1.569     2.61     5.338753      20.4719     72.96497         9     0.838     0.738 -65.96   2
       215    621.3655    488.6382 300.2109392 +22.7074099      451.945     72.61726      1.510     3.24     5.339866      20.4719     55.95484         7     1.004     0.671 -33.12   2
       216    407.0783    492.4926 300.1429690 +22.6443179     237.5565     72.70954      1.185     3.72     4.850157      20.4719      36.1053         6     0.797     0.498  -4.02   0
       217    906.2617    489.6935 300.2993965 +22.7930232     4402.446     72.65418      1.439     2.68     4.824901      20.4719     544.1178        33     1.176     1.126  23.08   0
       218    459.8983    491.4123 300.1597596 +22.6598348     314.2903     72.45085      1.122     3.00     4.970506      20.4719     61.68164         7     0.817     0.589  25.38   0
       219    566.8654    485.4752 300.1949913 +22.6901760     417.5158     72.61726      1.155     3.58     5.343849      20.4719     54.19226         7     0.850     0.584  28.24   0
       220    998.0826    480.3645 300.3310684 +22.8178249     713.6306     72.52486      1.523     3.40     4.893404      20.4719      72.3073        12     1.117     0.717   9.19   0
       221    138.4163    479.8099 300.0635254 +22.5601489     943.7523     72.48786      1.475     3.10     4.995344      20.4719     138.5253        15     1.077     0.902  19.13   0
       222    404.8427    473.3564 300.1484849 +22.6381521     258.7422     72.65418      1.226     4.20     4.927105      20.4719     40.08155         6     0.776     0.647  73.29   0
       223    186.1618    472.6054 300.0807067 +22.5723947     228.9553     72.58031      1.242     3.11     5.006791      20.4719     43.21127         6     0.913     0.651  33.45   0
       224    131.0307    469.6954 300.0645126 +22.5550315      417.159     72.50636      1.365     4.12     5.060146      20.4719     54.78948         7     0.902     0.675  75.89   0
       225    994.1992    469.3964 300.3334172 +22.8135086     415.2285      72.3397      1.464     3.19     4.878643      20.4719     52.72398         8     0.910     0.623  15.98   0
       226    738.7162    464.2326 300.2554255 +22.7355414     448.7676     72.52486      1.314     2.43     5.194431      20.4719      64.5164         9     0.861     0.637  21.49   0
       227    627.3572    461.7050 300.2215483 +22.7014657     381.3294     72.58031      1.306     3.46     5.310631      20.4719     45.94369         6     0.850     0.517  44.15   0
       228    347.5400    462.1999 300.1342755 +22.6177767     290.6458     72.50636      1.312     3.20     4.974124      20.4719     35.32346         5     0.737     0.445 -67.55   0
       229    679.6097    460.2221 300.2383086 +22.7166888     735.1371     72.56183      1.265     2.37     5.292453      20.4719     114.5651        11     0.984     0.680  -6.07   0
       230    994.2384    452.8562 300.3387985 +22.8087637     530.5263     72.56183      1.395     3.66     4.862737      20.4719     65.94264        11     1.093     0.693  11.03   0
       231    740.6909    452.3523 300.2598971 +22.7327180     783.8977     72.56183      1.297     2.36     5.190963      20.4719     98.46356        12     0.893     0.762 -58.38   0
       232    897.7479    448.5859 300.3100852 +22.7786557     977.3463     72.59879      1.379     2.77     4.849815      20.4719     122.4546        18     1.039     0.976  49.33   0
       233    881.9414    444.9978 300.3063203 +22.7728925     661.7882     72.52486      1.374     3.44     4.862192      20.4719     85.86192        11     1.089     0.696  35.23   0
       234    862.3809    445.1206 300.3001807 +22.7670724     401.4628     72.56183      1.344     3.40     4.872352      20.4719     44.21503         5     0.787     0.426  69.36   0
       235    626.3038    442.8708 300.2273332 +22.6957381     3285.435     72.67264      1.297     2.33     5.280109      20.4719     441.6639        23     1.028     0.965  68.19   0
       236    986.9678    442.0790 300.3400281 +22.8034885     408.9753     72.54334      1.195     2.79     4.850094      20.4719     76.27297         8     0.846     0.681  78.28   0
       237    102.4293    434.3102 300.0671069 +22.5363000     447.3886     72.52486      1.739     4.99     5.379251      20.4719     36.16887         7     1.057     0.667   5.12   0
       238    631.7216    430.5578 300.2330171 +22.6938224     394.5276     72.54335      1.324     4.71     5.260575      20.4719     47.84283         8     1.033     0.641  36.21   0
       239    466.1216    430.0141 300.1816252 +22.6440631     362.6887     72.58031      1.097     2.39     5.063632      20.4719     69.15501         6     0.716     0.542  24.72   0
       240    397.9305    430.4436 300.1602617 +22.6237560     294.6081     72.52486      1.583     4.34     5.036826      20.4719     36.48482         6     1.083     0.495   2.66   0
       241    995.9221    420.7416 300.3497472 +22.8000317     928.3052     72.59879      1.434     2.80     4.830624      20.4719     116.8806        17     1.197     0.901  46.33   0
       242    909.6906    421.5974 300.3225694 +22.7744701     517.7883     72.46936      1.335     3.75     4.859484      20.4719     68.09972        11     1.061     0.764 -67.78   0
       243    645.4310    418.9707 300.2410484 +22.6945983     381.9843     72.56183      1.575     4.45     5.241339      20.4719     39.71612         5     0.991     0.569 -13.96   0
       244    736.9826    416.7333 300.2703017 +22.7213696     963.6931     72.54335      1.213     2.42     5.232337      20.4719      172.488        14     0.906     0.822  56.45   0
       245    532.7292    417.3560 300.2064704 +22.6603796     464.2696     72.52486      1.508     3.35     5.071675      20.4719     56.62327         7     0.949     0.531  28.81   0
       246    240.9991    414.8979 300.1164864 +22.5722642     676.2846     72.43233      1.394     2.90     5.068928      20.4719     88.72903        12     0.941     0.826 -10.02   0
       247    303.2463    410.5463 300.1372591 +22.5896695     3710.439     72.59879      1.384     2.57     5.091701      20.4719     491.6804        28     1.153     1.051  43.84   0
       248    250.3738    405.3161 300.1225111 +22.5723226     7558.876     72.54335      1.445     2.68     5.084216      20.4719     965.0281        38     1.269     1.138  56.08   0
       249    629.0670    405.0502 300.2404681 +22.6856972     356.2399     72.54334      1.313     3.25     5.238202      20.4719     47.93974         5     0.962     0.370  31.42   0
       250   1016.3350    400.4109 300.3627146 +22.8002927     1893.215     72.50636      1.568     2.81     4.715275      20.4719     210.9369        24     1.300     1.053 -24.66  16
       251    391.2425    399.6233 300.1681819 +22.6128996     4975.596     72.61726      1.384     2.55       5.1175      20.4719      688.141        32     1.164     1.083  49.34   0
       252    635.4696    396.3675 300.2452802 +22.6851192     18545.87     72.54335      1.292     2.31     5.238202      20.4719     2557.988        53     1.235     1.104  55.32   0
       253    653.9733    395.0000 300.2514885 +22.6902673     438.4568     72.50636      1.309     5.16     5.238202      20.4719     50.24352         7     1.194     0.629 -13.57   3
       254    482.8170    398.0305 300.1972016 +22.6398762     238.9535     72.54335      1.211     3.79     5.088538      20.4719     35.72509         5     0.826     0.498 -31.27   0
       255    478.5496    396.7633 300.1962843 +22.6382339     417.0152     72.58031      1.551     2.18       5.0891      20.4719     53.16155         5     0.708     0.466 -71.04   0
       256    651.9681    397.5012 300.2500521 +22.6903857     626.1603     72.54334      1.600     5.82     5.238202      20.4719     60.61754        12     1.389     0.686 -29.88   3
       257    878.9473    392.6159 300.3223866 +22.7569348     390.3966     72.56183      1.518     3.65     4.869096      20.4719     37.67776         7     0.854     0.620  75.23   0
       258    832.2917    387.1517 300.3096116 +22.7413985     356.1929     72.59879      1.210     2.58     4.878805      20.4719     61.03506         6     0.747     0.520  51.34   0
       259    255.6996    383.3693 300.1312886 +22.5676165     481.9733     72.54335      1.579     5.17     5.117849      20.4719     48.76815         9     1.209     0.626  -3.66   0
       260    969.1799    378.9236 300.3549746 +22.7800019     913.3997     72.56183      1.815     4.22     4.696705      20.4719     84.86827        16     1.107     1.051  71.95   0
       261    506.2577    378.5621 300.2108165 +22.6413043     356.7966     72.56183      1.455     2.35     5.099729      20.4719     48.80736         5     0.674     0.488 -10.87   0
       262    190.1076    376.4603 300.1131336 +22.5459748     2180.021     72.63572      1.427     2.64     5.127471      20.4719      272.354        21     1.078     1.020  37.97   0
       263    678.8818    377.5919 300.2648978 +22.6927224     149.1947     72.50636      1.359     3.51     5.239892      20.4719     30.44745         5     0.787     0.452  17.42   0
       264    203.6137    371.2556 300.1190216 +22.5485283     226.0808     72.56183      1.243     3.43     5.127821      20.4719     40.52976         5     1.122     0.303  36.88   0
       265    576.0740    365.8351 300.2366865 +22.6585574     6835.212     72.52486      1.338     2.48     5.165095      20.4719     954.9141        32     1.123     1.063  85.45   0
       266    989.7618    366.2726 300.3655010 +22.7825219     1324.515     72.52486      1.488     2.63     4.583921      20.4719     171.7654        19     1.045     1.036  14.13   0
       267    291.0842    365.1079 300.1482192 +22.5729757     619.2897     72.72798      1.343     2.62     5.150793      20.4719     87.62067         9     0.858     0.677 -81.37   0
       268    148.3907    358.1892 300.1060919 +22.5282254     718.2266     72.45085      1.780     4.47     5.133747      20.4719     57.32658        12     1.046     0.912 -54.64   0
       269    835.5552    357.7443 300.3201711 +22.7339197     365.0139     72.59879      1.713     3.86     4.847053      20.4719     44.76151         6     0.947     0.756 -35.01   0
       270    780.2532    354.9442 300.3038387 +22.7165610     1177.267     72.59879      1.452     2.68     4.983729      20.4719     155.7969        16     1.118     0.863  86.80   0
       271    689.7680    356.1496 300.2752470 +22.6898184     390.6297     72.59879      1.183     2.15     5.246569      20.4719     71.88702         7     0.694     0.639 -82.35   0
       272    482.7577    352.0833 300.2120912 +22.6266574     6194.206     72.52486      1.324     2.41     5.131622      20.4719     872.1225        32     1.135     1.028  69.44   0
       273    874.7748    346.6361 300.3360047 +22.7424639     1414.144     72.58031      1.400     2.48     4.874712      20.4719     190.7731        21     1.126     0.967  25.53   0
       274    971.9299    346.8552 300.3662377 +22.7716010     537.2458     72.58031      1.272     2.72     4.590186      20.4719     90.64719        11     0.946     0.739  76.03   0
       275    467.4119    340.9294 300.2109325 +22.6188560     381.5157     72.58031      1.235     2.12      5.16742      20.4719      64.8027         7     0.686     0.644 -56.64   0
       276    549.9634    339.1199 300.2372223 +22.6430606     410.5753     72.50636      1.262     2.54     5.142817      20.4719     66.58569         7     0.719     0.666 -37.91   0
       277    530.7729    336.5015 300.2320958 +22.6365608     303.0542     72.50636      1.247     2.40     5.147684      20.4719     49.12693         5     0.704     0.455 -22.61   0
       278    847.5588    334.3516 300.3315034 +22.7307858     620.7456     72.59879      1.431     2.48     5.017105      20.4719     73.59548        10     0.889     0.693  -3.19   0
       279    130.1317    332.8119 300.1086485 +22.5154665     381.6913     72.56183      1.617     4.38      5.30231      20.4719     34.07647         6     0.985     0.554 -66.44   0
       280    370.3137    331.2158 300.1838636 +22.5869791     2600.807     72.50636      1.343     2.53     5.319307      20.4719     289.7482        23     1.119     1.010  69.87   0
       281     88.5650    328.7077 300.0970604 +22.5018292      1056.01     72.50636      1.607     3.80     5.438558      20.4719     107.5337        17     1.257     0.918   8.45   0
       282    339.6282    320.6692 300.1777371 +22.5747565     29848.01     72.54335      1.418     2.51      5.35352      20.4719     4321.582        65     1.325     1.166  48.59   0
       283    874.3248    318.2579 300.3450709 +22.7341681     1373.956     72.61726      1.398     2.64      5.10336      20.4719     184.0755        20     1.193     0.885  80.55   0
       284    829.7389    315.9164 300.3319276 +22.7201510     320.4514     72.67264      1.330     5.76     5.183393      20.4719     35.71304         8     1.042     0.896 -62.41   0
       285     35.9643    308.4164 300.0872965 +22.4802367     5157.514     72.56183      1.626     3.11     5.537575      20.4719     550.3323        40     1.426     1.215  55.44   0
       286    789.3372    307.1812 300.3221655 +22.7055468     552.3127     72.54335      1.309     2.84     5.285663      20.4719     84.67797        10     0.979     0.655  28.46   0
       287    213.8770    306.8996 300.1430898 +22.5331234     555.9122     72.70954      1.497     4.34      5.38666      20.4719     64.08372        10     1.057     0.728  46.28   0
       288    438.1736    306.1223 300.2131223 +22.6000974     466.3226     72.56183      1.229     2.15     5.278585      20.4719     78.53726         8     0.763     0.648 -39.43   0
       289    750.1021    300.5393 300.3120901 +22.6918931     1840.101     72.63572      1.326     2.48     5.369163      20.4719     262.9026        17     0.966     0.934  46.39   0
       290    558.4302    295.3001 300.2540735 +22.6330025     407.6118     72.50636      1.283     3.29     5.240008      20.4719     42.08015         7     0.916     0.527  32.88   0
       291    965.2128    293.8335 300.3813429 +22.7543394     569.6036     72.54334      1.300     2.26      4.59521      20.4719     74.54131         7     0.765     0.609 -25.75   0
       292    411.8231    285.1304 300.2117296 +22.5861732     2041.179     72.58031      1.428     3.25     5.338048      20.4719     235.4945        22     1.266     0.922  50.52   0
       293    624.2426    284.2716 300.2781490 +22.6495382     414.2836     72.54335      1.416     3.33     5.275627      20.4719      51.9813         7     0.928     0.545  58.85   0
       294    851.0811    278.1346 300.3508376 +22.7156726      638.396     72.67264      1.400     3.04     5.422013      20.4719     81.50369        12     0.963     0.819  90.00   0
       295    750.4094    275.7977 300.3202109 +22.6848709     236.6851     72.37677      1.177     2.85     5.412028      20.4719     46.28135         5     0.707     0.476 -76.41   0
       296    733.5635    275.7086 300.3149894 +22.6798030     262.9226     72.52486      1.067     3.00     5.403992      20.4719     57.39653         7     0.925     0.488 -83.45   0
       297    487.6920    264.4870 300.2420410 +22.6029638     1226.513     72.72798      1.259     2.37     5.336949      20.4719     173.7259        15     0.954     0.834  44.15   0
       298    294.8549    264.6623 300.1819735 +22.5452544      198.645     72.63572      1.365     3.66     5.501266      20.4719     32.08723         5     1.475     0.261  41.11   0
       299     60.4448    265.1017 300.1089510 +22.4751390     299.4749     72.56183      1.540     3.32     5.633246      20.4719     42.45026         5     0.750     0.459  71.20   0
       300    573.1269    262.5983 300.2692568 +22.6280038     266.0345     72.46936      1.472     3.31     5.284336      20.4719     31.40076         5     0.742     0.446 -20.14   0
       301    870.5064    257.6104 300.3635518 +22.7155824     282.9872     72.50636      1.135     4.61     5.336527      20.4719     41.66382         7     1.174     0.514  47.37   0
       302    732.7260    256.4008 300.3209904 +22.6740005     2318.089     72.45085      1.346     2.30     5.408044      20.4719     309.8202        23     1.054     1.031 -38.46   0
       303    993.9459    250.7897 300.4042685 +22.7505523     3322.178     72.56183      1.500     2.85     4.559138      20.4719     376.2659        29     1.197     1.148  74.88   0
       304    364.8751    241.8618 300.2111518 +22.5596789     182.9782     72.61726      1.076     3.65     5.377375      20.4719     41.15387         5     1.021     0.376  33.10   0
       305    441.0565    240.2677 300.2353776 +22.5820375     616.8497     72.58031      1.443     3.30     5.366189      20.4719     65.69513         9     0.928     0.670 -25.04   0
       306    146.3524    234.6173 300.1455369 +22.4921307     632.5532     72.59879      1.333     3.66     5.482031      20.4719     93.83405        11     1.142     0.794 -14.09   0
       307    115.7046    234.2847 300.1361180 +22.4828512     1416.283     72.74642      1.752     3.95     5.500734      20.4719     122.6969        22     1.387     1.093 -17.94   0
       308   1009.3693    230.9980 300.4154995 +22.7494715     515.8455     72.52486      1.468     3.65     4.560287      20.4719     63.44431        10     0.931     0.864  42.36   0
       309    853.3868    228.4282 300.3676770 +22.7020659     326.0036     72.56183      1.422     4.76     5.372863      20.4719     37.69555         7     1.041     0.617  21.80   0
       310    199.7387    226.1720 300.1648733 +22.5057014     550.8782     72.56183      1.513     3.20     5.471026      20.4719     74.74265        11     0.980     0.884  78.26   0
       311    994.5016    224.0592 300.4131105 +22.7430276     332.8619     72.65418      1.339     3.36      4.60338      20.4719     57.38977         8     1.092     0.531  20.78   0
       312    876.1626    220.3479 300.3773997 +22.7065565     354.0876     72.58031      1.370     3.20     5.263548      20.4719     46.86938         7     0.819     0.620 -34.40   0
       313    804.2066    218.0527 300.3557074 +22.6843652     638.0089     72.54335      1.231     2.39     5.375517      20.4719     101.9753        10     0.846     0.704  17.55   0
       314    394.5990    217.1877 300.2284022 +22.5614917      458.699     72.37677      1.583     4.25     5.384709      20.4719     51.35988         8     0.920     0.798 -57.77   0
       315    894.9030    210.9648 300.3862868 +22.7094643     448.4395     72.56183      1.352     2.82     5.122583      20.4719     51.82745         5     0.778     0.495 -27.51   0
       316    902.4199    206.9488 300.3899334 +22.7105579     2107.857     72.54335      1.402     2.44     5.088312      20.4719     257.8685        21     1.063     0.996 -89.00   0
       317    320.9364    204.1175 300.2097194 +22.5356732     2174.482     72.67264      1.385     2.48     5.486293      20.4719     278.5071        23     1.138     0.989  65.64   0
       318    398.7251    199.3222 300.2354788 +22.5575935     1103.082     72.67264      1.497     2.95     5.384709      20.4719     119.4099        18     1.163     0.917 -63.46   0
       319    150.3424    199.4987 300.1581637 +22.4832401     237.6579     72.65418      1.518     5.57     5.499201      20.4719      29.5657         6     1.049     0.834  36.04   0
       320    800.8531    198.4484 300.3610186 +22.6777231      587.126     72.59879      1.395     2.28     5.392588      20.4719     94.52991         9     0.785     0.748  89.50   0
       321    907.7242    195.5631 300.3952796 +22.7088693     426.7327     72.52486      1.536     5.41     5.117556      20.4719     58.20477        11     1.290     0.800  78.61   0
       322    215.5077    191.2262 300.1811068 +22.5003878     871.8839     72.50636      1.468     3.33      5.49205      20.4719     95.11404        15     1.119     0.910  41.02   0
       323    333.7338    190.6310 300.2180733 +22.5356313     398.3013     72.56183      1.418     4.68     5.445024      20.4719      45.4476         7     0.959     0.754  36.46   0
       324    753.5468    188.4464 300.3495150 +22.6606900     1636.597     72.59879      1.225     2.19     5.441519      20.4719      230.289        16     0.970     0.855  57.10   0
       325    818.2326    188.0183 300.3698187 +22.6799235     555.3758     72.54335      1.185     2.42     5.392733      20.4719     83.40302         8     0.806     0.618  48.90   0
       326    379.6503    188.0053 300.2332117 +22.5486287     1167.804     72.54335      0.608     0.82     5.384709      20.4719      612.543         6     0.481     0.375  11.75   0
       327    237.2205    184.3985 300.1900725 +22.5049310     479.5995     72.48786      1.320     3.15     5.512469      20.4719     73.68202        12     1.018     0.795  -5.68   0
       328   1023.8944    181.0363 300.4362323 +22.7394393     334.6954      55.1025      1.100     3.12     4.998227      20.4719     76.75632         5     1.160     0.245 -80.59  24
       329    527.3359    181.0752 300.2814311 +22.5908597     259.3997     72.61726      1.063     2.03     5.335807      20.4719     59.46517         5     0.702     0.432  69.91   0
       330    757.5081    179.7374 300.3535733 +22.6593707     750.6907     72.67264      1.397     3.21     5.444998      20.4719     108.0342        11     0.990     0.808  72.75   0
       331    678.0543    179.0092 300.3290480 +22.6353827     1205.117     72.56183      1.244     2.18     5.399358      20.4719     193.1243        15     0.951     0.836  63.86   0
       332    499.3350    175.6640 300.2744668 +22.5809208     396.2305     72.61726      1.266     3.98     5.344302      20.4719     49.73571         8     1.129     0.505  66.87   0
       333    873.6130    170.4376 300.3927872 +22.6914358     1438.741     72.54335      1.396     2.48     5.354154      20.4719     194.4359        17     1.044     0.941 -85.74   0
       334    604.1597    170.6711 300.3087299 +22.6108670     1000.397     72.54335      1.320     2.46     5.328027      20.4719     140.2049        15     1.002     0.853  47.88   0
       335    885.5218    169.6097 300.3967695 +22.6947603     772.9612     72.52486      1.325     2.74     5.333139      20.4719     100.3667        14     0.986     0.842  45.11   0
       336    931.9233    168.8163 300.4114995 +22.7084132     273.5284     72.56183      1.130     4.02      5.26335      20.4719     42.90208         6     0.904     0.512  30.30   0
       337   1002.2632    159.8332 300.4363566 +22.7268679     1137.109     72.56183      1.480     3.32     5.237438      20.4719     115.0945        16     1.153     0.979  51.91   0
       338     25.9261    156.3797 300.1334740 +22.4335755     559.1401     72.56183      1.703     5.14     5.910255      20.4719     58.29847         9     1.109     0.673  58.98   0
       339    236.4937    152.8986 300.2000577 +22.4956637     692.8647     72.74642      1.452     2.87      5.52259      20.4719     97.26781        13     0.977     0.845 -10.10   0
       340     98.1920    147.4921 300.1588120 +22.4526774     2380.877     72.46936      1.583     2.92     5.634058      20.4719     283.4183        25     1.241     1.096  46.72   0
       341    921.5025    144.9294 300.4159927 +22.6984230     698.3151     72.69109      1.325     2.57     5.348284      20.4719     93.63679        12     0.947     0.770  28.56   0
       342     47.6258    144.1400 300.1441839 +22.4365631     506.0045     72.56183      1.535     5.54     5.825272      20.4719     65.87704        10     1.107     0.797  42.05   0
       343    255.6329    140.9001 300.2098993 +22.4979494     5567.609     72.54334      1.466     2.74     5.540835      20.4719     728.4868        34     1.245     1.133  62.64   0
       344     39.7159    135.1970 300.1446246 +22.4316246     1251.212     72.48786      1.665     3.37     5.858642      20.4719     128.0208        19     1.178     0.998  73.90   0
       345    239.1362    132.1217 300.2076140 +22.4904859     619.2228     72.65418      1.560     2.42     5.525636      20.4719     69.63153         8     0.778     0.654 -33.38   0
       346    899.7359    122.6648 300.4164206 +22.6855056     3505.415     72.59879      1.486     2.72     5.346995      20.4719     456.4085        30     1.246     1.084  57.86   0
       347   1003.4510    121.5074 300.4491510 +22.7161934     2735.975     72.63573      1.534     2.52     5.236834      20.4719     361.3111        28     1.214     1.132  85.40   0
       348    449.0858    117.9663 300.2775260 +22.5492907     568.4044     72.52486      1.343     2.45      5.42883      20.4719     75.22071         9     0.781     0.713 -39.72   0
       349    202.7095    118.4800 300.2007076 +22.4756554     389.5205     72.67264      1.305     2.40     5.533393      20.4719     50.86175         5     0.700     0.480  15.80   0
       350    563.9680    115.3429 300.3141463 +22.5829281     253.3721     72.58031      1.298     3.77     5.380659      20.4719     40.80793         5     0.824     0.496 -52.29   0
       351    373.4176    109.6730 300.2566634 +22.5242503     637.9993     72.56183      1.622     4.49     5.491052      20.4719     86.12088        11     1.298     0.753 -31.07   2
       352    378.2146    108.3611 300.2585813 +22.5253097     391.0014     72.58031      1.215     2.21     5.492543      20.4719     50.74361         5     0.751     0.457 -17.64   3
       353    139.7558    106.4773 300.1850246 +22.4533487     651.6686     72.54335      1.435     2.80     5.658366      20.4719     91.19701        11     0.951     0.783  57.66   0
       354    500.5202    104.9510 300.2977568 +22.5609475     1717.744     72.58031      1.386     2.69     5.419058      20.4719     212.7657        20     1.206     0.881  61.26   0
       355    428.8466    105.3328 300.2753206 +22.5395995     400.0632     72.54335      1.313     3.08     5.465878      20.4719     57.14673         6     0.856     0.481 -38.30   0
       356    562.0691    104.2467 300.3171512 +22.5791691     348.0059     72.54335      1.265     3.37      5.39529      20.4719     49.48584         8     0.862     0.671  42.84   0
       357    243.8156    100.5637 300.2192971 +22.4828201     281.7493     72.56183      1.296     3.99     5.526208      20.4719     46.38073         9     0.953     0.712 -23.12   0
       358    788.9437     94.5198 300.3909957 +22.6442641     410.5539     72.59879      1.450     3.24     5.377293      20.4719     61.79766         7     1.001     0.547  28.18   0
       359    934.9733     89.3369 300.4382138 +22.6864550     299.3571     72.56183      1.308     3.36     5.330211      20.4719     48.89973         5     0.798     0.410  20.04   0
       360    781.1076     85.5311 300.3914660 +22.6393338     387.8086     72.69109      1.552     3.46     5.365501      20.4719     48.41619         8     0.918     0.742  75.07   0
       361    274.6248     84.7746 300.2339963 +22.4875103     6245.454     72.52486      1.514     2.66     5.557566      20.4719     820.9252        38     1.255     1.171  51.28   0
       362    125.8202     84.3052 300.1878778 +22.4428046     731.2698     72.46936      1.518     3.11     5.780107      20.4719     63.79776         9     0.960     0.619 -26.96   0
       363    904.1099     82.2783 300.4308744 +22.6751927     409.6706     72.70954      1.259     2.60     5.338138      20.4719     57.70807         6     0.751     0.536  52.45   0
       364     36.2467     76.0207 300.1627239 +22.4135894     399.0531     72.61726      1.584     3.31     6.251355      20.4719      49.3912         6     0.992     0.679 -72.99   0
       365    750.3577     76.1964 300.3849060 +22.6274485     230.8579     72.58031      1.270     3.66     5.325157      20.4719     28.01511         5     0.988     0.390  -4.90   0
       366    290.2674     76.0559 300.2416874 +22.4896893     419.5529     72.59879      1.354     4.80     5.534863      20.4719     37.58854         9     1.061     0.615  35.63   0
       367    520.6234     70.1620 300.3152904 +22.5569629      6440.19     72.58031      1.402     2.52     5.680112      20.4719     818.1523        35     1.218     1.071  61.04   0
       368    406.1133     70.0721 300.2796719 +22.5226573     748.6418     72.69109      1.468     2.51     5.564495      20.4719     90.26124         9     0.758     0.751  33.45   0
       369    577.3562     65.0367 300.3346191 +22.5724697     283.3341     72.61726      1.352     3.26     5.700994      20.4719     44.81725         6     0.824     0.603  47.74   0
       370    773.1484     60.6180 300.3970583 +22.6297853     870.5013     72.54334      1.472     4.69     5.303182      20.4719     95.64071        14     1.399     0.806 -84.11   0
       371    714.8560     61.4492 300.3786201 +22.6125842     365.2415     72.59879      1.470     2.37     5.376607      20.4719     50.47005         5     0.701     0.474 -17.09   0
       372    865.7065     58.6965 300.4265393 +22.6569202     477.4578     72.74642      1.540     4.28     5.336637      20.4719     60.41012        12     1.231     0.822 -82.95   0
       373    213.6865     54.1276 300.2249746 +22.4604532     550.1663     72.69109      1.344     3.83     5.914612      20.4719     57.28633         9     0.917     0.678  15.98   0
       374    572.1633     53.0777 300.3368768 +22.5674765     388.2846     72.52486      1.322     2.36     5.824111      20.4719     67.72113         7     0.698     0.653   3.40   0
       375    649.0513     50.2755 300.3617359 +22.5896801     6293.782     72.58031      1.393     2.56     5.754089      20.4719     862.0828        35     1.271     1.058  83.21   0
       376    424.0414     49.3198 300.2919762 +22.5220590     1366.235     72.54335      1.318     2.44     5.559443      20.4719     195.2112        20     1.053     0.977  58.54   0
       377    690.2250     47.7521 300.3753826 +22.6012744     801.9762     72.56183      1.215     2.64      5.57144      20.4719     132.9793        11     0.920     0.767  53.22   0
       378    759.9368     44.9406 300.3980200 +22.6213225     431.7949     72.59879      1.878     4.49     5.225085      20.4719     36.33432         6     1.214     0.473 -55.07   0
       379    706.1851     43.8151 300.3816319 +22.6049172     588.6488     72.52486      1.329     2.46      5.43687      20.4719     96.97948         9     0.853     0.691   0.56   0
       380    976.1895     42.0307 300.4664020 +22.6851660     552.0688     72.56183      1.407     2.56     5.263462      20.4719     87.04101         7     0.768     0.666  61.69   0
       381    173.1260     41.8256 300.2163484 +22.4447703     757.1072     72.58031      1.515     3.58     5.679856      20.4719     86.06867        14     1.171     0.899  29.10   0
       382   1015.1836     41.3316 300.4787957 +22.6966247     351.0042     72.56183      1.187     2.63     5.203348      20.4719     44.11643         5     0.736     0.436  17.45   0
       383    231.6408     40.1990 300.2350709 +22.4618279     96.75612     72.58031      0.941     2.47     6.068044      20.4719     37.39445         5     0.716     0.449 -72.25   0
       384    744.5374     39.5145 300.3949782 +22.6151544      569.717     72.69109      1.432     2.54     5.158591      20.4719     73.27293         8     0.944     0.500   1.16   0
       385    693.2295     35.2920 300.3803561 +22.5985891     2758.423     72.52486      1.335     2.37     5.578485      20.4719     359.9023        26     1.195     1.020  48.90   0
       386    708.3160     34.0889 300.3854473 +22.6027568     886.7996     72.69109      1.673     4.16     5.417574      20.4719     99.77769        18     1.529     0.787  50.74   0
       387    333.9034     36.1966 300.2681777 +22.4912998     435.2939     72.46936      1.419     3.40     6.022996      20.4719     51.41233         7     1.006     0.505  23.72   0
       388    779.7148     26.8385 300.4100505 +22.6220310     1599.872     72.54335      1.474     2.68     5.247519      20.4719     181.5623        22     1.180     0.994  63.34   0
       389    939.9926     25.4568 300.4604797 +22.6695713     292.8373     72.54335      1.161     3.44     5.317012      20.4719     42.60335         6     0.811     0.660  31.73   0
       390    261.9216     22.8011 300.2501253 +22.4658960     273.6561     72.45085      1.274     4.39     5.862245      20.4719     28.58393         5     0.922     0.641  26.72   0
       391    717.9343     20.2670 300.3929231 +22.6016582     741.5056     72.61726      1.275     2.18     5.283075      20.4719     106.3968        10     0.809     0.731  63.88   0
       392    523.4623     19.2936 300.3326564 +22.5431855     1010.435     72.65418      1.363     2.64     6.152309      20.4719     122.7516        16     1.062     0.845  68.71   0
       393     96.4724     19.1085 300.1998794 +22.4152834     592.1774     72.72798      1.459     4.11      6.29724      20.4719     61.35888        10     1.101     0.651 -21.96   0
       394    759.4909   1017.8362 300.0819933 +22.9007814     476.4683     72.54335      1.868     7.20     3.624866      20.4719     31.42484        13     1.513     0.959 -28.51  16
       395    809.5511     16.3032 300.4227655 +22.6279246     413.0207     72.61726      1.443     3.23     5.331343      20.4719     57.14536         7     0.908     0.531 -31.81   0
       396    322.3810   1015.9854 299.9464984 +22.7691577     1310.744     72.54334      2.077     4.81     10.90604      20.4719     73.78743        26     1.415     1.300 -72.20  16
       397    157.7654   1011.4579 299.8967851 +22.7184606      1358.98     72.58031      2.654    12.97     95.49133      20.4719     47.66447        42     3.048     1.536 -40.97  16
