#   1 NUMBER                 Running object number                                     
#   2 X_IMAGE                Object position along x                                    [pixel]
#   3 Y_IMAGE                Object position along y                                    [pixel]
#   4 ALPHA_J2000            Right ascension of barycenter (J2000)                      [deg]
#   5 DELTA_J2000            Declination of barycenter (J2000)                          [deg]
#   6 FLUX_APER              Flux vector within fixed circular aperture(s)              [count]
#   7 FLUXERR_APER           RMS error vector for aperture flux(es)                     [count]
#   8 FLUX_RADIUS            Fraction-of-light radii                                    [pixel]
#   9 FWHM_IMAGE             FWHM assuming a gaussian core                              [pixel]
#  10 BACKGROUND             Background at centroid position                            [count]
#  11 THRESHOLD              Detection threshold above background                       [count]
#  12 FLUX_MAX               Peak flux above background                                 [count]
#  13 ISOAREA_IMAGE          Isophotal area above Analysis threshold                    [pixel**2]
#  14 A_IMAGE                Profile RMS along major axis                               [pixel]
#  15 B_IMAGE                Profile RMS along minor axis                               [pixel]
#  16 THETA_IMAGE            Position angle (CCW/x)                                     [deg]
#  17 FLAGS                  Extraction flags                                          
         1    408.9314     18.9435 300.3409224 +22.5070541     2108.609     72.82381      1.311     2.27     6.169242     20.54058     313.2206        23     1.168     0.892  63.76   0
         2     56.1349     17.0249 300.2318687 +22.4007803     1495.167     72.78672      1.410     2.71       6.0198     20.54058     182.9833        19     1.088     0.971 -35.00   0
         3    539.9999     13.6321 300.3834331 +22.5447860     466.9183     72.76817      1.100     2.51     6.180737     20.54058     84.16905         8     0.799     0.652  85.54   0
         4    198.7027     11.1808 300.2780638 +22.4418338     186.6796     72.73106      1.250     3.15     5.989712     20.54058     39.13396         6     0.728     0.634  26.43   0
         5    883.5721      7.9640 300.4923012 +22.6460147      418.443     72.82381      1.243     1.90     5.524955     20.54058      68.0694         6     0.724     0.494 -88.15   0
         6    251.0758      4.2487 300.2965919 +22.4555371     335.4852     70.14179      1.176     2.70     6.407381     20.54058     48.28563         7     0.699     0.677 -41.84  16
         7    679.8735      3.4614 300.4302849 +22.5837458     381.6108     67.31295      1.178     2.22     5.825455     20.54058     53.80094         5     0.699     0.459 -21.68  16
         8     41.9884   1016.9048 299.9026651 +22.6833069     4347.706     72.73105     11.549    49.66     30.72049     20.54058     94.99539       747    11.702     6.156   1.08  27
         9    193.6826   1022.6420 299.9479216 +22.7305149     905.7028     62.22676      4.478     7.54      12.2343     20.54058     46.32435        14     1.636     0.974  76.58  27
        10    190.6048   1021.0223 299.9474925 +22.7291264     1015.889     69.11409      6.935    10.19     12.63943     20.54058      48.2514        17     1.988     1.455  84.72  27
        11    124.9452   1023.6306 299.9262424 +22.7101531     906.0037     56.82877      5.744     8.38        25.12     20.54058     51.27281        15     2.769     0.709   0.12  27
        12     91.5611   1023.8008 299.9158166 +22.7001741      633.991     55.87037      4.174     4.84     30.43455     20.54058     31.75279         8     1.828     0.363 -10.62  27
        13     73.3750   1015.3785 299.9129097 +22.6922982     2531.212     72.76817     13.511    28.38       28.996     20.54058     68.14687       185     5.453     4.101  23.34  19
        14    544.4286    991.9142 300.0670060 +22.8270037     406.6754     72.80527      1.594     5.33     4.129934     20.54058     35.07978         9     0.978     0.819 -69.71   0
        15    381.0273   1002.9176 300.0125854 +22.7811141       468.12     72.80527      1.507     5.72     4.441083     20.54058     46.68242        11     1.127     0.818 -84.33   0
        16    683.4058    983.4809 300.1130199 +22.8662850     802.5184     72.73106      1.848     7.05     4.009551     20.54058     58.86732        15     1.696     0.822  58.59   0
        17   1010.3434    982.5139 300.2152264 +22.9640580     488.9751     72.91645      1.767     6.20     3.949483     20.54058     52.83805        10     1.094     0.986 -10.54   0
        18     84.0961   1002.6792 299.9203735 +22.6918803     988.6588     72.91645      6.951     6.23     25.63511     20.54058      37.6376        11     1.466     0.802 -11.26   0
        19    717.8016    977.5736 300.1256556 +22.8749087     1196.731     72.74961      1.672     3.36     4.025136     20.54058      106.813        20     1.190     1.037 -85.41   0
        20    495.2339    978.5861 300.0560348 +22.8084176     459.3143     72.78672      1.806     5.65     4.129934     20.54058     37.83941        11     1.057     0.851 -42.50   0
        21    740.3137    971.1707 300.1347522 +22.8798246     11214.27     72.80527      1.560     3.03     4.033597     20.54058     994.1274        49     1.339     1.232 -50.95   0
        22    786.1756    971.2007 300.1490303 +22.8935894     480.9915     72.74961      1.663     5.21     4.033597     20.54058      35.7826        10     1.026     0.746  63.83   0
        23    931.3328    970.9290 300.1943602 +22.9370428     380.4331     72.84235      1.668     4.21     4.039668     20.54058     41.28146         7     1.229     0.704   7.64   0
        24     51.6858    963.1356 299.9231779 +22.6708154     306.5807     72.89793      1.416     4.43     15.52928     20.54058     39.08722         6     0.969     0.576 -25.76   0
        25    445.1245    959.7169 300.0465855 +22.7879672      502.682     72.89793      1.611     4.87     4.135306     20.54058     53.51123         8     1.168     0.576 -39.65   0
        26    792.1607    958.5766 300.1550043 +22.8917618      294.288     72.84235      1.477     4.66     4.033597     20.54058     45.61272         8     1.011     0.806 -46.32   0
        27    748.8649    953.2489 300.1432495 +22.8772469     1374.973     72.82381      1.389     2.88     4.033597     20.54058     156.0112        18     1.022     0.982 -25.13   0
        28    932.0968    952.1865 300.2006992 +22.9318916     484.4202     72.69392      1.588     5.67     4.011021     20.54058     38.19286        11     1.027     0.883 -19.55   0
        29    601.0370    950.6927 300.0980447 +22.8321663      447.375     72.78672      1.573     4.41     4.274381     20.54058      53.7787         9     0.967     0.889 -53.67   0
        30    464.3575    950.9661 300.0554174 +22.7912302     203.9653     72.86088      1.437     4.33     4.133162     20.54058      32.9053         5     0.847     0.629  -3.89   0
        31    787.3193    946.7854 300.1573338 +22.8869259     859.5231     72.78672      1.472     3.83     4.033597     20.54058     81.74941        15     1.159     0.894 -37.18   0
        32    895.4073    943.8378 300.1919788 +22.9184939     376.6835     72.82381      1.478     5.16     4.023995     20.54058      38.3714         9     1.161     0.648 -17.20   0
        33    126.6479    947.0750 299.9516892 +22.6887278     403.0861     72.80527      1.738     3.42      10.3362     20.54058     34.77604         5     0.811     0.417 -70.43   0
        34    835.0989    937.7147 300.1751746 +22.8986518     531.6089     72.97198      1.553     4.46     4.036663     20.54058     49.30413        12     1.072     0.940  -6.22   0
        35    686.6657    937.1498 300.1291155 +22.8539700     723.0904     72.82381      1.527     3.84     4.011332     20.54058     62.56659        13     0.980     0.923  48.41   0
        36    289.5209    937.4898 300.0054266 +22.7348858       287.33     72.93497      2.005     6.08     4.707972     20.54058     27.94029         8     1.299     0.799 -37.11   0
        37    698.1451    934.1518 300.1336665 +22.8565532     586.9752     72.84235      1.472     4.02      4.01623     20.54058      58.7961        11     0.970     0.830 -39.41   0
        38    399.2885    933.5094 300.0408564 +22.7666948     4167.473     72.97198      1.516     2.80     4.298414     20.54058     415.3656        33     1.217     1.197 -76.47   0
        39    987.3383    933.0115 300.2241654 +22.9429485     276.5935     72.76817      1.654     4.69     3.940372     20.54058     26.59851         5     1.048     0.596 -18.65   0
        40    894.4613    994.4047 300.1752234 +22.9327248     2124.556     72.78672      1.737     3.72      4.07565     20.54058     156.1516        27     1.249     1.214 -33.66   0
        41    177.0414    922.4209 299.9753697 +22.6967950     391.2597     72.84235      2.282     4.51     5.464676     20.54058     34.88435         6     0.879     0.657  29.41   0
        42    442.5940    920.8996 300.0584313 +22.7760760     347.7877     72.69392      1.410     3.09     4.151687     20.54058     48.30657         6     0.911     0.526  25.38   0
        43    124.5867    919.4575 299.9600360 +22.6801941     767.6159     72.76817      1.626     3.78     6.673059     20.54058     77.49416        14     1.094     0.950 -48.51   0
        44    101.5590    916.3137 299.9539054 +22.6723778     1590.728     72.78672      1.662     3.75     7.170225     20.54058     140.6666        22     1.243     1.109  78.13   0
        45     33.7497    918.0146 299.9322909 +22.6524998     453.6178     72.80527      1.724     3.22     5.334194     20.54058     47.99764         6     0.851     0.726  18.87   0
        46    973.4117    904.9991 300.2289393 +22.9307305     2296.461     72.61959      1.657     3.42     3.949447     20.54058     173.5043        27     1.247     1.181 -36.69   0
        47    927.4981    903.6298 300.2150690 +22.9165728     2101.021     72.74961      1.635     3.17     3.989631     20.54058     176.0697        26     1.282     1.100 -27.18   0
        48    404.4742    903.9616 300.0520848 +22.7597779      284.199     72.74961      1.569     5.66     4.231887     20.54058     49.02156         6     1.159     0.778  46.23   0
        49    633.2379    903.3508 300.1234773 +22.8282449     531.0255     72.82381      1.649     3.98     4.249112     20.54058     47.77105         6     0.746     0.634 -41.62   0
        50    711.4208    897.4677 300.1497397 +22.8500086     721.1581     72.78672      1.432     3.09     4.180786     20.54058     72.73142        13     0.984     0.850  42.89   0
        51    133.9943    897.6891 299.9700418 +22.6767804     439.3127     72.71249      1.710     5.12     5.765762     20.54058     42.35815         8     1.066     0.695 -49.51   0
        52    579.2624    891.5348 300.1105180 +22.8086621     4738.492     72.84235      1.418     2.60     4.302865     20.54058       510.21        31     1.158     1.089 -41.65   0
        53     69.0184    892.7979 299.9514492 +22.6558663     378.4949     72.73106      1.580     3.28     5.609072     20.54058     42.24706         8     0.824     0.735   5.71   0
        54    381.4240    888.9067 300.0498139 +22.7485426     528.0446     72.73105      1.321     4.09     4.336926     20.54058     67.90425         8     1.148     0.606 -63.50   0
        55    129.3274    885.6131 299.9725209 +22.6719178     1424.921     72.82381      1.711     3.72     5.447316     20.54058      145.787        26     1.400     1.129 -67.27   0
        56    599.9144    883.9061 300.1194295 +22.8126691     800.1597     72.99048      1.381     3.32     4.325895     20.54058     79.74019        13     0.994     0.862 -24.74   0
        57    398.3154    883.4974 300.0568278 +22.7520608       236.43     72.97198      1.126     3.42     4.238938     20.54058     36.59425         5     0.734     0.466  18.72   0
        58    149.1351    883.1431 299.9794787 +22.6771576     350.0498     72.86088      1.442     3.97     5.146744     20.54058     35.68037         6     0.793     0.568  39.51   0
        59    755.3123    871.2246 300.1719514 +22.8556407     4288.949     72.76817      1.427     2.58     4.310869     20.54058     446.6127        34     1.238     1.110  83.95   0
        60    972.2427    871.4696 300.2394856 +22.9207524      1169.25     72.76817      1.740     4.06     3.953191     20.54058     94.95164        21     1.351     1.047  42.50   0
        61   1009.9913    871.2117 300.2513418 +22.9319934     478.7956     72.67534      1.811     5.65     3.916108     20.54058     32.56502         8     1.291     0.696  64.40   0
        62    163.6329    865.3839 299.9897611 +22.6764201     428.4823     72.78672      1.400     4.85     4.699291     20.54058     44.24334         9     1.031     0.645   9.43   0
        63    472.1009    863.6700 300.0862334 +22.7685162      500.934     72.93496      1.307     2.99     4.321214     20.54058     86.70638         9     0.896     0.744 -83.76   0
        64    118.7006    861.9993 299.9769019 +22.6619587     1128.232     72.63818      1.579     3.21     4.748579     20.54058     114.0002        17     1.128     0.905 -63.59   0
        65    268.3398    854.0131 300.0260032 +22.7045943     52994.71     72.76817      1.479     2.64     4.544016     20.54058     6442.197        97     1.375     1.356  22.61   0
        66    533.8344    857.1792 300.1075561 +22.7851767     560.9766     72.82381      1.493     2.98     4.405523     20.54058     75.09941        10     0.942     0.752  78.54   0
        67    526.2830    852.9443 300.1065837 +22.7816962     1648.733     72.86088      1.396     2.77      4.41653     20.54058     186.7293        18     1.024     0.929 -67.20   0
        68    939.2177    852.1841 300.2354631 +22.9053150     954.4223     72.78672      1.623     4.24     4.055746     20.54058     74.79864        16     1.167     0.946 -37.35   0
        69    196.5102    851.9282 300.0043552 +22.6824336     464.3133     72.97198      1.493     4.07     4.658864     20.54058     70.91531         7     1.191     0.551   9.14   0
        70    242.2139    851.3734 300.0187406 +22.6959950     306.6624     72.80527      1.454     3.20     4.596758     20.54058     35.86978         6     0.724     0.629 -52.62   0
        71    555.2018    848.8868 300.1169045 +22.7892081     827.8896     72.73106      1.283     2.89     4.419947     20.54058     102.0109        13     1.019     0.783 -54.40   0
        72    565.9728    847.3646 300.1207525 +22.7920026     581.3419     72.82381      1.347     3.13     4.418329     20.54058     77.11323        11     1.088     0.689  23.01   0
        73    671.6028    843.8345 300.1547890 +22.8226745     583.3947     72.80527      1.706     3.82     4.399048     20.54058     55.39926        10     1.042     0.730 -16.26   0
        74    318.0570    831.2240 300.0488740 +22.7129825     31332.71     72.80527      1.422     2.64     4.601748     20.54058     3477.802        70     1.289     1.259  77.02   0
        75    709.1724    833.6573 300.1698010 +22.8310212     741.3434     72.80527      1.443     3.57     4.538439     20.54058     95.05621        14     1.051     0.950  68.13   0
        76    332.2364    831.7908 300.0530987 +22.7174007     1874.365     72.80527      1.404     2.80     4.600142     20.54058     218.0636        21     1.275     0.932 -44.36   0
        77    207.5336    829.9895 300.0149177 +22.6794533     216.2552     72.78672      1.575     4.58     4.670496     20.54058     24.81529         5     1.041     0.573  13.91   0
        78    841.2092    826.8677 300.2131480 +22.8686641     2784.594     72.80527      1.361     2.72     4.732379     20.54058     323.6402        25     1.076     1.044  43.65   0
        79    329.2789    825.2479 300.0543074 +22.7146367      468.685     72.80527      1.221     3.20     4.641377     20.54058      61.7323        11     1.027     0.760 -60.29   0
        80    870.3907    824.9395 300.2228705 +22.8768592     236.0583     72.74961      1.178     4.06      4.63786     20.54058     34.63063         6     0.767     0.615  40.59   0
        81    598.9575    822.9922 300.1389494 +22.7949040     911.8116     72.82381      1.344     2.78     4.467062     20.54058     114.6088        13     1.011     0.754  58.42   0
        82    435.3191    823.0168 300.0880148 +22.7458183     477.8508     72.82381      1.669     2.90     4.578663     20.54058     46.39509         9     0.870     0.686 -16.43   0
        83    200.7151    823.0676 300.0150501 +22.6754219     807.6261     72.89793      1.396     3.35     4.682373     20.54058     100.8558        13     1.071     0.849  18.41   0
        84      5.6202    819.2516 299.9556856 +22.6157503     433.6842     72.78672      1.393     3.27     4.314018     20.54058     64.47752         8     0.917     0.662  82.35  16
        85    446.1577    817.9404 300.0930381 +22.7476143     798.4496     72.78672      1.279     2.17     4.624604     20.54058     128.3433        10     0.878     0.716 -49.22   0
        86    847.4769    814.6821 300.2190656 +22.8670447     526.3565     72.91645      1.383     3.90     4.868133     20.54058     57.19962        14     1.138     0.950  54.75   0
        87    348.2388    814.5331 300.0636887 +22.7172539     334.3847     72.76817      1.196     2.87     4.724984     20.54058     47.31102         5     0.723     0.443 -23.68   0
        88    304.0633    813.6131 300.0502514 +22.7037323     202.7017     72.76817      1.118     3.32     4.675038     20.54058     45.44415         5     1.187     0.269 -54.58   0
        89    392.1560    812.8402 300.0778982 +22.7299474     384.3945     72.87941      1.113     2.09     4.700737     20.54058      75.4164         8     0.745     0.654  31.60   0
        90     34.2237    812.1756 299.9668694 +22.6223120     597.8603     72.76817      1.883     4.18     4.454912     20.54058     43.59468         7     1.076     0.463  60.81   0
        91    600.3906    812.1192 300.1429325 +22.7922138     277.0728     72.74961      1.303     2.41     4.497715     20.54058     46.10756         5     0.715     0.443  68.71   0
        92    824.7263    809.4490 300.2136777 +22.8587214     296.4699     72.80527      1.099     3.24     5.032847     20.54058     48.63763         7     0.829     0.665 -77.21   0
        93    198.2498    807.4236 300.0193723 +22.6701966     471.6473     72.80527      1.131     3.03     4.698554     20.54058     82.88309         9     0.975     0.628 -64.72   0
        94    834.9720    799.4001 300.2201394 +22.8589081     82.62745     72.76817      1.222     4.25     5.105572     20.54058     24.35511         5     0.807     0.639 -86.02   0
        95    521.4507    797.6114 300.1230794 +22.7643714     394.1972     72.84235      1.124     2.51     4.615125     20.54058     67.93631         8     0.842     0.638  87.81   0
        96    491.2540    796.1561 300.1141555 +22.7548949     588.4514     72.82381      1.284     2.78     4.708712     20.54058     85.92139         9     0.869     0.670 -85.97   0
        97    512.3929    794.1717 300.1213793 +22.7606672     1883.695     72.80527      1.981     6.66     4.653719     20.54058     489.9034        16     1.699     0.733 -51.70   0
        98    400.4656    795.0716 300.0862623 +22.7273442     344.0474     72.84235      1.270     3.73     4.802336     20.54058     41.62416         6     0.804     0.498  87.28   0
        99    907.4968    792.1239 300.2451122 +22.8785598      4476.28     72.95347      1.382     2.52     4.636291     20.54058     477.4849        30     1.118     1.092 -38.02   0
       100    432.8057    793.0224 300.0969891 +22.7364600     280.2422     72.78672      1.268     2.96     4.786205     20.54058     73.05452         7     1.071     0.619   6.96   0
       101    895.9523    783.5769 300.2442934 +22.8726450     1591.699     72.82381      1.386     2.58     4.787433     20.54058     180.7801        21     1.205     0.924  86.20   0
       102    275.2229    778.6630 300.0526521 +22.6850536     295.2603     72.78672      1.677     2.70     4.600193     20.54058     35.91564         5     0.824     0.617 -48.95   0
       103    258.8152    777.7836 300.0478373 +22.6798770     840.5558     72.76817      1.290     2.73     4.609334     20.54058      117.696        14     0.991     0.848 -31.91   0
       104    125.0341    778.8396 300.0059184 +22.6400223     349.7314     72.84235      1.202     4.07     4.716238     20.54058     45.68446         6     1.102     0.430 -26.18   0
       105    722.1959    774.8700 300.1929801 +22.8180525     2418.928     72.74961      1.299     2.23     4.827972     20.54058     358.0088        21     1.014     0.975 -25.40   0
       106    927.1985    773.6535 300.2572623 +22.8791609     1629.166     72.76817      1.365     2.70     4.602525     20.54058     183.8118        17     0.971     0.919 -37.60   0
       107    804.9401    761.1332 300.2232271 +22.8389175     500.9199     72.84235      1.283     2.94     5.250902     20.54058     87.16742        11     1.061     0.661  36.57   0
       108    107.6072    761.6328 300.0061000 +22.6298576     766.1606     72.80527      1.810     4.44     4.742162     20.54058     65.03276        14     1.131     0.917  17.55   0
       109    840.7453    751.8253 300.2374125 +22.8469785     146131.1     72.84235      1.333     2.33     5.222665     20.54058     19931.44       148     1.360     1.302 -88.13   0
       110    603.4971    755.8549 300.1621995 +22.7769989     293.3028     72.89793      1.129     3.33     4.723607     20.54058      58.6457         7     0.886     0.559   6.97   0
       111    987.7070    753.4794 300.2826913 +22.8915011     1290.261     72.91645      1.514     2.99     4.446584     20.54058     137.0848        19     1.162     1.047  42.84   0
       112    693.1676    752.3712 300.1912556 +22.8028898     643.0145     72.80527      1.187     2.69     4.612364     20.54058      87.9803        11     0.911     0.763 -39.32   0
       113      4.5973    751.7099 299.9773330 +22.5960855     266.9856     71.05972      1.030     3.36     5.181727     20.54058     34.96485         5     0.721     0.467  74.25  16
       114    873.5198    744.5282 300.2500008 +22.8547074     533.8307     72.93497      1.442     3.23     5.174752     20.54058     54.73638         8     0.956     0.567 -50.81   0
       115    527.0248    740.8781 300.1432652 +22.7497644     1629.061     72.80527      1.361     2.28     4.810246     20.54058     244.5386        19     1.019     0.931 -40.90   0
       116    189.9093    740.2652 300.0386207 +22.6484367     297.6296     72.93496      1.216     5.57     4.535605     20.54058     41.62006         9     1.306     0.670 -84.03   0
       117    708.2538    738.0553 300.2006101 +22.8033038     9412.688     72.84235      1.303     2.19     4.715229     20.54058     1358.375        43     1.181     1.090  76.88   0
       118    490.0779    739.3359 300.1322685 +22.7382392      6301.78     72.89793      2.007     6.66     4.804127     20.54058     998.8588        15     2.159     0.577  -5.79   0
       119    209.7353    733.3250 300.0470390 +22.6523972     4944.279     72.86088      1.405     2.50     4.536682     20.54058     598.4797        34     1.162     1.104 -69.09   0
       120    291.8217    731.3920 300.0731845 +22.6764777     1123.852     72.80527      1.308     2.62      4.41697     20.54058     131.2597        14     0.964     0.817  65.03   0
       121    167.7486    729.0566 300.0353785 +22.6385711     600.0547     72.86088      1.437     3.10     4.532858     20.54058     88.78786        11     1.119     0.753 -68.06   0
       122    499.9147    726.7188 300.1394324 +22.7375695     758.7879     72.95348      1.175     2.20     4.877937     20.54058     118.0021         9     0.802     0.671 -58.83   0
       123    491.7218    719.0201 300.1393861 +22.7329028     3316.616     72.80527      1.286     2.12      4.92776     20.54058     496.6078        23     1.056     0.918  79.45   0
       124    481.9136    712.6937 300.1383910 +22.7281453     1359.697     72.99048      1.216     2.20     4.964556     20.54058     217.0553        17     0.932     0.878  24.55   0
       125    410.3781    711.6182 300.1164843 +22.7063775     371.0104     72.80527      1.513     3.41     4.900016     20.54058     37.60192         5     0.996     0.337  68.17   0
       126    392.6565    710.0740 300.1114738 +22.7006178     325.5591     72.84235      1.254     4.56     4.862785     20.54058       37.863         6     0.908     0.649  24.97   0
       127    145.1431    709.0226 300.0348680 +22.6260413     583.2188     72.82381      1.414     3.89     4.629489     20.54058     62.62965        12     1.043     0.911  -8.92   0
       128    480.0048    707.8041 300.1393868 +22.7261697     174.1538     72.63818      1.350     3.91     4.996742     20.54058     27.74154         5     1.328     0.331  63.27   1
       129    159.3427    707.3505 300.0398238 +22.6298238     512.9166     72.86088      1.341     2.78     4.540314     20.54058      80.6343         9     0.845     0.748  80.37   0
       130    928.7747    703.5832 300.2805409 +22.8595082     508.7486     72.82381      1.255     2.53     4.874469     20.54058       82.056         9     0.827     0.708  67.66   0
       131    216.2575    704.3231 300.0584956 +22.6460375     457.4523     72.84235      1.458     4.32     4.636378     20.54058     47.44322         7     0.853     0.625 -27.72   0
       132    185.2136    704.2576 300.0488688 +22.6367018     553.0519     72.76817      1.321     2.89     4.574602     20.54058     70.83286         8     0.799     0.654 -23.28   0
       133    505.8106    702.8211 300.1490374 +22.7324802     375.0268     72.78672      1.184     3.18     5.037076     20.54058     73.18709         8     0.915     0.629 -67.30   0
       134    406.7555    702.4327 300.1183438 +22.7026553     1827.936     72.86088      1.237     2.18     4.921098     20.54058     253.5201        19     0.975     0.950 -63.77   0
       135    982.4889    699.5919 300.2985878 +22.8744579     878.4543     72.71249      1.533     3.05     4.697272     20.54058     109.8857        14     1.066     0.860  53.72   0
       136    440.4835    701.4704 300.1291493 +22.7124972      227.513     72.93497      1.133     3.65     4.979683     20.54058     35.31559         6     0.953     0.403 -19.95   0
       137     60.6654    697.5522 300.0123536 +22.5973941     19520.14     72.84235      1.536     2.79      5.13655     20.54058     2213.376        62     1.338     1.281  38.61   0
       138    491.6985    697.7814 300.1462843 +22.7268011     1032.189     72.73106      1.181     2.07     5.067087     20.54058     145.9994        11     0.783     0.746 -50.80   0
       139    527.1725    696.5513 300.1577242 +22.7370880     368.3068     72.82381      1.196     2.74     5.080047     20.54058     71.33286         7     0.909     0.641   3.31   0
       140    863.1827    692.8533 300.2635821 +22.8367686     83.90861     72.78672      1.366     4.61      5.01221     20.54058     30.61475         6     1.112     0.542  66.31   0
       141    244.8585    689.4579 300.0722184 +22.6503573     342.3337     72.87941      1.556     5.13     4.702165     20.54058     30.66252         7     0.896     0.830 -88.58   0
       142    909.6503    683.7221 300.2810361 +22.8480721     994.4902     72.80527      1.245     2.36     4.890731     20.54058     141.3991        13     0.887     0.819  59.88   0
       143      6.7236    681.9097 300.0006865 +22.5767157     1554.709     72.95348      2.001     4.68     5.303584     20.54058      122.954        24     1.593     0.957 -73.21  16
       144     73.0954    682.0859 300.0212423 +22.5966911     456.6222     72.99048      1.333     4.07     5.149436     20.54058     59.45382         8     1.010     0.766  49.30   0
       145    776.0651    681.8385 300.2400144 +22.8074929     500.7324     72.78672      1.219     4.01      4.95203     20.54058     76.48489         9     1.064     0.662  47.14   0
       146    455.2470    678.2401 300.1412950 +22.7102599     638.8619     72.86088      1.482     2.17     5.116178     20.54058     83.27018         9     0.793     0.691  -0.95   0
       147    849.7427    676.3275 300.2647660 +22.8279941     989.3046     72.84235      1.946     3.02     4.917076     20.54058      96.5843        13     1.137     0.690  55.26   0
       148    247.4947    677.4299 300.0769480 +22.6476985     438.0541     72.71249      1.695     4.36     4.758828     20.54058      45.5594         7     0.894     0.649  12.96   0
       149    411.7245    670.7645 300.1301850 +22.6950596     747.7334     72.76817      1.245     2.18     5.005302     20.54058     127.2012        10     0.836     0.729   0.13   0
       150    559.6325    669.0201 300.1767782 +22.7389211     433.4789     72.80527      1.123     2.68     5.203097     20.54058     84.30732         8     0.803     0.687  41.14   0
       151    606.6484    667.6466 300.1918615 +22.7526256     387.4677     72.82381      1.259     2.70     5.121602     20.54058     69.39529        10     0.924     0.768 -22.20   0
       152    577.3860    667.2775 300.1828713 +22.7437448      496.381     72.82381      1.136     2.06     5.170472     20.54058     101.8526         8     0.795     0.604  16.87   0
       153    456.2287    666.3809 300.1454557 +22.7071512     1004.453     72.80527      1.358     3.07     5.144057     20.54058     135.3341        13     0.984     0.805 -29.45   0
       154    889.7073    661.8821 300.2819195 +22.8358223     3385.271     72.95348      1.313     2.27     4.869556     20.54058     472.5568        22     1.055     0.921 -88.29   0
       155    421.5290    661.9145 300.1361120 +22.6954612     1707.726     72.91645      1.176     1.87     5.022945     20.54058     287.4654        19     0.962     0.901  55.82   0
       156    987.7552    659.6977 300.3132009 +22.8645747     606.5758     72.82381      1.270     2.66     4.726486     20.54058     104.2775        12     1.019     0.707  60.96   0
       157    786.4523    659.2723 300.2505872 +22.8041262     313.3604     72.80527      1.228     3.03     4.894672     20.54058     57.70334         5     0.902     0.468  77.25   0
       158    771.4985    657.3452 300.2465544 +22.7990904     144.7966     72.89793      0.897     3.46     4.891059     20.54058     43.91405         5     0.748     0.463  71.19   0
       159    397.0810    657.2198 300.1300328 +22.6867805     291.1172     72.78672      1.376     4.31     5.001184     20.54058     38.54075         7     0.924     0.572 -31.77   0
       160    450.5930    652.7067 300.1481473 +22.7015368      261.966     72.71249      1.032     3.29     5.125924     20.54058     51.34281         5     0.903     0.463  77.78   0
       161    929.3002    651.6757 300.2975810 +22.8447550     291.5442     72.93497      1.124     2.48     4.826615     20.54058     53.44753         6     0.672     0.633  70.89   0
       162    284.8716    648.7996 300.0978744 +22.6507011     9103.928     72.67534      1.323     2.24     4.848655     20.54058     1350.479        40     1.129     1.111  14.16   0
       163    407.3306    645.7336 300.1369548 +22.6865591     8906.952     72.86088      1.224     2.13     5.001519     20.54058     1268.476        35     1.087     1.012 -87.98   0
       164    172.3210    643.2468 300.0646950 +22.6153354     284.5407     72.82381      1.113     3.75     4.680825     20.54058     38.87722         5     0.888     0.455  43.42   0
       165    653.6135    642.1520 300.2147731 +22.7593883     141.8127     72.82381      1.004     1.99     4.840444     20.54058     51.69832         5     0.685     0.450 -68.89   0
       166     51.7387    641.9196 300.0276648 +22.5787639      285.745     72.87941      1.462     3.50      5.15875     20.54058     47.84153         5     1.373     0.257  48.83   0
       167   1011.8763    640.9054 300.3268330 +22.8664021     963.3069     72.93496      1.375     2.90     4.590261     20.54058     108.4075        14     1.077     0.772  27.04   0
       168    818.9561    639.5203 300.2671368 +22.8081957     1866.691     72.78672      1.185     2.13     4.869564     20.54058     287.4853        18     0.982     0.852  58.95   0
       169    903.6226    636.8559 300.2943930 +22.8328034     12413.69     72.84235      1.302     2.23     4.832346     20.54058     1694.863        48     1.205     1.106 -73.26   0
       170    467.8790    635.2914 300.1591866 +22.7017235     11662.64     72.95348      1.258     2.04      5.18636     20.54058     1831.688        46     1.137     1.079 -72.33   0
       171    195.4408    631.1696 300.0758053 +22.6188095     1513.318     72.82381      1.530     2.96     4.802511     20.54058      160.252        22     1.391     0.954 -65.42   0
       172    637.3847    631.1524 300.2132948 +22.7513646     401.6481     72.84235      1.156     2.62     4.869421     20.54058     73.68756         8     0.852     0.612  74.19   0
       173    353.1948    629.8644 300.1252744 +22.6657664     342.3354     72.76817      1.356     2.90     4.977981     20.54058     48.47254         6     0.743     0.560 -47.22   0
       174    442.2495    628.5491 300.1534037 +22.6921016     486.6306     72.84235      1.334     2.47     5.092965     20.54058     65.90926         9     0.883     0.672  36.21   0
       175    742.5186    623.4956 300.2485288 +22.7806831     739.4158     72.95348      1.217     2.65     4.802742     20.54058     104.4717        14     1.014     0.780 -62.16   0
       176    399.5859    623.5293 300.1417628 +22.6778645     4319.683     72.80527      1.210     2.08     4.995417     20.54058     626.1296        29     1.042     0.996  58.82   0
       177    377.9197    621.9135 300.1355486 +22.6709018     1142.587     72.97198      1.184     2.15     4.984954     20.54058     203.3923        12     0.864     0.735  52.95   0
       178    132.1905    621.6887 300.0592320 +22.5971093     812.9185     72.73106      1.472     2.85     4.892594     20.54058     90.07598        13     0.995     0.814  51.66   0
       179    819.4739    618.7923 300.2740358 +22.8023975     1739.681     72.76817      1.385     2.73     4.844651     20.54058     187.8316        19     1.148     0.922 -55.33   0
       180    681.7206    618.2353 300.2313005 +22.7609476     4287.786     72.74961      1.167     4.57     4.642189     20.54058     1606.165        11     1.204     0.549 -67.66   0
       181    516.2157    611.0451 300.1821092 +22.7092604     200200.9     72.82381      1.245     1.98     5.192331     20.54058     33933.58       215     1.390     1.379   3.35   0
       182     65.4934    619.5073 300.0392211 +22.5764659     339.7263     72.97198      1.190     3.61     5.111347     20.54058     44.82152         6     0.951     0.393 -20.86   0
       183    340.1419    617.3357 300.1252871 +22.6582559     374.8076     72.84235      1.249     2.52     4.965013     20.54058     68.03402         5     0.866     0.352 -47.35   0
       184    699.8809    615.8608 300.2377285 +22.7657098     837.8174     72.89793      1.180     1.76     4.679998     20.54058     164.2024        10     0.798     0.673  63.71   0
       185    202.3433    611.0929 300.0844755 +22.6151221     3427.529     72.86088      1.328     2.27     4.891983     20.54058     461.2533        26     1.081     1.006  62.01   0
       186    904.4400    612.3046 300.3026282 +22.8259954     347.5524     72.80527      1.200     2.99     4.805754     20.54058     45.75129         5     0.704     0.480  75.68   0
       187    768.1722    606.7912 300.2619506 +22.7835751     450.8136     72.80527      1.223     2.35     4.793166     20.54058     65.12431         8     0.731     0.679  35.84   0
       188    786.1885    604.6784 300.2682509 +22.7883680      202.143     72.78672      1.120     3.75      4.81091     20.54058     33.56425         5     1.046     0.386  86.32   0
       189    547.7982    597.5275 300.1963324 +22.7148505     308.8179     72.71249      1.096     2.35     5.147694     20.54058     50.30487         5     0.698     0.480  15.76   0
       190    406.4891    595.4874 300.1530237 +22.6718878     235.2959     72.97198      1.143     3.35      5.03794     20.54058     43.11375         5     0.740     0.471 -72.37   3
       191    406.7593    591.3064 300.1544665 +22.6707690     2621.505     72.82381      1.218     2.11     5.051499     20.54058     408.5101        23     0.998     0.948  74.76   2
       192    251.1488    593.7745 300.1052739 +22.6247978     381.8763     72.82381      1.334     2.54     4.966218     20.54058     51.11822         8     0.789     0.656  49.44   0
       193    856.3435    591.3157 300.2944571 +22.8055539     245.1393     72.89793      1.197     3.95     4.850393     20.54058     31.64846         6     0.870     0.513 -45.11   0
       194    818.3948    587.5508 300.2838534 +22.7931004     444.5673     72.78672      1.459     3.90     4.832312     20.54058     49.90033         9     1.132     0.745 -12.59   0
       195    724.0135    579.5767 300.2570380 +22.7625237     501.8694     72.80527      1.254     2.42      4.79284     20.54058     83.17083         9     0.869     0.667  66.54   0
       196    803.8463    577.3243 300.2826431 +22.7858031      1680.59     72.80527      1.166     2.07      4.82565     20.54058     254.5097        17     0.907     0.852  87.33   0
       197    674.9878    575.0891 300.2432259 +22.7465399     2536.046     72.74961      1.188     1.92     4.753504     20.54058     494.6504        20     0.977     0.814  81.39   0
       198    313.3345    575.3002 300.1306113 +22.6381529     236.8503     72.89793      1.150     2.79     4.967324     20.54058     52.44389         6     0.740     0.637 -39.06   0
       199    919.1181    572.2710 300.3202154 +22.8188917     507.3282     72.93496      1.419     2.11     4.824234     20.54058     77.18083         7     0.691     0.641  16.88   0
       200    884.2803    572.0397 300.3094298 +22.8083872     327.7114     72.76817      1.318     3.92     4.843965     20.54058     44.33327         8     0.975     0.637 -84.09   0
       201    579.9274    571.5999 300.2147598 +22.7170404     468.8311     72.67534      1.149     2.50     5.099099     20.54058     74.65005         8     0.770     0.676  86.43   0
       202    462.2354    571.1325 300.1782818 +22.6816165     657.7704     72.80527      1.092     2.07     5.205106     20.54058     120.0819         8     0.700     0.667 -77.63   0
       203    932.3130    568.9802 300.3253988 +22.8218993     1223.607     72.73105      1.242     2.18     4.815595     20.54058     187.2093        15     0.942     0.845  43.41   0
       204    804.0431    567.4404 300.2859164 +22.7830229     2158.364     72.89793      1.424     2.43      4.82565     20.54058     349.4507        24     1.475     0.859  79.28   0
       205    917.9027    568.0706 300.3212015 +22.8173207      611.331     72.93496      1.193     2.15     4.829225     20.54058     112.5281         9     0.752     0.715  66.59   0
       206    557.4210    565.5458 300.2097209 +22.7085544     753.6608     72.80527      1.243     2.08     5.140073     20.54058     101.3006         8     0.737     0.670  81.78   2
       207    556.7921    561.9481 300.2106942 +22.7073330     459.1455     72.78672      1.477     3.53     5.142339     20.54058      46.6582         5     0.648     0.610  88.87   3
       208    343.3294    565.7763 300.1430336 +22.6444174     341.5358     72.82381      1.365     2.50     4.969364     20.54058     47.80254         6     0.686     0.637  20.79   0
       209    395.7021    564.1470 300.1598525 +22.6596582     329.6357     72.89793      1.194     3.13     5.100657     20.54058     70.07215         8     0.981     0.546  66.07   0
       210    842.1497    562.4250 300.2994220 +22.7930012     4296.602     72.82381      1.200     2.15     4.843731     20.54058     654.7212        24     1.017     0.934  69.14   0
       211    483.3805    562.1624 300.1877763 +22.6853826     326.0451     72.82381      1.609     4.19     5.230556     20.54058      33.7203         5     0.904     0.554 -41.91   0
       212    579.8785    559.1519 300.2187896 +22.7134518     323.9412     72.80527      1.226     2.25     5.120582     20.54058     55.56543         6     0.714     0.554 -51.87   0
       213    502.8119    558.8632 300.1948954 +22.6902622     456.0154     72.78672      1.419     1.87     5.206595     20.54058     63.12984         6     0.671     0.550  49.64   0
       214     74.3710    553.1326 300.0635467 +22.5600957     993.0566     72.80527      1.487     3.35     5.029558     20.54058      115.702        19     1.161     1.051  34.70   0
       215    933.9263    553.0042 300.3310934 +22.8177922       723.76     72.73105      1.207     2.12     4.835637     20.54058     128.4584         9     0.749     0.709  38.90   0
       216    873.5774    550.7062 300.3130259 +22.7990513     279.6112     72.71249      1.119     3.18     4.853548     20.54058     47.90007         6     0.687     0.659  16.03   0
       217    735.0995    546.5312 300.2712298 +22.7563556     341.9197     72.89793      0.986     1.94     4.868043     20.54058     54.35306         6     0.715     0.499  -2.29   0
       218    340.3243    546.0566 300.1485064 +22.6378571      200.444     72.84235      1.196     4.23     4.970572     20.54058      36.4017         5     1.030     0.495  52.11   0
       219     66.7920    543.3604 300.0643674 +22.5550186     429.5682     72.82381      1.525     4.33     5.015363     20.54058     49.83896         9     1.013     0.701  42.95   0
       220    563.3151    535.0773 300.2214557 +22.7015738     290.8685     72.91645      1.484     3.01     5.146032     20.54058     51.34558         6     0.867     0.593 -24.01   0
       221    615.6521    533.0267 300.2384160 +22.7166747     691.7632     72.82381      1.062     1.99     5.093718     20.54058      125.826         7     0.687     0.626  84.39   0
       222   1022.9879    530.4963 300.3661817 +22.8380023     827.8979     60.42143      1.182     2.36     4.799253     20.54058     137.8367        12     0.912     0.749  82.28  24
       223    930.3685    525.3872 300.3389578 +22.8087907       447.27     72.78672      1.139     2.93     4.886198     20.54058     74.54243        11     0.980     0.712 -58.16   0
       224    676.3560    525.3247 300.2598222 +22.7326587     800.7855     72.78672      1.082     2.26     4.894136     20.54058     131.7529        11     0.847     0.717 -45.76   0
       225    833.6852    521.4700 300.3100915 +22.7786991     1080.301     72.91645      1.197     2.23     4.857391     20.54058     144.2775        13     0.901     0.775  80.60   0
       226    817.7619    518.0291 300.3062469 +22.7729394     574.6508     72.84235      1.215     2.78     4.848774     20.54058     104.6824        11     0.913     0.785 -28.19   0
       227    798.2451    517.9336 300.3001959 +22.7670640     327.2618     72.80527      1.275     3.26     4.838548     20.54058     48.56652         6     0.887     0.461 -52.71   0
       228    562.2318    515.9721 300.2273256 +22.6957634     3145.541     72.80527      1.194     1.96     5.139806     20.54058     567.9846        21     0.954     0.894  79.81   0
       229    922.4479    514.6166 300.3399876 +22.8033230     380.5159     72.84235      1.007     2.35     4.900839     20.54058      71.3326         5     0.661     0.478 -72.38   0
       230     37.8759    508.0066 300.0668712 +22.5362013     422.9461     72.73105      1.898     5.58      4.91841     20.54058     38.15755         9     1.121     0.784 -42.52   0
       231    401.9051    502.9145 300.1816762 +22.6439437     420.6977     72.99048      1.173     2.12     5.133213     20.54058     76.75263         6     0.724     0.534  36.66   0
       232    973.5591    494.7798 300.3623698 +22.8129323     1148.469     72.84235      1.148     2.20     4.948508     20.54058     200.6719        15     0.919     0.824 -43.16   0
       233    845.5353    494.6409 300.3225012 +22.7745413     445.3764     72.76817      1.075     2.58     4.886449     20.54058      80.7066        10     0.938     0.680  40.69   0
       234    931.8922    493.5630 300.3497723 +22.8001019     941.3104     72.80527      1.207     2.24     4.937786     20.54058     133.1992        11     0.873     0.698  78.14   0
       235    468.3264    490.3306 300.2064292 +22.6602479     372.0167     72.87941      1.173     3.21      5.16706     20.54058     66.90433         7     0.921     0.559 -66.72   0
       236    672.7856    489.7070 300.2702815 +22.7213589     1069.234     72.73106      1.152     1.79     4.863464     20.54058     215.8577        13     0.844     0.775  46.02   0
       237    176.9393    488.2277 300.1164996 +22.5722532     692.0928     72.80527      1.400     2.86     5.014403     20.54058     79.02345        12     1.019     0.710 -66.93   0
       238    239.1493    483.9454 300.1372263 +22.5896862     3713.946     72.84235      1.280     2.11     4.967375     20.54058     558.9988        25     1.035     0.969  60.08   0
       239    972.1602    482.0334 300.3660744 +22.8088499     4215.003     72.84235      1.286     2.09     4.987098     20.54058      670.547        26     1.074     0.955 -78.42   0
       240    186.3004    478.7599 300.1224841 +22.5723450     7541.791     72.78672      1.304     2.27     5.026495     20.54058     967.1747        37     1.151     1.095  49.80   0
       241    952.1646    473.0251 300.3627653 +22.8002718     1950.993     72.82381      1.292     2.17     4.967566     20.54058     301.8951        22     1.076     0.916 -61.85   0
       242    327.1773    472.9393 300.1681706 +22.6129300     4767.497     72.78672      1.259     2.15      5.03007     20.54058     752.7764        30     1.055     1.004  24.86   0
       243    571.2919    469.4497 300.2452588 +22.6851205     18061.45     72.84235      1.160     2.01     5.135421     20.54058     2724.006        54     1.204     1.083  38.75   0
       244    418.6464    471.1757 300.1971940 +22.6398530     262.5358     72.82381      1.009     2.46     5.170008     20.54058     41.50507         5     0.734     0.430 -69.46   0
       245    588.9976    469.6685 300.2506999 +22.6904906     799.9751     72.76817      1.778     5.59     5.109876     20.54058     79.18667        11     1.526     0.578 -38.37   0
       246    198.6521    467.8034 300.1298816 +22.5729065     298.2519     72.80527      1.061     2.32     5.066945     20.54058     52.36014         5     0.717     0.441  71.51   0
       247    814.9905    465.3738 300.3224889 +22.7569809     248.5871     72.80527      1.088     2.41     4.865665     20.54058     51.39914         7     0.690     0.670 -16.64   0
       248    768.1880    459.8221 300.3097081 +22.7413631     348.5042     72.78672      1.187     2.26     4.857777     20.54058     68.98538         7     0.809     0.541  62.61   0
       249    191.1936    456.4312 300.1312570 +22.5674061     318.0956     72.80527      1.212     4.29     5.111606     20.54058     53.85978         7     1.010     0.623  28.10   0
       250    905.0367    451.8862 300.3549375 +22.7800803     856.9438     72.78672      1.302     2.43     4.906791     20.54058     132.7722        12     0.990     0.767 -72.12   0
       251    441.8996    451.4331 300.2108409 +22.6411573     390.8401     72.78672      0.932     1.77     5.197468     20.54058     70.89101         6     0.701     0.495   0.54   0
       252    125.9535    449.7744 300.1131457 +22.5459248     1972.724     72.82381      1.348     2.39     4.975964     20.54058     267.9444        21     1.064     0.963  36.40   0
       253    781.9308    441.3859 300.3199783 +22.7401838     324.9375     72.82381      1.602     4.24     4.858024     20.54058     30.38917         5     1.085     0.472  61.97   0
       254    511.9557    438.9597 300.2366922 +22.6585783     6654.405     72.87941      1.233     1.93     5.206834     20.54058     1199.027        30     1.051     0.965  78.64   0
       255    925.4310    438.9159 300.3655088 +22.7824613     1184.139     72.82381      1.216     1.99     4.895484     20.54058     191.8606        16     1.028     0.777  59.17   0
       256    226.6603    438.4703 300.1481138 +22.5728906     620.8324     72.84235      1.245     2.40     5.327952     20.54058     103.8796         9     0.822     0.736  13.52   0
       257     84.3338    431.7804 300.1060589 +22.5282761     540.4116     72.76817      1.423     2.60     4.950149     20.54058     60.10395         8     0.821     0.656  86.76   0
       258    772.0809    430.7462 300.3203648 +22.7341757     270.5551     72.84235      1.182     1.88     4.860572     20.54058     62.76026         6     0.687     0.532 -53.89   0
       259    716.0512    427.7191 300.3038920 +22.7165182     1109.656     72.82381      1.313     2.42     4.951784     20.54058     176.2922        15     1.072     0.817  73.69   0
       260    625.5987    428.9193 300.2753310 +22.6897573     525.6732     72.69392      1.243     2.54     5.192969     20.54058     77.68106         9     0.832     0.696 -78.36   0
       261    418.6011    425.3090 300.2120765 +22.6266717     5954.127     72.69392      1.156     2.06     5.233166     20.54058     869.8504        29     1.022     0.948  66.55   0
       262    907.8221    419.5038 300.3663234 +22.7716079     614.8276     72.71249      1.117     2.16     4.867985     20.54058     98.10295         9     0.792     0.694  29.20   0
       263    810.5326    419.4132 300.3360273 +22.7424392     1381.187     72.82381      1.085     2.01      4.85688     20.54058     196.4475        13     0.896     0.747  81.43   0
       264    403.5483    413.7473 300.2111482 +22.6188393     384.2831     72.84235      1.177     3.33     5.270649     20.54058     74.36713         7     0.925     0.637 -85.48   0
       265    485.7917    411.8188 300.2373637 +22.6429416     389.1057     72.76817      1.152     2.47     5.244431     20.54058     64.67753         8     0.759     0.675 -30.13   0
       266    783.0831    406.9944 300.3315066 +22.7306473     575.1257     72.73105      1.223     2.31     4.858807     20.54058     103.0005         9     0.857     0.627  19.44   0
       267    306.0600    404.5313 300.1838201 +22.5869622     2327.693     72.82381      1.259     2.27      5.48051     20.54058     360.9668        20     0.965     0.935  76.60   0
       268     24.5038    401.8105 300.0972069 +22.5017278     1044.611     72.73106      1.471     3.19     4.946073     20.54058      135.949        18     1.131     0.996  42.42   0
       269    653.4339    399.1357 300.2936712 +22.6895437      307.419     72.80527      1.383     3.46       5.2052     20.54058     33.42068         5     0.782     0.442  69.64   0
       270    275.4854    393.9773 300.1777404 +22.5747642     29549.36     72.74961      1.302     2.17     5.521731     20.54058     4146.834        71     1.267     1.159  56.24   0
       271    810.1797    391.2838 300.3450522 +22.7342502     1374.555     72.74961      1.166     1.81     4.850102     20.54058     256.8122        14     0.928     0.750  84.17   0
       272    112.5869    390.8873 300.1281147 +22.5250194     859.3526     72.74961      0.679     1.45     5.046379     20.54058     353.0719         5     0.576     0.363 -24.07   0
       273    764.8660    388.9999 300.3316737 +22.7200192     284.9412     72.76817      1.640     3.44     4.860003     20.54058     48.43311         6     0.900     0.499  -0.00   0
       274    150.0758    380.4567 300.1431497 +22.5332716     517.8179     72.84235      1.360     3.60     5.257573     20.54058     75.47978        11     1.193     0.673  61.07   0
       275    768.2198    380.2379 300.3355638 +22.7185062     191.8838     72.82381      1.112     4.04     4.858508     20.54058       42.815         6     0.834     0.559  41.25   0
       276    725.3368    380.0968 300.3222493 +22.7056183     568.6512     72.89793      1.250     2.44     4.921228     20.54058     85.93578         7     0.735     0.612  80.97   0
       277    374.0530    379.1502 300.2132072 +22.6000632     573.1085     72.84235      1.155     2.45     5.330714     20.54058     102.0951        10     0.964     0.631 -70.68   0
       278    434.7780    378.3777 300.2323488 +22.6180466     217.2697     72.80527      1.117     3.45     5.203211     20.54058     24.75444         5     0.760     0.452 -16.79   0
       279    685.8736    373.4199 300.3121246 +22.6918762     1922.688     72.80527      1.203     2.13     5.114687     20.54058     292.4234        16     0.960     0.781  86.56   0
       280    494.1990    368.2671 300.2541216 +22.6329551     297.1975     72.76817      1.070     2.72     5.260718     20.54058     63.50076         7     0.826     0.572 -55.41   0
       281    900.8618    366.0788 300.3815021 +22.7541675     476.2805     72.87941      1.150     2.47     4.825283     20.54058     104.7685        10     0.860     0.713  68.58   0
       282    347.6201    358.1747 300.2117958 +22.5861161     2074.001     72.80527      1.441     2.81      5.41854     20.54058     278.2383        23     1.258     0.930  66.56   0
       283    560.1194    356.9148 300.2783254 +22.6494518     302.0022     72.95347      1.202     3.10      5.25926     20.54058     63.71501         8     1.074     0.661 -51.48   0
       284    786.7748    351.0986 300.3508066 +22.7156910     581.5472     72.74961      1.170     2.08     4.859262     20.54058     121.3805         8     0.806     0.611  88.98   0
       285    686.3724    348.2163 300.3204630 +22.6847845     351.1837     72.82381      0.992     2.38     5.126342     20.54058     53.07423         5     0.718     0.441  69.44   0
       286    669.1663    348.3128 300.3150726 +22.6796570     327.9029     72.76817      1.162     2.22     5.191367     20.54058     69.22509         6     0.671     0.624 -37.73   0
       287    637.3445    347.9812 300.3052701 +22.6700270     347.7321     72.78672      1.357     1.88     5.231252     20.54058     51.98974         7     0.652     0.645  30.09   0
       288    423.4285    337.6360 300.2420448 +22.6029453      1212.11     72.82381      1.222     2.30     5.190277     20.54058     155.3255        15     0.967     0.850  54.51   0
       289    935.0737    333.0832 300.4028816 +22.7549278       416.89     72.93496      1.297     3.64     4.867176     20.54058     51.55251         5     0.645     0.590 -84.76   0
       290    163.6284    332.8678 300.1628104 +22.5236794     162.2123     72.78672      0.979     3.37      5.50807     20.54058     40.04152         5     0.757     0.434  70.01   0
       291    668.4216    329.4148 300.3209758 +22.6740042     2180.123     72.78672      1.099     2.05     5.216295     20.54058     326.4615        20     0.983     0.865  57.06   0
       292    929.5755    323.5717 300.4042551 +22.7505470     3312.564     72.80527      1.222     2.16     4.864735     20.54058     459.5857        23     1.128     0.870 -89.01   0
       293    990.9509    318.4987 300.4250416 +22.7674657     438.9367     72.86088      1.136     2.11     4.894513     20.54058     76.06084         6     0.729     0.499  -3.50   0
       294    376.4907    313.2591 300.2353562 +22.5818751     725.2657     72.87941      1.267     2.72     5.345688     20.54058     98.24594        13     0.940     0.854  24.00   0
       295    999.0115    311.5503 300.4298113 +22.7678811     1680.894     72.82381      1.269     2.15     4.898418     20.54058     265.4964        18     1.011     0.876 -68.10   0
       296     51.7498    307.6905 300.1362234 +22.4828979     1498.606     72.80527      1.734     3.71     5.033526     20.54058      131.805        20     1.268     0.961 -37.06   0
       297     82.4691    307.5713 300.1458045 +22.4920780     550.9153     72.78672      1.202     2.69     5.178905     20.54058     85.20916        10     0.871     0.766 -61.20   0
       298    945.3041    304.3246 300.4154076 +22.7497232     620.4916     72.95348      1.483     2.47     4.872057     20.54058      85.4855        10     0.935     0.675 -60.63   0
       299    789.1596    301.0176 300.3678077 +22.7020122     436.7347     72.82381      1.464     4.21     4.949801     20.54058     40.15841         7     0.735     0.694  49.53   0
       300    135.4105    299.5530 300.1648553 +22.5056552     522.9004     72.82381      1.684     3.92      5.42119     20.54058     63.54682        10     1.190     0.766  61.89   0
       301    930.5670    296.7341 300.4132762 +22.7431282     261.4452     72.80527      0.967     2.37     4.865223     20.54058      60.4968         6     0.647     0.637 -48.66   0
       302    811.6168    292.3615 300.3776157 +22.7062503     436.2827     72.82381      1.265     3.39     4.880953     20.54058     59.02895         8     1.158     0.684  70.17   0
       303    740.0999    290.8218 300.3558311 +22.6843872     664.8624     72.74961      1.224     1.96      5.27751     20.54058     134.0851        10     0.901     0.680 -18.99   0
       304    330.3771    290.6028 300.2283676 +22.5615457     399.1018     72.74961      1.023     2.70     5.401728     20.54058     60.11015         6     0.780     0.530  44.63   0
       305    830.6877    283.6301 300.3863934 +22.7094520     394.5132     72.78672      1.394     3.02     4.889627     20.54058     59.32565         6     0.883     0.463 -89.85   0
       306    838.1808    279.7309 300.3899944 +22.7105752     2281.717     72.80527      1.318     2.19     4.895544     20.54058     358.1635        21     1.157     0.879  62.22   0
       307    256.6501    277.3028 300.2097592 +22.5356236     2072.273     72.87941      1.227     2.12     5.456425     20.54058     305.4225        20     1.069     0.892  60.78   0
       308    334.4596    272.4382 300.2355325 +22.5575538     951.8251     72.82381      1.320     2.73     5.399361     20.54058     117.4415        13     0.946     0.827  35.28   0
       309    736.7153    271.4561 300.3610621 +22.6778078     613.5678     72.89793      1.254     2.60     5.340796     20.54058     78.09045         8     0.865     0.613 -55.52   0
       310     86.3052    272.6588 300.1583269 +22.4832095     320.8819     72.87941      1.099     2.92     5.399267     20.54058     60.56453         5     0.716     0.472  -5.07   0
       311    151.3502    264.9231 300.1810471 +22.5004959       798.64     72.80527      1.367     3.04      5.51304     20.54058     88.85754        13     1.060     0.766  -3.61   0
       312    269.6434    264.1139 300.2180790 +22.5357326     321.5735     72.78672      1.317     3.41     5.424578     20.54058     30.83681         5     0.779     0.432 -71.39   0
       313    689.2835    261.3596 300.3495633 +22.6606985     1581.597     72.76817      1.155     2.10     5.331317     20.54058     275.5712        15     0.933     0.832  77.28   0
       314      4.0014    262.2477 300.1361413 +22.4555358     245.1841     69.32864      1.426     4.20     5.454113     20.54058      32.8205         7     1.190     0.424  57.46  16
       315    754.1977    260.8744 300.3699432 +22.6800028     673.2633     72.71249      1.253     2.16     5.295168     20.54058     103.2939         9     0.813     0.658  18.19   0
       316    172.8609    257.6774 300.1900833 +22.5048664     564.0266     72.86088      1.226     2.57     5.518009     20.54058     91.11749         8     0.828     0.648  52.77   0
       317    960.5793    253.5238 300.4366597 +22.7396898     965.0425     72.80527      1.461     2.52     5.014445     20.54058     122.3715        14     0.930     0.871  79.11   0
       318    462.8060    253.7285 300.2815311 +22.5906494     228.3124     72.76817      1.123     2.62     5.383735     20.54058     54.71579         7     0.839     0.540 -30.49   0
       319    693.3224    252.6669 300.3536425 +22.6594102     799.6863     72.89793      1.135     2.03     5.348766     20.54058     145.4652        12     0.942     0.700  56.64   0
       320    613.8257    251.9006 300.3291332 +22.6353754     1215.136     72.74961      1.171     2.12     5.340722     20.54058      214.519        12     0.832     0.775 -36.62   0
       321    434.9016    248.3966 300.2745788 +22.5807553     403.0169     72.69392      1.375     3.21     5.353208     20.54058     58.23838         9     0.933     0.632  73.99   0
       322    809.1924    243.4920 300.3927210 +22.6914767     1430.902     72.71249      1.142     1.98     5.221941     20.54058      236.922        15     0.889     0.821  35.93   0
       323    540.0607    243.8438 300.3087826 +22.6109597     978.1232     72.80527      1.287     2.05     5.364069     20.54058     159.6203        13     0.920     0.781 -14.01   0
       324    821.2761    242.4497 300.3968252 +22.6947957     783.1567     72.80527      1.140     2.31     5.155443     20.54058     123.1587        12     0.899     0.732  71.02   0
       325    867.5149    241.7289 300.4114713 +22.7084345     314.7057     72.91645      1.038     1.86     4.885217     20.54058     65.47527         5     0.651     0.482 -72.45   0
       326    982.1593    233.3391 300.4499402 +22.7403457     1642.452     72.80527      1.290     2.21     5.224261     20.54058     233.1873        19     1.064     0.898  89.46   0
       327    938.0080    232.6868 300.4363833 +22.7269406     1163.066     72.71249      1.275     2.05     4.953829     20.54058     215.9604        17     1.001     0.866 -74.91   0
       328    172.0786    226.2457 300.2000393 +22.4956089     798.4343     72.80527      1.523     2.75     5.527527     20.54058     95.56429        11     0.940     0.763  76.70   0
       329     54.3621    225.2364 300.1637921 +22.4600194     223.3938     72.87941      1.150     3.40     5.948096     20.54058     32.06018         5     0.760     0.440  71.80   0
       330     33.9691    221.1024 300.1587991 +22.4527169     2152.085     72.74961      1.405     2.53     6.103867     20.54058     284.1146        24     1.195     0.986  47.17   0
       331    856.9935    217.6249 300.4160135 +22.6983540     779.9268     72.78672      1.204     1.98     5.005718     20.54058     141.0164        13     0.989     0.747 -74.03   0
       332    191.3194    214.3030 300.2098941 +22.4979493     5655.788     72.93497      1.302     2.33     5.471625     20.54058     640.1836        34     1.181     1.038  70.16   0
       333    172.7343    215.3351 300.2037831 +22.4926733     351.6629     72.86088      1.346     2.11     5.513886     20.54058      47.6393         5     0.692     0.451 -15.51   0
       334    174.7491    205.1039 300.2077287 +22.4903402     617.7178     72.87941      1.332     2.86     5.498029     20.54058     89.97633        11     0.944     0.770 -50.69   0
       335    990.1688    201.4399 300.4627893 +22.7335693     18200.62     72.82381      1.280     2.15     5.335137     20.54058     2901.226        56     1.217     1.116 -82.65   0
       336    835.3356    195.5567 300.4164234 +22.6855244     3607.323     72.80527      1.175     2.06     5.240125     20.54058     552.5881        30     1.074     1.036 -45.11   0
       337    939.0081    194.2478 300.4491681 +22.7161864     2797.443     72.82381      1.244     2.04     5.147473     20.54058     414.2199        22     1.038     0.911  69.17   0
       338    384.8593    190.9832 300.2776393 +22.5492672     469.4879     72.76817      1.175     2.52     5.360251     20.54058     88.08326        11     0.946     0.704  76.12   0
       339    308.9881    182.7252 300.2567208 +22.5241561       500.01     72.82381      1.153     2.37     5.361434     20.54058     99.90161         9     0.888     0.623  50.28   0
       340    843.8228    180.8074 300.4238540 +22.6838249     248.6519     72.78672      1.219     2.65      5.25567     20.54058     50.39354         5     0.895     0.341 -46.41   0
       341    312.9378    181.2013 300.2584434 +22.5249023     423.3481     72.76817      1.489     2.50     5.360104     20.54058     56.25718         5     0.648     0.550  83.84   0
       342     74.9682    180.0648 300.1848479 +22.4532337     682.2538     72.80527      1.451     2.67     5.797267     20.54058       85.584        10     0.890     0.712  16.22   0
       343    436.2063    178.2112 300.2977572 +22.5609856     1703.859     72.67534      1.239     2.24     5.367031     20.54058     235.5964        16     0.941     0.810 -88.76   0
       344    364.3996    178.8400 300.2752146 +22.5396477     532.8309     72.82381      1.231     2.52     5.360179     20.54058      74.5892         9     0.877     0.625  25.09   0
       345    179.4218    174.1503 300.2192227 +22.4828544     381.6592     72.80527      1.311     2.93     5.455831     20.54058     59.02966         7     0.915     0.486 -83.54   0
       346    260.4378    173.8029 300.2445192 +22.5070413     155.6428     72.84235      0.986     3.46     5.360797     20.54058     41.29603         5     1.007     0.343  67.75   0
       347    724.4352    167.2785 300.3910404 +22.6441861     460.1891     72.74961      1.241     3.14     5.492858     20.54058     57.52951        10     0.913     0.796 -69.95   0
       348    870.9120    162.1624 300.4383470 +22.6865740     363.8672     72.78672      1.534     3.96     5.297209     20.54058     39.55395         7     0.841     0.689 -52.14   0
       349   1000.4418    158.8107 300.4798241 +22.7243831     3633.417     72.80527      1.375     2.21     5.356013     20.54058     492.1315        32     1.439     1.029 -26.90   0
       350    210.2274    158.1675 300.2339821 +22.4875004       5900.7     72.80527      1.334     2.40     5.391219     20.54058     736.4752        35     1.171     1.078  72.28   0
       351     61.3252    158.0187 300.1877611 +22.4428144     699.1087     72.80527      1.676     4.18     5.902385     20.54058     73.69743        12     1.164     0.796 -71.03   0
       352    716.5707    158.5454 300.3914235 +22.6393205     363.6567     72.80527      1.163     2.81     5.503972     20.54058     60.42531         6     0.867     0.448 -17.04   0
       353    839.5286    155.3127 300.4307865 +22.6752086     462.0471     72.95348      1.400     2.86     5.358561     20.54058     53.28911         7     0.906     0.487  81.72   0
       354    182.2998    152.0106 300.2272988 +22.4773604     252.1862     72.71249      1.210     2.53     5.443149     20.54058     70.46684         7     0.893     0.643 -43.31   0
       355    225.7979    148.8740 300.2418367 +22.4894992     366.0507     72.71249      1.354     4.20     5.367053     20.54058     48.07874         7     1.131     0.445 -56.42   0
       356    456.2803    143.4080 300.3152932 +22.5570019     6124.728     72.74961      1.237     2.29     5.388148     20.54058     797.5245        33     1.117     0.994  75.97   0
       357    341.5948    143.1825 300.2796884 +22.5225715     743.7334     72.76817      1.253     2.68     5.354259     20.54058      109.155        12     0.942     0.787  71.47   0
       358    708.9321    132.7567 300.3974093 +22.6296197     835.9969     72.78672      1.512     2.07     5.624489     20.54058      122.834        11     0.921     0.693 -74.41   2
       359    513.1863    137.6959 300.3348557 +22.5724096     245.2059     72.73106      1.118     2.58     5.430481     20.54058     47.60303         5     0.742     0.428 -16.24   0
       360    801.5067    131.5702 300.4266382 +22.6569981     448.1881     72.74961      1.109     3.11     5.417405     20.54058     66.14975         6     0.882     0.487 -56.97   0
       361    869.1503    128.6224 300.4486778 +22.6764016      288.826     72.80527      1.476     3.77     5.408352     20.54058     45.86146         6     1.183     0.345  48.81   0
       362    149.1427    127.1124 300.2250700 +22.4602715     472.5244     72.87941      1.331     3.35      5.52998     20.54058     60.56708        10     0.918     0.737  -3.92   0
       363    507.6352    125.4788 300.3370906 +22.5672361     452.6951     72.74961      1.193     2.30     5.426704     20.54058     74.50602         7     0.768     0.624 -73.37   0
       364    584.6099    123.3615 300.3617391 +22.5896855     6114.507     72.80527      1.186     2.20     5.470263     20.54058     884.2817        32     1.127     0.968  80.34   0
       365    359.5454    122.6093 300.2919444 +22.5220412      1457.81     72.80527      1.248     2.35     5.362137     20.54058     202.1017        17     1.033     0.819  89.10   0
       366    625.7400    120.7640 300.3753884 +22.6012580     808.6544     72.82381      1.285     2.16     5.532668     20.54058     136.5615        13     0.907     0.812  79.89   0
       367    641.7253    116.8606 300.3816325 +22.6049236     624.5102     72.86088      1.414     2.73     5.592376     20.54058     92.71771        12     0.934     0.860 -41.88   0
       368    108.5709    114.9423 300.2164101 +22.4446140     758.2706     72.80527      1.431     3.02     5.617366     20.54058     92.04529        13     1.106     0.757 -73.98   0
       369    911.6774    114.2577 300.4665953 +22.6850005      495.114     72.84235      1.158     2.61     5.467656     20.54058     96.18286        10     0.919     0.691  26.12   0
       370    951.0181    114.0061 300.4789439 +22.6967032        254.7     72.76817      1.065     2.31      5.47435     20.54058     57.20662         7     0.863     0.477 -44.68   0
       371    680.3410    112.0039 300.3952345 +22.6150920     493.4304     72.76817      1.198     3.00     5.721313     20.54058     83.47653        10     0.924     0.768  61.97   0
       372    628.9359    108.3022 300.3804254 +22.5986332     2720.322     72.91645      1.197     2.06     5.570572     20.54058     415.7673        22     0.988     0.946  86.68   0
       373    269.5868    109.1039 300.2683491 +22.4912028     478.0425     72.73105      1.339     2.74      5.37159     20.54058     63.58086         8     0.940     0.547 -67.80   0
       374    644.0125    107.0647 300.3855219 +22.6027928     783.5807     72.74961      1.554     4.72     5.632211     20.54058     89.13672        14     1.378     0.681  46.44   0
       375    715.3870     99.8463 300.4100944 +22.6220913     1421.469     72.82381      1.170     1.94     5.787192     20.54058     251.2402        17     1.043     0.819  70.43   0
       376    793.1384     94.1400 300.4361705 +22.6437300     370.6557     72.84235      1.244     5.01     5.488405     20.54058     38.04712         7     1.051     0.675  64.67   0
       377    653.2307     92.9368 300.3929747 +22.6014923     601.4537     72.82381      1.188     2.22     5.713695     20.54058     117.4987        10     0.792     0.730  -5.23   0
       378    458.8204     92.3516 300.3326428 +22.5430933     1126.832     72.84235      1.253     2.13     5.442817     20.54058     175.6129        15     0.986     0.798  79.80   0
       379     31.6511     92.3158 300.1998526 +22.4150562     521.8008     72.78672      1.461     3.06     5.993564     20.54058     69.78442        11     1.025     0.705  51.14   0
       380    362.7237     90.6660 300.3032925 +22.5138172     912.6384     72.89793      1.466     2.31      5.43961     20.54058     107.0413        12     0.851     0.797  23.07   0
       381    745.1169     89.2967 300.4227779 +22.6279600     483.1912     72.97198      1.401     3.69     5.778185     20.54058     56.47015         9     0.897     0.740  77.15   0
       382   1005.7395     87.1995 300.5047046 +22.7053686     2409.647     72.76817      1.328     2.54     5.528279     20.54058      266.802        22     1.095     0.941 -72.73   0
       383    134.1763     80.6375 300.2354908 +22.4424404         3885     72.82381      1.492     2.61     5.615257     20.54058     478.7189        33     1.225     1.182  82.27   0
       384    702.1348     80.8825 300.4121162 +22.6126711      536.799     72.91645      1.128     2.54     5.818448     20.54058     91.82246         9     0.848     0.674 -27.71   0
       385    556.5536     77.8708 300.3677576 +22.5682078     278.6907     72.78672      1.046     3.41     5.613327     20.54058     44.76772         6     0.780     0.497 -88.01   0
       386    459.6477     77.9583 300.3375678 +22.5392052     255.6828     72.84235      1.233     3.11     5.578529     20.54058      45.9339         8     0.817     0.687  -8.73   0
       387    250.1825     72.9164 300.2740512 +22.4749938      1149.98     72.76817      1.356     2.66     5.642779     20.54058     155.6351        17     1.077     0.969  83.58   0
       388    695.5239     72.8573 300.4126594 +22.6083844     952.5168     72.84235      1.272     2.18     5.821626     20.54058     131.7533        14     0.927     0.791  84.62   0
       389    180.6466     72.7833 300.2524792 +22.4541146     256.8644     72.84235      1.806     3.71     5.565107     20.54058     28.60844         5     0.981     0.403  -5.51   0
       390    733.2630     68.1251 300.4259505 +22.6183235     733.8318     72.84235      1.486     4.37     5.864537     20.54058     84.34988        14     1.303     0.747  82.18   0
       391    656.7213     67.8493 300.4021974 +22.5953256     358.8552     72.80527      1.137     2.06     5.760624     20.54058     80.95906         8     0.742     0.647 -39.47   0
       392    753.3248     64.1791 300.4334806 +22.6231953     2144.879     72.80527      1.221     2.21     5.831479     20.54058     322.6372        16     0.956     0.815  84.73   0
       393    800.4225     62.4407 300.4487204 +22.6367952     138.4621     72.84235      1.103     3.88     5.711333     20.54058      32.1048         5     1.049     0.410  73.45   0
       394    458.8769     62.6632 300.3422877 +22.5345792     472.3887     72.87941      1.246     2.47     5.723131     20.54058     81.30592         8     0.809     0.667  52.32   0
       395    136.5712     59.7808 300.2429978 +22.4371693     921.4872     72.80527      1.391     2.43     5.648931     20.54058     116.5793        16     1.016     0.871 -64.37   0
       396    928.3273     57.5393 300.4901811 +22.6736696     748.9208     72.84235      1.230     2.78     5.522458     20.54058     99.56983        14     1.021     0.799  61.19   0
       397    701.7113     56.7532 300.4198089 +22.6056069     985.7731     72.78672      1.357     2.50     5.843587     20.54058     131.7654        14     0.986     0.829  65.34   0
       398    408.2536     55.2121 300.3289525 +22.5172726     397.3297     72.82381      2.128     5.78     5.802006     20.54058      43.1158         9     1.419     0.662 -45.97   0
       399    321.3085     50.6596 300.3033841 +22.4899146     122.0974     72.87941      1.091     2.85     5.907641     20.54058     39.96498         5     0.729     0.449 -15.41   0
       400    459.6733     48.9470 300.3469829 +22.5308762     215.1303     72.82381      1.227     3.05     5.858593     20.54058      47.0305         7     0.836     0.589 -58.61   0
       401    286.5334     46.4911 300.2939217 +22.4782968     430.8918     72.95348      1.341     3.68     5.964957     20.54058     40.86177         6     0.910     0.427  18.82   0
       402    554.0496     41.6448 300.3787247 +22.5570457     848.1851     72.84235      1.214     2.23     5.909632     20.54058     143.5234        14     0.922     0.830  28.32   0
       403    163.7220     39.2073 300.2581056 +22.4393993     461.8684     72.73106      1.386     3.06     5.555115     20.54058     60.34486         9     0.883     0.728 -16.46   0
       404    717.1733     36.3945 300.4312268 +22.6043827     735.8976     72.78672      1.301     2.50     5.898635     20.54058     104.9255        11     0.929     0.673  74.20   0
       405    525.8821     34.6439 300.3722263 +22.5465972     1708.039     72.76817      1.202     2.14     5.995156     20.54058     306.4731        17     0.963     0.852  60.31   0
       406    248.6114     32.2084 300.2867616 +22.4628302     732.4194     72.69392      1.458     2.99     6.095614     20.54058     87.02568        13     1.115     0.702  54.30   0
       407    483.2144     28.5803 300.3609122 +22.5320748     1325.079     72.76817      1.291     2.36     6.050926     20.54058     200.4985        17     1.002     0.972  45.30   0
       408    588.5258     25.2522 300.3947731 +22.5626585     1358.938     72.82381      1.203     2.33     5.915486     20.54058     188.5588        16     0.990     0.795  83.30   0
       409    184.0266     24.3563 300.2692309 +22.4412197     614.6161     72.82381      1.467     2.61     5.759264     20.54058     60.91925         9     0.832     0.686  59.00   0
       410    232.9391     22.0855 300.2851711 +22.4552260     470.6174     72.91645      1.381     3.25     6.191229     20.54058     42.80077         9     0.802     0.756 -23.09   0
       411    523.5437   1021.3273 300.0509308 +22.8291712     1478.277     68.13035      1.621     3.33     4.129934     20.54058     124.6824        18     1.075     1.024  44.12  16
       412    417.8575   1017.8265 300.0191876 +22.7964448     961.2933     72.80527      1.547     3.77     4.122812     20.54058     95.52264        18     1.148     1.067 -71.28  16
       413    348.0929   1015.8875 299.9981209 +22.7749449     6559.226     72.97198      1.658     3.14     4.704874     20.54058     630.0912        43     1.381     1.272 -31.79  16
       414    701.1448   1018.0348 300.1072956 +22.8815201     230.6971     72.82381      1.382     4.13     4.017566     20.54058     34.30682         5     0.916     0.653 -60.76  16
       415     40.1135    994.6492 299.9093272 +22.6763679     2973.417     72.80527     10.766    45.92     24.53611     20.54058     74.91312       604     8.558     6.839 -32.69  27
       416     88.7973   1004.8887 299.9211145 +22.6939255     765.5638     72.71249      4.677     4.69       25.984     20.54058      43.4273         5     1.449     0.431 -68.28   0
