#   1 NUMBER                 Running object number                                     
#   2 X_IMAGE                Object position along x                                    [pixel]
#   3 Y_IMAGE                Object position along y                                    [pixel]
#   4 ALPHA_J2000            Right ascension of barycenter (J2000)                      [deg]
#   5 DELTA_J2000            Declination of barycenter (J2000)                          [deg]
#   6 FLUX_APER              Flux vector within fixed circular aperture(s)              [count]
#   7 FLUXERR_APER           RMS error vector for aperture flux(es)                     [count]
#   8 FLUX_RADIUS            Fraction-of-light radii                                    [pixel]
#   9 FWHM_IMAGE             FWHM assuming a gaussian core                              [pixel]
#  10 BACKGROUND             Background at centroid position                            [count]
#  11 THRESHOLD              Detection threshold above background                       [count]
#  12 FLUX_MAX               Peak flux above background                                 [count]
#  13 ISOAREA_IMAGE          Isophotal area above Analysis threshold                    [pixel**2]
#  14 A_IMAGE                Profile RMS along major axis                               [pixel]
#  15 B_IMAGE                Profile RMS along minor axis                               [pixel]
#  16 THETA_IMAGE            Position angle (CCW/x)                                     [deg]
#  17 FLAGS                  Extraction flags                                          
         1    582.3920     13.1283 300.3947920 +22.5626638     1372.885     72.49416      1.245     2.40     4.536285     20.45802     177.5489        17     0.966     0.882  71.96   0
         2    177.7344     12.4144 300.2691309 +22.4412446     481.5047     72.49416      1.228     2.37     5.285857     20.45802     79.05633         8     0.748     0.731 -17.09   0
         3    226.3591     10.1288 300.2849877 +22.4551586     544.5061     72.47569      1.317     3.56     4.946671     20.45802     67.86389         7     0.772     0.616  61.96   0
         4    402.7590      6.9802 300.3408723 +22.5071004     2180.324     72.54957      1.303     2.16     4.743787     20.45802     326.0119        20     1.000     0.955  84.24  16
         5     49.8224      5.0003 300.2317858 +22.4007800     1520.049       71.826      1.494     2.62     5.758233     20.45802      188.353        20     1.070     1.020  49.70  16
         6    893.9605      4.6645 300.4946182 +22.6534915     262.3223     71.01968      1.249     2.76     4.712494     20.45802     41.51593         5     0.787     0.476  55.98  16
         7    533.7602      1.9171 300.3832849 +22.5448787     346.4588     59.68695      1.122     1.92     4.516775     20.45802     79.94593         7     0.702     0.616  78.94  24
         8    760.7950   1011.5699 300.1259934 +22.9028934     360.7699     72.49416      1.729     4.18     3.703825     20.45802     35.13004         5     1.108     0.450  58.56   0
         9    169.4859   1017.2178 299.9401607 +22.7270459     1203.477     72.45721     10.132    11.95     17.88007     20.45802     43.09993        28     3.335     1.193   4.17  19
        10    199.9071   1012.9871 299.9509922 +22.7349688     872.7631     72.43872     14.006    17.39     10.69715     20.45802     63.12384        29     4.522     1.858  -4.59  19
        11    188.5897   1022.8585 299.9442614 +22.7343992     2131.858     60.84258     10.190    24.92     14.00824     20.45802     77.41634       148     7.282     2.368  11.68  27
        12    192.2879   1018.6986 299.9467649 +22.7343176     1999.525     72.67868      9.046    18.81     12.93842     20.45802     66.50758        70     6.704     1.467  43.84  19
        13    122.9067   1021.8682 299.9241736 +22.7143898     648.1493     65.73108      2.385     3.70     29.68546     20.45802     33.39576         5     1.510     0.260  67.74  25
        14    113.7104   1022.2881 299.9211797 +22.7117482     818.4831     63.80803      6.108     8.49     31.86473     20.45802     36.88042        13     1.513     1.330   4.93  25
        15    107.5315   1022.8320 299.9190830 +22.7100482     1040.711     60.99647      8.884    10.99     33.59692     20.45802     42.49387        26     2.282     1.475 -60.61  27
        16    103.1087   1021.1876 299.9182443 +22.7082487     1951.445     68.32856      5.636    11.26     34.23809     20.45802     60.07148        37     1.993     1.773 -73.69  19
        17     99.6817   1020.0410 299.9175529 +22.7068909     1342.718     71.69536      2.845     5.35     34.66133     20.45802     54.06108        10     1.824     0.443  61.89  19
        18     81.0776   1014.3177 299.9136366 +22.6996634     1306.334     72.62337      8.926    10.27     40.79712     20.45802     47.98034        24     2.021     1.456  13.99  19
        19     83.8574   1018.6512 299.9130894 +22.7017398     1363.497     72.56802     11.817    11.75     41.31779     20.45802     52.76767        31     3.602     1.068  -5.62  19
        20     86.1181   1022.7029 299.9124728 +22.7035797     1081.683     61.80354      3.485     7.19     41.81496     20.45802     44.88666        16     1.276     1.134 -74.79  27
        21     54.8160   1022.5889 299.9027868 +22.6941450     1271.695     62.25695     12.114    15.02     57.40143     20.45802     50.25171        41     3.610     1.739  -3.36  27
        22     41.1176    996.2192 299.9071157 +22.6824757     1285.156     72.49416     11.268    16.87     47.82088     20.45802     49.65068        40     3.745     2.113 -24.58   3
        23     40.1950   1019.5751 299.8992268 +22.6888897     3308.446     72.47569      6.459    27.82     63.07991     20.45802     76.90869       194     4.965     4.329  58.16  27
        24     36.4781   1009.6185 299.9013134 +22.6849208     2562.142     72.51264      5.604    16.03     58.58983     20.45802     76.01874        70     3.293     2.170 -58.00  19
        25     34.3565   1002.1016 299.9031012 +22.6821301      1960.12     72.51264      5.387    16.41     54.21368     20.45802       63.527        64     4.482     1.671  -1.31  19
        26    517.4929   1009.1033 300.0510313 +22.8291907     1584.308     72.69711      1.602     3.31     3.548127     20.45802     142.3616        21     1.237     1.028  70.23   0
        27     68.2495   1003.4373 299.9131935 +22.6926930     1656.384     72.51264     11.124    13.21     41.56647     20.45802     53.68408        43     2.295     2.115 -62.08   2
        28    341.8624   1003.7492 299.9981328 +22.7749413     6439.501     72.56802      1.682     3.34     3.528457     20.45802     513.5735        46     1.396     1.349  62.19   0
        29    411.2646   1005.6942 300.0190868 +22.7963317     1036.349     72.62337      1.633     3.93     3.545006     20.45802     93.11275        17     1.148     1.007  11.23   0
        30    158.1693   1023.0341 299.9347507 +22.7253141     492.9456     59.95561      2.829     4.73     21.38164     20.45802     39.25133         5     1.245     0.510 -23.20  24
        31     54.9767   1004.0438 299.9088734 +22.6888801     1240.136     72.56802     10.878    11.90      47.1899     20.45802     42.95763        25     2.442     1.614  88.21  19
        32     48.5139    991.7307 299.9108739 +22.6834113     1199.312     72.62337      6.431     7.80     42.71975     20.45802     53.00121        21     1.550     1.121  75.22   1
        33     34.9997    980.9997 299.9101692 +22.6762776     748.8111     72.29066      2.409     4.05     40.19885     20.45802     40.89242         5     1.307     0.359  50.14   3
        34     37.1881    986.6954 299.9089951 +22.6785668     1800.537     72.43872      8.740    16.57     43.48894     20.45802     55.75957        51     3.301     2.311   3.92   3
        35     29.7276    986.5832 299.9067146 +22.6762938     1431.356     72.51264      7.110    13.06     45.60281     20.45802     64.10806        31     2.582     1.839 -75.95   3
        36     37.5550    973.2825 299.9134745 +22.6748341     2136.799     72.47569      5.835    19.38     34.33511     20.45802     49.97328        86     3.574     2.920 -21.86   3
        37    374.8395    990.3846 300.0127397 +22.7810088     484.4442     72.53111      1.859     2.46     3.576543     20.45802     48.49298         6     0.710     0.604  75.63   0
        38    814.9758    987.2305 300.1508000 +22.9121587     235.4345     72.51264      1.421     4.82     3.907184     20.45802     29.18302         5     0.981     0.670 -30.44   0
        39    888.3120    982.2524 300.1752791 +22.9327214     2229.319     72.53111      1.727     3.50     3.838362     20.45802      170.278        30     1.419     1.190 -53.45   0
        40    538.5398    980.0011 300.0670556 +22.8271598     415.2782     72.47569      1.508     2.34     3.676889     20.45802     44.86815         6     0.751     0.496 -85.53   0
        41    387.0909    978.5173 300.0204132 +22.7812836     262.9772     72.64182      1.313     4.64     3.598224     20.45802     28.58729         6     1.271     0.481  -6.62   0
        42    676.8169    971.2451 300.1129599 +22.8661333     788.5795     72.53111      1.894     5.03     3.656086     20.45802     55.82646        16     1.263     0.960  60.42   0
        43   1004.2200    970.4816 300.2152539 +22.9640924     447.8652     72.49416      1.794     4.83     3.789061     20.45802     40.44491         9     0.930     0.794  27.42   0
        44     30.5324    976.4270 299.9102700 +22.6736258     1946.771     72.49416      4.225    13.23      37.9163     20.45802     55.15425        42     2.958     1.647 -74.41   3
        45    798.8005    966.8372 300.1523976 +22.9014552     190.6439     72.51264      1.733     5.37     3.908355     20.45802     26.63083         6     1.215     0.670  36.60   0
        46    711.6727    965.4180 300.1257135 +22.8749167     939.0714     72.51264      1.535     3.17      3.75727     20.45802     102.7251        16     1.049     0.949  61.79   0
        47    489.5395    965.9147 300.0563900 +22.8084161     345.2738     72.62337      1.326     4.09     3.684833     20.45802     39.79315         6     1.008     0.473  35.81   0
        48    869.0404    963.5762 300.1753509 +22.9215821     288.8387     72.54957      1.555     4.71     3.814265     20.45802     34.00246         5     1.032     0.610  69.70   0
        49    734.0685    959.0825 300.1347525 +22.8798160     11471.84     72.62337      1.546     3.01     3.846921     20.45802     994.5145        58     1.389     1.337 -55.54   0
        50    924.0128    959.4766 300.1938234 +22.9368876     3497.381     72.53111      1.179     2.82     3.747684     20.45802     1617.846        10     1.139     0.206 -27.20   0
        51    779.9536    958.8935 300.1491103 +22.8935234     399.7281     72.53111      1.331     2.92     3.893304     20.45802     52.99025         9     0.975     0.791 -86.73   0
        52    866.8314    952.3999 300.1783001 +22.9177117     290.8964     72.45721      1.356     5.08     3.778794     20.45802     33.07029         8     1.088     0.670 -59.35   0
        53     45.9314    951.3608 299.9232102 +22.6710689     231.5815     72.47569      1.381     4.58     19.61568     20.45802     46.55347        10     1.019     0.908 -24.18   0
        54    785.9747    946.7151 300.1549503 +22.8918340      295.769     72.47569      1.345     4.15     3.913168     20.45802      41.9304         8     1.051     0.676  88.00   0
        55    439.3127    947.2719 300.0468287 +22.7879970     489.9629     72.66025      1.522     3.21     3.680375     20.45802     49.59887         6     0.749     0.545  49.87   0
        56    742.6378    941.1458 300.1432601 +22.8772389      1480.85     72.51264      1.616     3.22     3.946705     20.45802     138.9541        21     1.212     1.052  33.42   0
        57    925.7579    939.9998 300.2007070 +22.9318194     482.9981     72.53111      1.463     4.09     3.721008     20.45802     55.55387         9     1.086     0.637 -42.62   0
        58    594.8432    938.1424 300.0982072 +22.8320453     452.0573     72.47569      1.568     4.63     3.723554     20.45802     41.28189         8     0.964     0.690  59.89   0
        59    780.6979    934.7022 300.1572158 +22.8868038     792.6551     72.71552      1.626     4.21     3.933362     20.45802     75.51969        15     1.233     0.868 -89.04   0
        60    120.6493    934.1071 299.9520356 +22.6885631     545.0569     72.54957      3.771     6.93     8.064012     20.45802     39.13998        11     1.323     1.044  33.26   0
        61    889.0170    931.9020 300.1918876 +22.9184795     228.6739     72.43872      1.231     2.90     3.714005     20.45802      39.1342         7     0.863     0.525 -49.81   0
        62    829.1216    925.7354 300.1752246 +22.8987509     520.5334     72.60493      1.453     2.97      3.82449     20.45802     75.16425        13     0.966     0.883  -6.69   0
        63    680.4981    924.9092 300.1291873 +22.8539424     666.0802     72.69711      1.353     3.28     3.739603     20.45802     71.61086        12     1.033     0.769 -82.59   0
        64    691.9399    922.1632 300.1336448 +22.8565862     530.0259     72.53111      1.383     4.40     3.815074     20.45802     53.07265        10     0.953     0.766 -65.08   0
        65    393.0494    921.4202 300.0408490 +22.7666996     4181.522     72.49416      1.494     2.79     3.756256     20.45802     386.0638        32     1.206     1.145 -30.05   0
        66    844.4400    918.2319 300.1824410 +22.9011901     288.7071     72.54957      1.528     5.20     3.779558     20.45802     34.66891         7     1.082     0.706 -27.08   0
        67    171.6307    909.7748 299.9757948 +22.6968968     250.2001     72.51264      1.217     3.96     4.917023     20.45802     43.79774         5     0.957     0.468  81.96   0
        68    436.4756    909.2372 300.0583234 +22.7762376     225.2334     72.45721      0.994     3.09     3.804838     20.45802      40.8101         5     0.729     0.472  72.82   0
        69    118.3063    907.0701 299.9601053 +22.6801108       875.51     72.64182      1.949     3.72     6.029976     20.45802     94.45171        13     1.206     0.807 -76.25   0
        70     95.4655    904.4117 299.9538741 +22.6724905      1755.47     72.47569      1.751     3.80     6.356191     20.45802      154.055        25     1.398     1.098 -46.52   0
        71    967.2933    893.0292 300.2289451 +22.9307845     2224.119     72.43872      1.674     3.50     3.848442     20.45802     169.8578        27     1.289     1.180  21.43   0
        72    921.3878    891.5771 300.2151030 +22.9166071     2071.035     72.51264      1.590     3.16     3.706643     20.45802     184.5114        24     1.207     1.085  -5.52   0
        73    627.0421    891.6307 300.1233688 +22.8283596     480.3753     72.54957      1.796     2.81     3.856531     20.45802     48.86562         6     0.833     0.573  87.55   0
        74    704.8055    885.2812 300.1496540 +22.8498608      636.079     72.43872      1.513     2.76     4.045406     20.45802     66.67443        11     0.890     0.789 -34.00   0
        75    127.2146    885.9475 299.9697455 +22.6767316     452.1013     72.53111      1.433     4.88     5.084371     20.45802     50.85685        11     1.069     0.742  -3.66   0
        76    452.7945    883.8268 300.0716690 +22.7738462     304.4346     72.49416      1.313     4.13     3.909122     20.45802     33.03101         6     1.206     0.404 -29.45   0
        77    573.0098    879.4339 300.1105140 +22.8086524     4887.677     72.47569      1.426     2.66     3.946836     20.45802     519.2641        35     1.162     1.147 -29.82   0
        78     62.8043    880.1104 299.9516345 +22.6557185     589.0046     72.42023      2.828     4.77     4.863308     20.45802     39.42391         9     1.039     0.699  26.65   0
        79    375.2115    876.4698 300.0499263 +22.7484556     726.1862     72.53111      1.534     3.87     4.183635     20.45802     78.33035        14     1.176     0.879 -34.14   0
        80    123.0664    873.3527 299.9725542 +22.6718761     1386.877     72.53111      1.634     3.40     4.637831     20.45802     132.5184        21     1.253     1.038  11.10   0
        81    593.4980    871.9199 300.1193374 +22.8126423    -4835.535     72.64182      1.382     3.71     3.941308     20.45802     77.43207        13     1.059     0.947 -49.98   0
        82    142.9601    870.4222 299.9796889 +22.6770089     403.3629     72.54957      1.318     3.22     4.566249     20.45802     50.53829         6     0.785     0.645 -28.25   0
        83   1005.0193    860.0325 300.2514480 +22.9326161     466.2416     72.51264      1.906     6.81     4.133685     20.45802     39.71077        10     1.474     0.883  32.22   0
        84    749.1219    859.2412 300.1719326 +22.8556766     4180.489     72.49416      1.428     2.64     4.172481     20.45802     460.5591        30     1.146     1.089  16.95   0
        85    965.9252    859.3126 300.2394894 +22.9206925     1078.641     72.64182      1.506     3.43     3.931876     20.45802     108.4445        20     1.176     1.052 -36.90   0
        86    480.0585    856.1486 300.0891579 +22.7740869     465.9982     72.56802      1.770     3.90     3.956323     20.45802      39.3742         6     0.936     0.465 -31.81   0
        87    157.7481    853.3879 299.9898256 +22.6765655     496.4146     72.51264      1.653     2.92     4.440204     20.45802     62.45558         8     0.926     0.751  64.63   0
        88    466.0474    851.8401 300.0861995 +22.7686474     673.0442     72.56802      1.438     2.84     3.997648     20.45802     77.15101        10     0.871     0.750  42.78   0
        89    112.4265    849.6965 299.9769440 +22.6619009     929.8784     72.45721      1.558     3.16     4.205547     20.45802     113.8601        18     1.224     0.907   6.33   0
        90    262.1013    841.9062 300.0259963 +22.7045978     52636.51     72.69711      1.493     2.76     4.527555     20.45802      5648.34       104     1.436     1.400  63.80   0
        91    519.9268    840.8082 300.1065564 +22.7816465      1673.29     72.49416      1.405     2.60     3.986646     20.45802      219.842        21     1.118     0.939 -86.37   0
        92    933.0818    839.9315 300.2355532 +22.9052829     1054.242     72.62337      1.764     3.93     3.865367     20.45802     75.34399        18     1.201     1.003   1.87   0
        93    527.7468    845.1312 300.1075841 +22.7852327     622.4018     72.53111      1.664     2.90     3.992204     20.45802     67.29032         9     0.886     0.671  20.57   0
        94    190.5235    839.8198 300.0044251 +22.6825148      417.365     72.51264      1.391     3.62     4.418841     20.45802     57.14164        11     0.936     0.878 -84.74   0
        95    548.8940    836.8061 300.1168750 +22.7891877     864.9415     72.40173      1.282     2.42     4.007589     20.45802     144.5382        11     0.864     0.778  53.99   0
        96    559.7112    834.9210 300.1208556 +22.7918916     643.4057     72.64182      1.504     4.42     4.004411     20.45802     63.40177        10     1.090     0.663  49.64   0
        97    879.8508    832.2550 300.2214542 +22.8871229     383.2662     72.54957      1.440     3.65     3.949141     20.45802     46.50002         6     0.820     0.754  15.79   0
        98    665.1224    831.3985 300.1548242 +22.8224961      405.205     72.42023      1.265     2.86     4.035892     20.45802     63.78402         7     0.796     0.674 -72.73   0
        99    311.8124    819.1219 300.0488644 +22.7129833     31166.39     72.51264      1.456     2.61     4.502524     20.45802      3633.53        75     1.321     1.310  58.44   0
       100    702.7854    821.7105 300.1697069 +22.8310097     823.3983     72.45721      1.550     3.24     4.116589     20.45802     80.61053        14     1.079     0.881 -17.19   0
       101    326.0500    819.5787 300.0531434 +22.7173869     1929.763     72.51264      1.417     2.79     4.474847     20.45802     214.6454        20     1.075     0.942 -50.19   0
       102    835.0143    814.8509 300.2131398 +22.8686852     2754.735     72.53111      1.414     2.71      4.09205     20.45802     327.8479        26     1.198     1.066  17.73   0
       103    322.8576    813.2967 300.0541939 +22.7146272     597.6198     72.58648      1.505     3.34     4.481225     20.45802     62.74236        10     0.973     0.712  37.79   0
       104    592.7697    810.9572 300.1389429 +22.7949308      1028.53     72.54957      1.418     2.42     4.014075     20.45802     144.3703        16     1.044     0.848  25.34   0
       105    194.2134    810.9691 300.0149562 +22.6753507     658.1475     72.49416      1.336     3.80     4.279802     20.45802      99.3333        13     1.130     0.920 -75.41   0
       106    429.3198    811.0859 300.0880287 +22.7459374     412.0512     72.67868      1.404     3.24     4.405482     20.45802     47.71264         6     0.759     0.597 -32.13   0
       107    439.8164    805.7446 300.0930319 +22.7475543     806.0164     72.47569      1.264     2.52     4.338827     20.45802     122.4179        13     0.915     0.850 -47.42   0
       108    341.8967    802.2551 300.0637063 +22.7171736     440.2917     72.60493      1.217     2.82      4.44376     20.45802     56.53863         9     0.913     0.626  68.07   0
       109    841.0679    802.3796 300.2190834 +22.8669191     538.6015     72.51264      1.592     3.44     4.163815     20.45802     61.68785         8     0.960     0.602  23.60   0
       110    385.4495    800.3577 300.0778701 +22.7296975     448.2313     72.53111      1.383     2.79     4.510483     20.45802     53.76545         8     0.790     0.746  29.17   0
       111    297.7877    801.8256 300.0501290 +22.7038142     234.8743     72.51264      1.467     3.64      4.53222     20.45802      36.3305         5     1.009     0.377  -2.43   0
       112     27.6653    800.5226 299.9666084 +22.6223573     658.3594     72.60493      1.915     6.31     4.137062     20.45802     47.84084        15     1.415     0.920  14.71   0
       113    594.6396    799.8491 300.1431382 +22.7923039     369.4141     72.54957      1.425     1.94     4.024803     20.45802     50.06075         5     0.692     0.441  69.07   0
       114    818.7029    797.2230 300.2137901 +22.8587342     420.2711     72.43872      1.232     2.73     4.146077     20.45802     64.30952         9     0.878     0.687  24.44   0
       115    192.1332    795.6312 300.0192981 +22.6703286     567.8801     72.51264      1.578     3.08     4.197765     20.45802     64.55624         8     0.879     0.614  -1.59   0
       116    202.2764    791.4904 300.0237974 +22.6721858     1344.381     72.66025      0.771     1.37     4.235058     20.45802     480.8794         6     0.639     0.437  78.36   0
       117    515.1752    785.4262 300.1230918 +22.7643311     489.4758     72.47569      1.382     2.40     4.105496     20.45802     68.58472         8     0.809     0.659  44.61   0
       118    484.8074    783.7249 300.1141938 +22.7547338      640.883     72.45721      1.270     2.40     4.074144     20.45802     94.12835         9     0.793     0.722  65.84   0
       119    394.1650    783.0597 300.0862072 +22.7273505     183.3372     72.53111      1.072     3.77     4.533387     20.45802     42.35326         5     0.835     0.489  31.84   0
       120    901.2446    780.1318 300.2450790 +22.8785679     4481.113     72.47569      1.395     2.70     4.176067     20.45802     497.4556        30     1.138     1.121  22.39   0
       121    506.8267    781.2767 300.1218429 +22.7606363     1346.651     72.53111      1.284     2.31     4.123628     20.45802     191.8868        18     0.996     0.936  47.18   0
       122    426.4219    780.8057 300.0969756 +22.7363814     316.4502     72.49416      1.383     2.74     4.529668     20.45802     48.78194         6     0.736     0.621  30.78   0
       123    889.8150    771.4876 300.2443271 +22.8726598    -888.8392     72.45721     -8.770     2.63     4.223311     20.45802      200.774        21     1.124     1.036 -46.36   0
       124    657.5101    771.3447 300.1719869 +22.8029769     306.2567     72.54957      1.284     4.16     3.988909     20.45802     36.42088         6     1.064     0.464  -6.09   0
       125    252.6003    765.7786 300.0478025 +22.6799159     907.1087     72.43872      1.415     2.71     4.273952     20.45802       103.41        16     1.040     0.860 -54.90   0
       126    269.1461    766.3803 300.0527509 +22.6850537      267.847     72.49416      1.284     3.45     4.302795     20.45802     35.38577         6     0.747     0.622 -55.53   0
       127    715.9781    762.8563 300.1929594 +22.8180712     2435.958     72.54957      1.357     2.22     4.016749     20.45802     356.1555        22     1.016     0.983 -40.21   0
       128    920.8536    761.6428 300.2572062 +22.8791348     1595.069     72.51264      1.382     2.60     4.154263     20.45802     203.3481        19     1.052     0.939   6.22   0
       129    101.7162    749.5469 300.0061878 +22.6299757     586.4937     72.54957      1.662     3.68     3.865694     20.45802     62.50848        12     1.001     0.903  39.15   0
       130    798.6474    748.8269 300.2232800 +22.8388264     712.1353     72.53111      1.655     3.33     4.251998     20.45802      66.0149        10     0.946     0.831  19.20   0
       131    834.5257    739.7647 300.2374089 +22.8469785     146454.8     72.47569      1.360     2.33     4.334496     20.45802     18773.77       162     1.404     1.355 -85.39   0
       132    596.6165    743.7432 300.1620006 +22.7767946     379.3486     72.47569      1.065     2.44      4.10365     20.45802     62.70976         5     0.695     0.465  73.85   0
       133    981.5239    741.6489 300.2826283 +22.8915727     1177.468     72.51264      1.427     2.48     4.085932     20.45802     137.2821        18     1.030     0.939  71.07   0
       134    686.9779    740.0093 300.1913555 +22.8028176     725.8121     72.51263      1.280     2.71     3.934094     20.45802     105.8388        11     0.886     0.793 -43.18   0
       135    867.3469    732.7841 300.2499096 +22.8548109     352.2789     72.51264      1.107     2.00     4.379859     20.45802     69.97025         6     0.675     0.574  34.63   0
       136    701.9945    725.9550 300.2006032 +22.8032850     9350.595     72.51263      1.325     2.25     3.963511     20.45802     1375.719        42     1.193     1.065 -62.17   0
       137    520.7328    728.6461 300.1432863 +22.7497046     1547.907     72.49416      1.226     2.16     4.486893     20.45802     262.5584        17     0.948     0.910  55.24   0
       138    203.4798    721.2816 300.0470016 +22.6524139     4846.005     72.64182      1.393     2.44      4.03405     20.45802     644.6849        31     1.162     1.094 -32.81   0
       139    285.4310    719.3500 300.0731068 +22.6764514     1152.984     72.54957      1.394     2.64     4.158069     20.45802     139.6275        17     1.014     0.930  44.50   0
       140    160.9117    716.8485 300.0352129 +22.6383676     464.1878     72.51264      1.283     3.71     3.974196     20.45802     61.93974         8     0.951     0.611 -23.52   0
       141    493.7199    714.6766 300.1394210 +22.7375941     759.6129     72.62337      1.303     2.28     4.483646     20.45802     120.7709        13     0.960     0.802  58.54   0
       142    485.4175    706.8354 300.1393865 +22.7328539     3301.178     72.51264      1.253     2.15     4.493923     20.45802     463.5007        26     1.057     0.990  39.44   0
       143    475.6637    700.6962 300.1383471 +22.7281668     1336.497     72.60493      1.214     2.24     4.514184     20.45802     181.1833        15     0.932     0.858  55.94   0
       144    869.5920    698.0355 300.2619084 +22.8455038     479.3391     72.51264      1.459     3.43     4.397733     20.45802     59.89779        10     0.985     0.818 -89.50   0
       145    138.8625    696.8255 300.0348706 +22.6260084     660.5426     72.51264      1.427     3.93      4.04523     20.45802     81.29745        13     1.165     0.832  10.18   0
       146    153.2979    695.3157 300.0398472 +22.6299078      708.759     72.67868      1.578     4.22     4.063437     20.45802     75.84076        13     1.153     0.914  42.62   0
       147    210.0965    692.4473 300.0584326 +22.6461300     426.0116     72.54957      1.637     4.83      4.09715     20.45802     36.07378         8     0.896     0.736 -48.96   0
       148    178.5912    691.8237 300.0488430 +22.6364969     606.9342     72.51264      1.441     4.98     4.087418     20.45802     80.17886        14     1.381     0.960  44.63   0
       149    922.7955    691.5438 300.2806065 +22.8595823     526.2656     72.47569      1.538     3.32      4.34868     20.45802     76.80458        10     1.091     0.692   6.03   0
       150    400.4892    690.3961 300.1183053 +22.7026631     1776.533     72.42023      1.270     2.29     4.524881     20.45802     243.9314        20     1.017     0.968 -87.89   0
       151    499.8575    690.8775 300.1490688 +22.7326050     475.9717     72.54957      1.287     2.83     4.573432     20.45802     65.84687         8     0.848     0.690 -23.81   0
       152    434.1648    689.5886 300.1290450 +22.7125325     172.7516     72.51264      1.065     3.34      4.58598     20.45802     37.93685         5     0.755     0.429 -22.83   0
       153     54.4504    685.4489 300.0123436 +22.5974107        19760     72.54957      1.568     2.72     4.058747     20.45802     2211.025        66     1.366     1.322  47.81   0
       154    976.2754    687.5272 300.2985899 +22.8744525     812.4099     72.58648      1.470     3.14     4.200432     20.45802     83.84245        14     0.967     0.905 -49.24   0
       155    485.4679    685.7475 300.1462582 +22.7268173     991.6071     72.53111      1.198     2.21      4.56357     20.45802     139.1925        14     1.066     0.812  53.81   0
       156    520.2885    684.7664 300.1574146 +22.7369783      267.839     72.47569      1.201     3.67     4.628211     20.45802     45.25955         7     0.820     0.642  63.06   0
       157    856.6502    680.9614 300.2634253 +22.8367215     325.2375     72.53111      1.176     3.43      4.40822     20.45802     43.86401         5     0.796     0.427  71.51   0
       158    903.4505    671.5982 300.2810595 +22.8480563     1103.187     72.49416      1.328     2.36     4.415014     20.45802     142.1474        17     0.999     0.964  12.75   0
       159      1.4700    669.5575 300.0010541 +22.5769513     835.6695     57.21227      1.494     5.55     4.090181     20.45802     125.9097        15     1.640     0.709 -83.36  24
       160    770.2830    669.7895 300.2401400 +22.8076285     474.1411     72.47569      1.357     2.72     4.329089     20.45802      66.3599         8     0.844     0.645 -73.53   0
       161     66.4756    670.0899 300.0210716 +22.5966164     407.7029     72.66025      1.313     4.60     4.118748     20.45802     52.04634         8     1.098     0.654  -8.78   0
       162    448.5616    666.1114 300.1411567 +22.7101135     503.7872     72.49416      1.296     2.40     4.600676     20.45802     77.78397         8     0.797     0.657 -44.36   0
       163    843.4974    664.2303 300.2647648 +22.8279743     691.0623     72.45721      1.394     4.37     4.394073     20.45802     83.51588        12     1.188     0.737  50.47   2
       164    839.2782    664.0568 300.2635060 +22.8266601      276.985     72.54957      0.980     1.91     4.392292     20.45802     60.99876         5     0.696     0.444 -68.45   2
       165    242.1471    665.4177 300.0771824 +22.6479943     339.7371     72.49416      1.295     3.30     4.129968     20.45802     53.99173         6     0.967     0.488  -4.65   0
       166    588.0299    663.0122 300.1855751 +22.7510470     236.9372     72.51263      1.137     2.92     4.422109     20.45802     47.82975         5     0.782     0.496 -63.80   0
       167    405.6918    658.6186 300.1302540 +22.6951055     584.2061     72.43872      1.119     2.31     4.533453     20.45802     90.28963        11     0.813     0.774 -72.15   0
       168    553.3451    657.0475 300.1767155 +22.7389349     524.4248     72.54957      1.174     2.17     4.678622     20.45802     81.14614         8     0.743     0.661 -47.94   0
       169    600.7290    655.6001 300.1919386 +22.7527268      399.444     72.38323      1.106     2.48     4.381186     20.45802     72.11533         8     0.849     0.620  -5.42   0
       170    571.2216    655.1148 300.1829091 +22.7437403     665.0239     72.45721      1.318     2.46     4.572288     20.45802     108.5689        11     0.935     0.727  82.93   0
       171    449.6885    654.4742 300.1452902 +22.7071118     907.3733     72.66025      1.145     2.25      4.60312     20.45802     122.2148        11     0.833     0.717 -59.84   0
       172    636.2200    653.5917 300.2036432 +22.7627907     247.6881     72.47569      1.230     3.51     4.279437     20.45802     28.45025         5     0.802     0.444 -18.41   0
       173    883.5015    649.7449 300.2819442 +22.8358012     3242.299     72.60493      1.257     2.15     4.373091     20.45802     466.2838        23     1.013     0.957  54.03   0
       174    415.2913    649.8906 300.1360776 +22.6954801     1662.691     72.67868      1.275     2.28     4.560794     20.45802      237.909        18     1.033     0.857 -73.00   0
       175    981.4840    647.6617 300.3131748 +22.8645595     666.9373     72.60493      1.307     2.47     4.198979     20.45802     83.49347        12     0.884     0.803 -88.50   0
       176    390.6302    645.2021 300.1299294 +22.6867380     263.6847     72.47569      1.174     1.86     4.465188     20.45802     55.27313         5     0.689     0.436 -67.16   0
       177    444.6278    640.3019 300.1483221 +22.7015269     326.6107     72.45721      1.362     3.50     4.597946     20.45802     42.22543         6     0.702     0.664  20.47   0
       178    922.9694    639.4791 300.2975868 +22.8446778     321.4426     72.51264      1.204     3.71       4.3222     20.45802      41.5571         6     0.793     0.500   0.44   0
       179    278.6854    636.6606 300.0978896 +22.6507072     9068.734     72.62337      1.325     2.25     4.209761     20.45802     1328.674        41     1.162     1.113  60.06   0
       180    401.1610    633.6911 300.1369469 +22.6865934     8989.396     72.49416      1.278     2.22     4.494886     20.45802     1293.946        36     1.100     1.040  88.76   0
       181    166.4436    631.3589 300.0647214 +22.6155102     265.9883     72.58648      2.028     4.23     4.243402     20.45802     31.11221         6     1.102     0.463 -33.23   0
       182    647.3748    629.9470 300.2148028 +22.7593461     214.4726     72.53111      1.029     3.46     4.452065     20.45802     44.64445         5     0.765     0.452 -73.82   0
       183   1005.7121    628.8215 300.3268560 +22.8664040     940.7634     72.43872      1.349     2.51     4.140564     20.45802     118.2446        13     0.909     0.844 -46.33   0
       184    812.8109    627.5111 300.2671363 +22.8082318     1898.791     72.45721      1.246     2.08     4.341902     20.45802     278.5917        21     1.119     0.916 -37.01   0
       185    897.4062    624.8220 300.2943806 +22.8328079     12184.05     72.49416      1.293     2.22     4.310983     20.45802     1740.176        46     1.164     1.107 -62.29   0
       186    461.6932    623.2278 300.1591819 +22.7017444     11158.12     72.43872      1.233     2.07     4.636402     20.45802     1701.087        40     1.132     1.032  86.48   0
       187    189.1467    618.7472 300.0758763 +22.6187049     1356.432     72.54957      1.375     2.65     4.189834     20.45802     168.0242        18     1.075     0.959 -50.24   0
       188    631.0663    618.9570 300.2132960 +22.7513018     599.0316     72.49416      1.146     2.14      4.57847     20.45802     94.65833         9     0.732     0.727 -14.99   0
       189    436.0317    616.0170 300.1535404 +22.6919793     429.0636     72.49416      1.310     2.69     4.572851     20.45802      69.2251         8     0.883     0.608  88.69   0
       190    393.3393    611.4230 300.1417509 +22.6778572     4440.471     72.49416      1.227     2.22     4.460872     20.45802     531.0365        26     1.081     0.922  60.85   0
       191    735.9957    611.2798 300.2484754 +22.7805492     783.5212     72.42023      1.230     2.61     4.308882     20.45802     110.7214        11     0.940     0.723  26.63   0
       192    371.5923    609.7994 300.1355135 +22.6708689     1285.897     72.32771      1.279     2.28      4.41326     20.45802     192.3691        16     0.989     0.838  49.83   0
       193    126.0462    609.2708 300.0593461 +22.5970531     782.5375     72.49416      1.469     3.14     4.306333     20.45802     85.15564        13     1.019     0.833  -3.90   0
       194    813.1695    606.6464 300.2740297 +22.8023461     1643.704     72.53111      1.357     2.56     4.321029     20.45802     210.8346        20     1.025     0.964 -65.78   0
       195    509.9702    598.9456 300.1820982 +22.7092510     198042.6     72.51264      1.286     2.01     4.747699     20.45802     34267.47       211     1.422     1.400 -89.37   0
       196    913.5269    605.7484 300.3056063 +22.8321581     373.7439     72.53111      1.408     2.26     4.259079     20.45802     44.31939         5     0.688     0.455  66.42   0
       197     59.3759    606.4932 300.0395355 +22.5762492     416.1206     72.43872      1.883     4.09     3.972745     20.45802     36.71053         5     0.976     0.491   6.46   0
       198    333.7119    605.3092 300.1251905 +22.6582186     484.8274     72.67868      1.446     2.58     4.348042     20.45802     62.19552         6     0.820     0.505  42.06   0
       199    693.6121    603.7108 300.2377316 +22.7656723     886.2073     72.45721      1.257     2.18     4.484559     20.45802      124.819        13     0.894     0.810  12.24   0
       200    897.8627    600.5588 300.3024090 +22.8259741     208.2457     72.49416      1.114     2.97     4.288347     20.45802     40.55379         7     0.848     0.583  74.70   0
       201    196.0399    599.0173 300.0844305 +22.6151136     3337.728     72.53111      1.351     2.47     4.216646     20.45802     436.0519        26     1.164     0.979  46.96   0
       202    278.8123    599.0119 300.1101646 +22.6399439     198.0415     72.42023      1.257     3.93     4.269484     20.45802     28.02358         5     0.842     0.524  33.46   0
       203    761.8731    594.9239 300.2618540 +22.7836071     643.9825     72.58648      1.430     2.57     4.306179     20.45802     82.38884         8     0.835     0.597 -45.85   0
       204    375.4213    595.2687 300.1414268 +22.6678474     275.6344     72.51264      1.025     3.41     4.421556     20.45802     32.03069         5     0.743     0.454  70.65   0
       205    780.6932    593.0470 300.2683284 +22.7887079     285.2444     72.53111      1.144     3.95     4.311299     20.45802     44.96189         6     1.049     0.425  58.18   0
       206    400.3422    583.2622 300.1530810 +22.6718757     438.0938     72.56802      1.249     2.69      4.48014     20.45802     56.07611         5     0.710     0.461  74.21   3
       207    400.5604    579.1917 300.1544716 +22.6707729     2522.691     72.53111      1.220     2.09     4.483151     20.45802     385.6201        20     0.973     0.912  46.45   2
       208    244.8982    581.7619 300.1052257 +22.6248212     408.7872     72.51264      1.230     2.73     4.231046     20.45802     72.60765         8     0.951     0.589   6.03   0
       209    556.8718    576.6122 300.2039557 +22.7169016     330.3689     72.53111      1.091     1.98     4.770943     20.45802     50.45534         5     0.690     0.443  22.57   0
       210    811.9254    575.3950 300.2837983 +22.7929964     290.6039     72.43872      1.147     2.05     4.314644     20.45802     64.87781         6     0.696     0.576  65.61   0
       211    631.4473    575.2264 300.2276265 +22.7388595     151.9542     72.53111      0.949     2.58      4.65911     20.45802     37.22219         5     0.707     0.458  68.82   0
       212    717.7880    567.8492 300.2569170 +22.7626191     279.6718     72.53111      1.097     1.84     4.368846     20.45802     65.40796         6     0.689     0.532  42.94   0
       213    797.5405    565.2559 300.2826099 +22.7857735     1728.922     72.58648      1.197     2.20     4.309508     20.45802      215.086        21     1.035     0.917  83.21   0
       214    684.0362    565.3535 300.2472138 +22.7517868     335.8899     72.54957      1.058     3.04     4.519783     20.45802     43.19113         7     0.731     0.664  -4.01   0
       215    668.7692    563.0439 300.2432089 +22.7465478     2532.101     72.54957      1.201     1.95      4.57736     20.45802     442.6175        21     1.013     0.875 -81.25   0
       216     28.9200    563.8784 300.0439223 +22.5548885     396.1241     72.64182      1.394     3.75     4.123644     20.45802     45.93646         5     0.657     0.615 -10.69   0
       217    912.9982    560.2824 300.3202171 +22.8189365      446.834     72.42023      1.331     3.04     4.379602     20.45802     64.30912        10     0.936     0.743  88.94   3
       218    911.7820    556.0435 300.3212153 +22.8173542     726.9387     72.53111      1.221     2.31     4.388544     20.45802     123.3921         9     0.878     0.629 -62.75   2
       219    878.2193    559.7664 300.3095414 +22.8083692     229.0818     72.51264      1.244     3.05     4.337178     20.45802     45.85287         6     0.724     0.642  85.48   0
       220    573.3255    559.7886 300.2145449 +22.7170039     372.8811     72.53111      1.026     2.53     4.750887     20.45802     68.49638         6     0.732     0.538 -45.59   0
       221    455.9491    559.0310 300.1782563 +22.6815956     660.4608     72.54957      1.211     2.29     4.672966     20.45802     112.3744        10     0.834     0.721   4.36   0
       222    925.9280    556.9949 300.3253171 +22.8218651     1185.868     72.45721      1.181     1.92     4.405244     20.45802     222.0223        15     0.922     0.853 -29.47   0
       223    797.8065    555.3218 300.2859209 +22.7829995     2294.158     72.43872      1.494     2.89     4.306964     20.45802     359.6801        27     1.585     0.891  80.56   0
       224    551.1487    553.6628 300.2096311 +22.7085970     676.2452     72.56802      1.344     2.66     4.778463     20.45802     93.91801         9     0.865     0.651  61.93   0
       225    336.9243    553.6328 300.1429816 +22.6443531      404.252     72.51264      1.263     3.03     4.368245     20.45802     57.92997         8     0.885     0.608 -15.46   0
       226    389.9809    552.6415 300.1598073 +22.6599802     340.8401     72.53111      0.998     2.11      4.46118     20.45802     71.31355         7     0.765     0.558  32.56   0
       227    835.9844    550.4147 300.2994144 +22.7930288     4234.533     72.45721      1.257     2.11     4.314986     20.45802     636.9249        29     1.092     0.945  86.80   0
       228    551.1118    549.5502 300.2109559 +22.7074051     346.1114     72.51264      1.143     2.16     4.778463     20.45802     56.61552         5     0.695     0.455 -22.55   0
       229    633.3644    546.1452 300.2376731 +22.7310832     209.5442     72.53111      1.355     3.41      4.65374     20.45802     29.89608         5     0.760     0.443  72.22   0
       230    496.5878    546.3311 300.1950299 +22.6901347     356.9815     72.53111      1.120     3.52     4.785012     20.45802     49.22943         6     0.826     0.536  48.02   0
       231    927.8651    540.9241 300.3311431 +22.8178274     665.1749     72.60493      1.106     2.29     4.448822     20.45802     117.3931        11     0.901     0.709 -86.53   0
       232    867.3749    538.4158 300.3130982 +22.7989860     105.8029     72.53111      1.001     4.11     4.325465     20.45802     27.57923         5     0.991     0.488   4.78   0
       233    890.0630    533.1816 300.3218721 +22.8042788     7675.614     72.47569      0.524     0.90     4.371977     20.45802     4967.898        11     0.486     0.392  79.29   0
       234    116.4061    533.0122 300.0811286 +22.5722873     244.9411     72.38323      1.510     4.16      4.53511     20.45802     27.09037         5     1.092     0.452 -26.78   0
       235     68.1101    541.1248 300.0634882 +22.5601232     869.3557     72.66025      1.322     2.80     4.459632     20.45802     105.4042        12     0.971     0.744  16.71   0
       236     60.6193    531.1543 300.0644002 +22.5550157     335.2048     72.54957      1.127     3.18     4.412904     20.45802     50.94739         8     0.859     0.649 -29.91   0
       237    668.4321    524.9656 300.2554762 +22.7355110     479.6613     72.53111      1.237     3.20     4.462434     20.45802     80.86902         8     0.931     0.624 -50.58   0
       238    557.3096    523.2156 300.2214415 +22.7017017     271.9633     72.43872      1.122     2.82      4.74836     20.45802     63.90579         8     0.935     0.571 -73.72   0
       239    276.5839    523.3124 300.1340677 +22.6175547     302.1676     72.45721      1.535     5.19      4.40935     20.45802     32.63884         7     1.370     0.555  16.77   0
       240    609.4563    520.9800 300.2384041 +22.7166906      817.221     72.51264      1.212     2.14     4.704731     20.45802     125.1208        10     0.838     0.663  29.89   0
       241   1016.7928    518.4910 300.3661672 +22.8380154     922.0401     72.42023      1.253     2.75     4.439281     20.45802     117.1697        12     0.908     0.811 -44.82   0
       242    923.9229    513.2493 300.3389056 +22.8086939     408.7253     72.51264      1.161     2.11     4.440733     20.45802     88.17458         8     0.831     0.579 -63.19   0
       243    670.1739    513.2936 300.2598107 +22.7326807     803.2388     72.45721      1.162     2.27     4.382679     20.45802       133.78        11     0.876     0.795   6.36   0
       244    827.4368    509.4217 300.3100691 +22.7786906     1014.026     72.53111      1.225     2.21     4.294356     20.45802     136.7671        14     0.929     0.863 -63.62   0
       245    811.9190    505.9307 300.3063666 +22.7730386     655.2558     72.62337      1.346     2.83      4.28159     20.45802     83.71115        10     0.851     0.805 -29.82   0
       246    792.2487    505.9267 300.3002376 +22.7671441     336.9705     72.51264      1.121     3.46     4.264119     20.45802     49.14537         6     0.876     0.574 -25.21   0
       247    555.9761    503.8314 300.2273237 +22.6957360     3245.469     72.51264      1.241     1.89     4.729334     20.45802     587.7772        26     1.080     0.923  79.22   0
       248    916.3983    502.2241 300.3401411 +22.8032717      520.002     72.45721      1.211     2.61     4.424555     20.45802     64.84869         9     0.860     0.659 -19.28   0
       249     32.7891    495.2237 300.0674270 +22.5363594     435.0452     72.51264      1.564     3.56      4.31378     20.45802     57.94887         7     1.119     0.587 -11.37   0
       250    395.9070    490.6866 300.1817782 +22.6439741     400.1754     72.67868      1.318     2.57     4.662171     20.45802     62.12447         7     0.786     0.628  64.58   0
       251    327.3351    491.5769 300.1601592 +22.6236677     304.0207     72.49416      0.987     2.78     4.488706     20.45802     43.33735         5     0.706     0.456 -20.69   0
       252    967.3992    482.6019 300.3624200 +22.8129075       1410.8     72.29066      1.406     2.58     4.464684     20.45802     184.1123        17     1.018     0.923  67.95   0
       253    839.2781    482.4689 300.3225159 +22.7744937     485.8715     72.62337      1.088     2.40     4.293707     20.45802     82.56711         9     0.827     0.693  11.92   0
       254    925.7776    481.4872 300.3498023 +22.8001216     876.2983     72.43872      1.262     2.28     4.444778     20.45802     114.4861        10     0.936     0.639 -79.23   0
       255    575.8523    479.8184 300.2413122 +22.6947980     222.4802     72.49416      1.134     2.44     4.703455     20.45802     43.55658         6     0.738     0.544  44.45   0
       256    462.1851    478.4205 300.2063848 +22.6603239     429.5107     72.49416      1.086     2.25     4.787674     20.45802     64.63656         9     0.827     0.648 -67.71   0
       257    666.5869    477.6969 300.2702571 +22.7213816     1163.068     72.40173      1.206     2.20     4.216253     20.45802     166.3783        14     0.906     0.803 -89.69   0
       258    170.7509    476.1882 300.1164749 +22.5722885     734.7244     72.53111      1.345     2.70     4.406658     20.45802     95.29411        11     0.943     0.737 -41.75   0
       259    232.9077    471.8465 300.1372059 +22.5896863     3738.669     72.53111      1.316     2.27     4.414773     20.45802     541.9949        26     1.063     0.996  59.63   0
       260    966.0840    469.9788 300.3661103 +22.8088855     4390.384     72.45721      1.290     2.21     4.482536     20.45802     694.4038        29     1.086     1.006 -76.62   0
       261    180.1482    466.6770 300.1224848 +22.5723783     7602.692     72.51264      1.344     2.38     4.425585     20.45802     977.6202        41     1.243     1.089  54.28   0
       262    945.9468    461.0368 300.3627348 +22.8002846     1701.377     72.53111      1.258     2.14     4.491186     20.45802     284.4752        20     1.087     0.814  54.63   0
       263    320.9459    460.8071 300.1681663 +22.6129202     4780.658     72.51264      1.266     2.11     4.606946     20.45802     764.3742        27     1.024     0.985 -88.96   0
       264    565.1168    457.4292 300.2452420 +22.6851507     18362.27     72.53111      1.194     1.96     4.696453     20.45802     2888.589        49     1.144     1.025  81.31   0
       265    412.8003    459.0832 300.1972990 +22.6399667     232.0901     72.38323      1.337     4.31     4.787192     20.45802     37.56458         7     0.826     0.783 -33.95   0
       266    582.7388    457.5592 300.2506863 +22.6904696     896.4922     72.49416      1.943     5.98     4.672577     20.45802      78.5975        15     1.510     0.759 -35.58   0
       267    192.0204    455.5262 300.1297964 +22.5727396     256.2479     72.51264      1.136     3.78     4.450039     20.45802     40.56636         6     0.837     0.491   7.89   0
       268    808.6456    453.6281 300.3223362 +22.7570302     314.7752     72.54957      1.060     2.90     4.299011     20.45802     46.75439         5     0.724     0.451  17.80   0
       269    762.0984    447.3794 300.3098600 +22.7412902     474.8205     72.43872      1.195     2.47     4.221383     20.45802     64.84494         7     0.819     0.644  -4.84   0
       270    185.0974    444.5354 300.1312139 +22.5675094     346.3442     72.62337      1.015     2.34     4.480299     20.45802      60.2812         5     0.699     0.571 -69.94   0
       271    898.7988    439.7111 300.3549597 +22.7800348      762.212     72.42023      1.334     2.94     4.498388     20.45802     120.8765        11     1.195     0.615 -74.36   0
       272    435.7149    439.4640 300.2108005 +22.6412037     316.4018     72.62337      1.206     3.25      4.80965     20.45802      41.4514         5     0.722     0.461 -20.10   0
       273    119.7473    437.7116 300.1131207 +22.5459495     1945.497     72.53111      1.333     2.45     4.428891     20.45802      267.589        19     1.055     0.950  55.96   0
       274    608.6240    438.2348 300.2650226 +22.6926770     324.2711     72.53111      1.205     2.46     4.580687     20.45802     41.24161         5     0.712     0.449 -70.83   0
       275    505.7376    426.9227 300.2366650 +22.6585926      6475.28     72.58648      1.189     1.91     4.789662     20.45802     1158.481        32     1.061     0.960  58.48   0
       276    220.7252    426.2893 300.1482139 +22.5729587     696.8036     72.67868      1.190     3.37     4.526764     20.45802      95.7304        10     1.103     0.629 -76.99   0
       277    919.4128    427.0327 300.3655049 +22.7825646      1114.26     72.49416      1.165     2.10     4.542486     20.45802     171.4337        13     0.852     0.798  21.70   0
       278     78.0780    419.2408 300.1061719 +22.5281503     573.4332     72.49416      1.531     3.68     4.422839     20.45802     71.61308        12     1.109     0.906  27.41   0
       279    765.7758    418.7174 300.3203144 +22.7341566     421.4594     72.47569      1.451     2.63     4.247164     20.45802     50.07531         6     0.716     0.569  39.48   0
       280    709.9711    415.8351 300.3038632 +22.7166101     1284.969     72.53111      1.338     2.25     4.180513     20.45802     188.5662        14     0.980     0.788  82.58   0
       281    619.3966    416.6953 300.2753723 +22.6897183     505.8276     72.42023      1.286     3.72     4.465608     20.45802     77.89229         8     1.107     0.486 -86.98   0
       282    412.3933    413.2022 300.2120724 +22.6266722     6128.517     72.32771      1.193     2.00     4.822009     20.45802      894.881        31     1.063     0.983  78.55   0
       283    901.7141    407.5945 300.3662989 +22.7716771     655.6732     72.43872      1.148     2.57      4.55864     20.45802     98.93613        13     0.917     0.840 -14.23   0
       284    804.3217    407.3752 300.3360101 +22.7424441     1380.035     72.51264      1.224     1.93     4.334465     20.45802     198.1399        16     1.000     0.780  67.29   0
       285    396.9377    401.9295 300.2109242 +22.6188023     488.9005     72.54957      1.207     2.35     4.821939     20.45802     77.89281         9     0.770     0.742  82.11   0
       286    479.4450    399.9121 300.2372529 +22.6429552     523.3696     72.49416      1.243     2.51     4.804979     20.45802     75.29511         7     0.820     0.591  63.51   0
       287    757.7227    398.4751 300.3243784 +22.7259278     314.4329     72.62337      1.182     3.40     4.259422     20.45802     40.49192         5     0.753     0.444 -22.18   0
       288    460.1208    397.6829 300.2319628 +22.6365229     274.7912     72.64182      1.118     2.20     4.808756     20.45802     50.74608         7     0.696     0.635  -3.14   0
       289    777.1271    395.0742 300.3315295 +22.7307632     566.9347     72.56802      1.194     1.90      4.29103     20.45802      100.839         8     0.723     0.636 -47.58   0
       290    281.7240    394.6123 300.1774650 +22.5821589     143.5548     72.53111      1.376     4.91     4.819912     20.45802     31.36324         5     1.062     0.644  61.79   0
       291    299.9344    392.4033 300.1838450 +22.5869850     2404.828     72.53111      1.236     2.25     4.839622     20.45802     352.5124        23     1.026     0.941  84.99   0
       292     18.4748    389.9417 300.0971701 +22.5018642     1120.184     72.56802      1.587     2.63     4.426517     20.45802     124.4304        16     1.039     0.905  51.43   0
       293    647.6191    386.9941 300.2938063 +22.6896429     226.7316     72.47569      1.056     2.71      4.30384     20.45802      43.7161         5     0.770     0.526   0.66   0
       294    269.2635    381.9132 300.1777136 +22.5747775      29482.1     72.62337      1.318     2.21     4.820444     20.45802     4120.218        62     1.256     1.125  64.04   0
       295    247.2848    385.3330 300.1697696 +22.5691687     239.1766     72.62337      1.398     3.76     4.766275     20.45802     37.94033         5     0.903     0.449  45.86   0
       296    803.9066    379.1754 300.3450377 +22.7342158     1349.283     72.45721      1.175     2.00     4.338131     20.45802     228.6273        11     0.860     0.668  75.06   0
       297    759.3561    377.1025 300.3318273 +22.7202757     210.7818     72.51264      0.940     2.17      4.29103     20.45802     54.49747         5     0.699     0.447  71.32   0
       298    143.5003    368.1675 300.1430824 +22.5331186     464.2949     72.49416      1.278     2.83     4.518857     20.45802     68.52158        10     0.893     0.788  57.45   0
       299    719.1984    368.2121 300.3222016 +22.7056915      519.481     72.32771      1.065     2.14     4.277245     20.45802     93.78525         7     0.699     0.624  32.14   0
       300    367.6252    366.9350 300.2131675 +22.5999675     474.0216     72.49416      1.250     3.22     4.821925     20.45802     74.23798         7     0.926     0.613  63.12   0
       301    679.6460    361.4240 300.3120841 +22.6918921     1876.139     72.53111      1.156     1.99     4.259328     20.45802     309.1556        16     0.916     0.845  77.23   0
       302    487.7841    355.9550 300.2541202 +22.6328309     325.3919     72.53111      1.246     4.34     4.734032     20.45802     67.74669         7     1.110     0.524  68.30   0
       303    894.9227    354.3778 300.3814612 +22.7543466     505.7524     72.49416      1.226     1.99     4.552203     20.45802     95.46569         8     0.735     0.649  86.87   0
       304    417.1986    354.5521 300.2326103 +22.6112721     145.0556     72.51264      0.988     4.94     4.821402     20.45802     28.06579         5     1.086     0.637 -66.84   0
       305    341.4930    346.2638 300.2117497 +22.5861986     2191.324     72.62337      1.460     2.94     4.835689     20.45802     247.9531        23     1.230     0.938  72.63   0
       306    553.9298    345.0268 300.2782580 +22.6495143     230.5407     72.51264      1.185     3.31     4.519854     20.45802     35.72818         5     0.633     0.596   2.37   0
       307    780.5638    338.9323 300.3508287 +22.7156588     559.5833     72.51264      1.061     2.37     4.327711     20.45802     89.35378         6     0.742     0.495  87.54   0
       308    662.8732    336.5355 300.3149396 +22.6797162     388.3066     72.54957      1.179     2.68     4.293379     20.45802     51.70232         8     0.772     0.686 -82.86   0
       309    679.9499    336.3281 300.3203261 +22.6847724     354.2256     72.51264      1.129     3.75     4.279365     20.45802      41.1681         7     0.867     0.568  27.76   0
       310    630.9411    335.4664 300.3053413 +22.6698425     341.0302     72.54957      1.298     2.26     4.361308     20.45802     47.95054         6     0.737     0.497   3.98   0
       311    417.2123    325.6221 300.2420059 +22.6029685     1253.358     72.49416      1.236     2.24     4.810289     20.45802     164.0942        15     0.958     0.857 -74.98   0
       312    132.0189    327.0825 300.1528514 +22.5178845     311.0771     72.47569      1.200     3.71     4.574874     20.45802     31.66634         5     0.636     0.621  -4.71   0
       313    928.5018    321.0500 300.4027513 +22.7548202     411.4424     72.58648      1.239     2.65      4.54439     20.45802     64.62704         7     0.867     0.589  30.94   0
       314    662.2072    317.3447 300.3209619 +22.6740026     2338.522     72.51264      1.232     2.18     4.312053     20.45802     350.4217        21     1.028     0.878  83.40   0
       315    923.3300    311.6219 300.4041991 +22.7505611     3090.551     72.51264      1.191     2.07     4.542219     20.45802     483.3037        22     1.012     0.945  80.74   0
       316    992.8597    299.4898 300.4298219 +22.7678887     1546.283     72.60493      1.265     2.16     4.676163     20.45802     245.0191        19     1.050     0.945 -84.30   0
       317    370.4614    301.1046 300.2354193 +22.5819152     655.8461     72.60493      1.228     2.61     4.806823     20.45802     91.01546         9     0.894     0.643  62.62   0
       318     45.2958    295.7054 300.1360908 +22.4828711      1374.43     72.67868      1.545     3.30     4.673055     20.45802     139.0111        19     1.291     0.888 -29.88   0
       319     76.1757    295.4373 300.1457709 +22.4920554     594.3549     72.53111      1.389     3.25     4.670828     20.45802     88.57249        13     1.133     0.828  89.51   0
       320    939.1282    291.7613 300.4155724 +22.7495808     570.0078     72.47569      1.205     2.57     4.561325     20.45802     83.79074         9     0.904     0.630  56.08   0
       321    782.7280    288.8777 300.3677512 +22.7019206     261.6587     72.62337      1.279     2.68      4.32486     20.45802     41.92152         6     0.740     0.565  38.46   0
       322    129.0080    287.7447 300.1646833 +22.5056914     455.5973     72.51264      1.352     3.44     4.693071     20.45802     61.36985        10     0.975     0.734  28.89   0
       323    805.3856    280.8247 300.3774263 +22.7063911     422.0866     72.53111      1.096     2.33     4.407841     20.45802     63.74632         7     0.778     0.586  -3.12   0
       324    733.9555    278.6502 300.3558728 +22.6843742     613.6387     72.54957      1.176     2.54     4.407437     20.45802     99.78177        12     0.891     0.833  66.50   0
       325    324.1712    278.1240 300.2284791 +22.5614411     371.8067     72.49416      1.315     2.79     4.849332     20.45802     54.82235         6     0.855     0.479  58.20   0
       326    831.9762    267.6855 300.3899787 +22.7105766      2202.89     72.47569      1.282     2.15     4.585678     20.45802      357.735        21     1.119     0.830  77.77   0
       327    328.3266    260.4646 300.2355024 +22.5576156     1131.881     72.54957      1.487     2.75     4.851712     20.45802     115.2866        16     1.044     0.868 -84.25   0
       328     79.9404    261.1983 300.1580518 +22.4833581     430.6908     72.47569      1.518     3.60     4.708361     20.45802     50.23463         7     0.858     0.592  17.75   0
       329    730.3338    259.6979 300.3608953 +22.6778424     631.9261     72.60493      1.175     2.61     4.553014     20.45802      90.6984         9     0.860     0.751  62.66   0
       330    375.3956    257.6365 300.2510613 +22.5709110     255.7856     72.53111      1.386     3.90     4.802472     20.45802     36.00954         6     0.905     0.481   0.33   0
       331    250.5288    265.3348 300.2097290 +22.5356934     2011.625     72.54957      1.280     2.27     4.870372     20.45802     261.9183        18     1.026     0.837  72.93   0
       332    145.1125    252.4819 300.1811313 +22.5003987     698.9183     72.64182      1.331     3.58     4.785004     20.45802     91.33121        11     1.034     0.780  65.34   0
       333    682.9536    249.2487 300.3495255 +22.6606487     1728.228     72.53111      1.252     1.94     4.607803     20.45802     279.2128        20     0.998     0.922 -46.71   0
       334    747.9070    248.7114 300.3699362 +22.6799475     491.2894     72.67868      1.144     1.77     4.651466     20.45802      113.386         7     0.678     0.583  48.50   0
       335    166.5075    245.8677 300.1899269 +22.5049149     461.0812     72.66025      1.318     3.06     4.835404     20.45802     67.79662         7     1.011     0.493  84.74   0
       336    409.8027    245.0083 300.2658637 +22.5775955     200.4207     72.32771      1.269     3.93     4.796319     20.45802       25.979         5     0.849     0.521 -32.38   0
       337    954.3588    241.5885 300.4366058 +22.7397133     907.3307     72.51264      1.244     1.99     4.635683     20.45802     138.7557        14     0.974     0.778  41.86   0
       338    686.9893    240.7689 300.3535345 +22.6594204     729.3286     72.51264      1.215     2.44     4.671907     20.45802     118.5482         9     0.889     0.629 -89.43   0
       339    456.4785    241.7186 300.2814552 +22.5906375     370.7412     72.64182      1.207     2.39     4.793755     20.45802     59.99937         5     0.684     0.479 -73.27   0
       340    607.4395    240.0597 300.3289881 +22.6353890      1264.11     72.51264      1.214     2.17     4.737672     20.45802     181.1532        16     1.016     0.806  66.73   0
       341    428.7902    236.6394 300.2744873 +22.5808817     463.0057     72.51264      1.191     3.35      4.79542     20.45802     58.50908         5     0.766     0.425  20.50   0
       342    802.9346    231.3511 300.3927181 +22.6914353     1503.692     72.53111      1.245     2.10     4.857591     20.45802     228.3227        16     0.958     0.845  51.83   0
       343    533.7401    231.7025 300.3087532 +22.6109092     1065.385     72.58648      1.298     2.21     4.779473     20.45802      172.584        12     0.922     0.727  68.46   0
       344    814.9659    230.6712 300.3966886 +22.6948424      772.392     72.51264      1.233     2.09     4.861358     20.45802     134.7443        10     0.847     0.733 -60.09   0
       345    861.3970    229.5278 300.4115330 +22.7084155     312.4585     72.45721      1.327     3.42     4.881875     20.45802     42.16424         6     0.858     0.489  89.57   0
       346    986.1899    227.2348 300.4511917 +22.7451134      362.093     72.47569      1.813     4.00     4.788974     20.45802     35.25176         5     0.962     0.476  46.06   0
       347    975.9090    221.2306 300.4499333 +22.7403093     1626.314     72.45721      1.258     2.34      4.76027     20.45802     236.3147        20     1.048     0.907 -85.31   0
       348    931.7440    220.7007 300.4363313 +22.7269370     1106.292     72.60493      1.259     2.54     4.569371     20.45802     162.4837        12     0.910     0.736  67.02   0
       349    165.6796    213.9882 300.2000132 +22.4955147     829.9985     72.49416      1.534     3.03     4.912178     20.45802     93.27746        13     1.057     0.797  63.89   0
       350     47.8118    213.3530 300.1635946 +22.4599915     279.9174     72.51264      1.263     2.24     4.732812     20.45802     39.20004         5     0.711     0.442 -19.03   0
       351     27.6710    208.9660 300.1587614 +22.4526927     2189.276     72.51264      1.416     2.66     4.721993     20.45802     274.9096        21     1.089     0.992  74.41   0
       352    850.7705    205.5179 300.4160110 +22.6983306     766.0403     72.53111      1.157     2.34     4.886775     20.45802     140.0774        13     0.927     0.778  68.55   0
       353    185.0811    202.1844 300.2098731 +22.4979423     5583.519     72.49416      1.364     2.53     4.936755     20.45802     649.9868        36     1.268     1.041  69.34   0
       354    167.0847    203.0546 300.2039971 +22.4927970     306.3268     72.58648      1.032     2.43     4.923598     20.45802     55.69268         5     0.605     0.591 -17.75   0
       355    168.4447    192.9060 300.2077122 +22.4902911     565.8196     72.53111      1.240     2.81     4.933713     20.45802     76.54951        11     0.941     0.766 -29.98   0
       356    983.9199    189.3840 300.4627652 +22.7335477     18262.06     72.53111      1.306     2.15     4.886506     20.45802     2799.768        54     1.241     1.108  82.20   0
       357    827.4109    189.6030 300.4138929 +22.6867612     1436.553     72.32771      0.801     2.67     4.841696     20.45802     425.9851         5     0.592     0.414  51.23   0
       358    829.1588    183.5142 300.4164132 +22.6855338     3439.961     72.49416      1.247     2.14     4.831904     20.45802     543.2252        25     1.066     0.936 -81.44   0
       359    932.8449    182.1414 300.4491856 +22.7161777     2817.241     72.54957      1.318     2.17     4.759772     20.45802     401.0792        24     1.105     0.949 -83.70   0
       360    378.5421    178.7657 300.2776303 +22.5492007     481.6685     72.53111      1.231     2.75      4.80675     20.45802     105.4628        12     0.980     0.832  69.66   0
       361    131.9200    179.3621 300.2007545 +22.4754528     346.4822     72.47569      1.486     2.30      4.90087     20.45802     48.05527         5     0.714     0.438 -20.56   0
       362    302.9174    170.7335 300.2567130 +22.5242309     689.8351     72.62337      1.321     2.17     5.002025     20.45802     90.78003        10     0.811     0.720  75.42   0
       363    976.0395    170.4191 300.4664600 +22.7257345     133.4755     72.53111      1.115     4.46     4.921426     20.45802     31.31863         5     1.162     0.488   4.04   0
       364     68.9391    167.6045 300.1849989 +22.4531950     656.8606     72.49416      1.522     3.76      4.81071     20.45802     85.61211        15     1.223     0.902  73.66   0
       365    429.9066    166.0966 300.2977213 +22.5609518     1700.499     72.69711      1.329     2.21     4.821198     20.45802     262.1205        19     1.059     0.913  53.16   0
       366    358.0363    166.8738 300.2751089 +22.5396401     438.2498     72.45721      1.275     2.39     4.809577     20.45802     62.71119         9     0.758     0.735 -26.90   0
       367    491.3588    165.2093 300.3171336 +22.5791077     477.0421     72.51264      1.274     3.15      4.88403     20.45802     53.98656         5     0.832     0.448  41.23   0
       368    253.8194    162.2910 300.2441840 +22.5070914     224.5298     72.43872      0.792     1.50     5.012505     20.45802     67.60094         5     0.667     0.410 -21.86   0
       369    173.8360    161.7023 300.2195100 +22.4829482     453.2326     72.51264      1.265     3.97     4.963017     20.45802     49.21281         7     0.750     0.669  28.82   0
       370    718.3210    154.7995 300.3911877 +22.6440924     406.6155     72.38323      1.226     4.47     4.796154     20.45802      52.0273         8     1.018     0.559  70.07   0
       371    566.0049    152.1010 300.3446233 +22.5977013     335.6049     72.40173      1.821     5.07     4.869433     20.45802     35.73674         7     1.348     0.540  57.39   0
       372    864.3440    150.0159 300.4382487 +22.6864345       386.17     72.49416      1.296     3.45      4.83564     20.45802     52.31307         6     0.963     0.421 -75.26   0
       373    303.1750    151.1539 300.2631443 +22.5186847     250.1408     72.53111      1.302     3.73     5.015474     20.45802     32.12797         5     0.927     0.431  44.40   0
       374    204.0375    146.0525 300.2339741 +22.4875073     5993.841     72.53111      1.372     2.43     4.989421     20.45802     764.6025        33     1.219     1.026  71.90   0
       375    994.4056    146.7378 300.4798710 +22.7244192     3710.882     72.49416      1.367     2.25     4.987293     20.45802     491.1426        29     1.169     1.019 -81.11   2
       376    710.3836    146.3147 300.3914671 +22.6392765     347.9041     72.47569      1.120     3.50     4.791706     20.45802     47.15621         5     0.769     0.460  75.07   0
       377     55.1148    145.7791 300.1877833 +22.4427849     801.5063     72.45721      1.488     2.90     4.970352     20.45802     85.32659        12     0.906     0.857  25.66   0
       378    833.0427    143.1744 300.4307102 +22.6750972     210.3282     72.54957      0.990     2.41     4.781887     20.45802     50.13846         6     0.843     0.459 -33.78   0
       379    175.8325    139.9911 300.2271727 +22.4773126     373.6125     72.51264      1.419     2.79     4.999645     20.45802     59.36662         6     0.874     0.461 -54.01   0
       380    450.0902    131.3257 300.3152806 +22.5570090     6001.611     72.67868      1.294     2.17     4.850087     20.45802     843.0387        34     1.138     1.020  77.34   0
       381    335.2998    131.0620 300.2796525 +22.5225403     493.9624     72.58648      1.200     2.77     4.884171     20.45802      91.0195         8     0.824     0.668  51.19   0
       382    507.1587    125.9468 300.3347869 +22.5725589     255.7813     72.51264      1.014     3.17     4.889433     20.45802     50.69292         6     0.750     0.557 -56.24   0
       383    644.0375    122.0769 300.3786617 +22.6124420     359.7486     72.47569      1.290     2.75     4.810071     20.45802     57.27597         5     0.772     0.479  71.00   0
       384    794.8834    120.0135 300.4263289 +22.6570138     416.9471     72.47569      1.350     3.54     4.737059     20.45802     84.19205         9     1.067     0.595 -43.67   0
       385    702.9648    120.8650 300.3974106 +22.6297388     756.5983     72.51264      1.332     4.14      4.78164     20.45802     108.3956        10     1.087     0.754 -28.64   0
       386    143.0388    115.2183 300.2250147 +22.4603694     505.2007     72.53111      1.377     3.18     5.087487     20.45802     69.73215         8     0.906     0.647 -59.17   0
       387    500.9875    113.6276 300.3368615 +22.5671703     409.9831     72.51264      1.374     3.27     4.889433     20.45802     60.51236        10     1.031     0.660  36.41   0
       388    578.4606    111.3517 300.3617185 +22.5897206     6132.042     72.56802      1.248     2.26     4.853284     20.45802     781.8331        35     1.151     1.038  82.64   0
       389    353.3011    110.4382 300.2919407 +22.5220097     1446.766     72.53111      1.248     2.28     4.810314     20.45802      190.691        18     1.043     0.896  67.31   0
       390    619.7351    108.6567 300.3754454 +22.6013068     847.8495     72.56802      1.336     2.46     4.815697     20.45802     111.8051        10     0.896     0.653  89.62   0
       391    635.2683    104.6230 300.3815913 +22.6047989     577.5378     72.53111      1.293     2.31     4.810828     20.45802     83.38742         7     0.770     0.610  67.87   0
       392    102.3415    102.8667 300.2163733 +22.4446235     697.3721     72.54957      1.477     3.19     5.266046     20.45802     65.62422        10     0.956     0.726 -56.88   0
       393    944.4647    101.8547 300.4788526 +22.6965631     243.2737     72.56802      1.125     2.25     4.925779     20.45802     47.05278         5     0.699     0.465 -69.82   0
       394    905.3279    102.1208 300.4665619 +22.6849270     558.1415     72.64182      1.115     2.11     4.857639     20.45802     85.35979         8     0.746     0.662  77.84   0
       395    674.0838     99.9158 300.3952079 +22.6150686     406.2703     72.64182      1.178     2.32     4.799415     20.45802     77.07601         8     0.805     0.607  52.61   0
       396    622.7206     96.2840 300.3803878 +22.5986443     2729.453     72.66025      1.232     2.16     4.809478     20.45802     364.0403        24     1.089     0.932  65.67   0
       397    637.7877     95.0208 300.3854900 +22.6027930     889.0996     72.49416      1.758     5.21     4.802423     20.45802     85.14885        17     1.602     0.779  46.98   0
       398    263.3776     97.0367 300.2683199 +22.4912148     427.8254     72.53111      1.221     3.14     5.072919     20.45802     52.16046         7     0.749     0.646 -83.79   0
       399    709.1137     87.6581 300.4100959 +22.6220329     1512.466     72.62337      1.279     2.28     4.750645     20.45802      238.973        17     1.036     0.850  73.30   0
       400    869.5419     86.0524 300.4606154 +22.6695950     357.7299     72.56802      1.482     3.38     4.771885     20.45802     47.84581         6     0.828     0.596 -51.32   0
       401    787.2944     82.0150 300.4362872 +22.6438153     303.5769     72.43872      1.114     3.71     4.733771     20.45802     55.07803         5     1.013     0.429 -24.11   0
       402    647.0665     80.9646 300.3929383 +22.6015308     731.4189     72.51264      1.275     2.52     4.753556     20.45802     119.5652        12     0.914     0.797 -83.55   0
       403    452.7357     80.2697 300.3326617 +22.5431311      1006.97     72.54957      1.241     2.49     4.833279     20.45802       131.91        15     1.156     0.766  89.00   0
       404     25.6893     80.5036 300.1998109 +22.4152240     550.2547     72.69711      1.549     3.74     5.745543     20.45802     52.99805        11     0.995     0.853 -28.14   0
       405    356.5012     78.4306 300.3033157 +22.5137732      833.253     72.47569      1.174     2.52     4.785809     20.45802     115.0832        12     0.928     0.716  44.47   0
       406    738.6114     76.8556 300.4227896 +22.6277580      464.032     72.49416      1.264     2.55      4.73494     20.45802     78.22768         6     0.874     0.482  84.54   0
       407    999.5401     75.1496 300.5046915 +22.7053612     2268.099     72.56802      1.296     2.31     4.992343     20.45802     296.6606        23     1.097     0.976  87.61   0
       408    127.8839     68.5248 300.2354463 +22.4424189     3739.352     72.60493      1.416     2.65     5.342782     20.45802     472.5794        30     1.245     1.021  67.90   0
       409    695.9095     68.9542 300.4120475 +22.6127020     538.5824     72.49416      1.278     2.61     4.715622     20.45802     87.01584         9     0.774     0.755 -77.29   0
       410    550.4445     65.4734 300.3678734 +22.5681438     353.8317     72.49416      1.492     3.74        4.747     20.45802     49.22129         6     0.929     0.433 -72.70   0
       411    453.9895     65.6399 300.3377958 +22.5393026     293.4868     72.51264      1.155     2.79     4.816178     20.45802     53.51451         6     0.758     0.650  25.83   0
       412    689.1982     60.8344 300.4125897 +22.6083581     917.4814     72.47569      1.245     2.20      4.69185     20.45802      149.336        12     0.975     0.764 -76.98   0
       413    243.8987     60.5815 300.2740842 +22.4749066     1400.475     72.43872      1.452     2.59     4.979642     20.45802     179.6585        17     1.100     0.883  41.70   0
       414    727.1732     55.9141 300.4260162 +22.6183122     799.1408     72.51264      1.612     3.67     4.722125     20.45802     84.82056        15     1.237     0.799  81.18   0
       415    650.1268     56.0904 300.4019573 +22.5952960     505.2083     72.67868      1.383     4.52     4.669266     20.45802     58.64402        11     1.222     0.768 -87.75   0
       416    747.1054     52.0473 300.4334807 +22.6231672     2256.234     72.53111      1.312     2.29     4.733061     20.45802     332.3456        23     1.079     0.949  88.58   0
       417    452.8699     50.4174 300.3423831 +22.5345928     531.2708     72.53111      1.366     3.66     4.795269     20.45802     65.58311         9     0.937     0.648  68.99   0
       418    130.3566     47.5972 300.2430000 +22.4371504      1068.57     72.53111      1.394     2.42     5.437195     20.45802     125.6348        16     0.971     0.887  30.97   0
       419    921.9189     45.3248 300.4901535 +22.6735547     668.6219     72.62337      1.250     2.52     4.789024     20.45802      108.461        12     1.027     0.702  68.06   0
       420    695.5684     44.8334 300.4197625 +22.6056645     952.6623     72.53111      1.216     2.13     4.662674     20.45802     127.6634        12     0.996     0.695  78.42   0
       421    402.3581     42.7610 300.3291477 +22.5172623     371.7667     72.60493      1.688     3.71     4.769751     20.45802     51.93574         6     1.030     0.727  39.16   0
       422    505.9357     39.5458 300.3624242 +22.5473620      866.234     72.54957      0.645     0.81     4.729523     20.45802     462.1407         5     0.499     0.324 -84.22   0
       423    453.3855     37.3360 300.3467848 +22.5309879     325.5696     72.47569      1.114     3.03     4.778798     20.45802     45.20064         5     0.713     0.472  77.15   0
       424    146.1454     37.0603 300.2513229 +22.4388564     234.1835     72.56802      1.379     4.04     5.396758     20.45802     33.86699         6     0.972     0.481  53.51   0
       425    280.2619     34.5911 300.2938178 +22.4783366     505.3073     72.45721      1.657     2.21     4.770926     20.45802      51.8592         5     0.671     0.475 -15.45   0
       426    547.9557     29.4651 300.3787736 +22.5570484     796.7628     72.49416      1.258     2.29     4.593056     20.45802     123.7043        12     0.952     0.729  57.14   0
       427    780.5565     28.7426 300.4514611 +22.6264784     302.0409     72.49416      1.236     3.71     4.731631     20.45802     40.10116         5     0.949     0.416  -9.13   0
       428    682.9855     27.3226 300.4215200 +22.5968626     466.4324     72.53111      1.517     2.26      4.58859     20.45802      46.2171         7     0.698     0.649 -15.75   0
       429    157.3297     26.8770 300.2581003 +22.4392836     610.8448     72.62337      1.325     2.54      5.37194     20.45802      91.3382        10     0.869     0.779 -73.76   0
       430    711.2288     24.2976 300.4312995 +22.6044478     786.3726     72.43872      1.286     2.48     4.658349     20.45802     123.1026        14     1.039     0.845  65.80   0
       431    519.6247     22.6145 300.3721747 +22.5465951     1835.562     72.53111      1.254     2.24     4.640491     20.45802     283.3234        18     1.015     0.870  77.18   0
       432    242.4968     20.1782 300.2867474 +22.4628808     537.4474     72.43872      1.265     2.65     4.883162     20.45802     75.98664        11     0.921     0.766  26.40   0
       433    416.5845     19.4571 300.3411294 +22.5148271     203.7253     72.49416      1.114     4.12     4.765727     20.45802     29.91901         5     0.988     0.490 -86.38   0
       434    476.9641     16.4725 300.3608870 +22.5320537     1247.633     72.47569      1.241     2.26     4.744309     20.45802      192.567        13     0.884     0.781  81.22   0
       435    608.9142   1018.4566 300.0764457 +22.8593058     6763.429     72.62337      1.683     3.32      3.60928     20.45802     517.3069        43     1.390     1.289  56.14  16
       436    119.5852   1007.4523 299.9278342 +22.7092616     756.6848     72.51264      7.802     9.59     26.61138     20.45802     32.92312        10     2.866     0.895 -25.85  19
       437     99.0417   1015.2916 299.9189001 +22.7053379     887.5396     72.51264      7.004     8.66     33.40493     20.45802     47.57445        11     2.356     0.889  23.39  19
       438    120.8471   1015.9598 299.9254570 +22.7120783      1441.48     72.56802      8.946    17.26     28.66253     20.45802     45.40366        31     3.293     2.515  71.29  19
       439     92.8148   1022.6099 299.9145834 +22.7055644     1100.155     62.04145      7.918    10.23     38.29544     20.45802      43.3615        20     2.814     1.036  16.35  27
       440    488.3323   1012.8751 300.0407282 +22.8215213     553.8615     72.58648      1.849     6.19     3.559493     20.45802     42.54642         9     1.094     0.983 -64.35   0
