#   1 NUMBER                 Running object number                                     
#   2 X_IMAGE                Object position along x                                    [pixel]
#   3 Y_IMAGE                Object position along y                                    [pixel]
#   4 ALPHA_J2000            Right ascension of barycenter (J2000)                      [deg]
#   5 DELTA_J2000            Declination of barycenter (J2000)                          [deg]
#   6 FLUX_APER              Flux vector within fixed circular aperture(s)              [count]
#   7 FLUXERR_APER           RMS error vector for aperture flux(es)                     [count]
#   8 FLUX_RADIUS            Fraction-of-light radii                                    [pixel]
#   9 FWHM_IMAGE             FWHM assuming a gaussian core                              [pixel]
#  10 BACKGROUND             Background at centroid position                            [count]
#  11 THRESHOLD              Detection threshold above background                       [count]
#  12 FLUX_MAX               Peak flux above background                                 [count]
#  13 ISOAREA_IMAGE          Isophotal area above Analysis threshold                    [pixel**2]
#  14 A_IMAGE                Profile RMS along major axis                               [pixel]
#  15 B_IMAGE                Profile RMS along minor axis                               [pixel]
#  16 THETA_IMAGE            Position angle (CCW/x)                                     [deg]
#  17 FLAGS                  Extraction flags                                          
         1    517.1238     17.9489 300.3721848 +22.5465889     1906.355     72.41634      1.488     2.66     4.539527     20.43085     235.1376        24     1.213     1.047 -88.79   0
         2    239.8078     15.6312 300.2866551 +22.4628517      711.266     72.41634      1.571     3.33     5.074958     20.43085     75.58112        13     1.028     0.925 -88.43   0
         3    474.4910     12.0300 300.3608325 +22.5321195     1410.285     72.37944      1.445     2.64     3.855638     20.43085     148.4317        21     1.268     0.941  73.28   0
         4    579.9402      8.5079 300.3948038 +22.5626849     1244.567     72.49008      1.373     2.49     5.011995     20.43085     159.4077        16     0.984     0.910  88.24   0
         5    224.1199      5.5837 300.2850343 +22.4552642      534.472     72.43478      1.418     4.53     5.135263     20.43085     75.65617        11     1.453     0.672  86.69  16
         6    175.1303      7.6656 300.2691291 +22.4411825     459.2989     72.45322      1.430     2.14     5.132625     20.43085     68.18725         7     0.770     0.557  31.32   0
         7    404.6352      6.1941 300.3409844 +22.5095193     437.5705     72.41634      2.070     4.29     3.819893     20.43085     28.87916         5     0.960     0.546  40.16  17
         8    400.1620      2.4280 300.3408133 +22.5070970      2075.88     62.26014      1.358     2.59      3.78819     20.43085     240.5262        20     1.025     0.957  49.29  24
         9     47.4049      1.3722 300.2314761 +22.4010951     664.6043     56.45425      1.134     2.78     5.229182     20.43085     129.0419         9     0.967     0.567  -3.94  24
        10     84.2027   1019.3873 299.9122316 +22.7041884     1376.524     72.25014      5.869    12.81      45.9966     20.43085      49.7674        33     2.812     1.625 -65.74  27
        11    186.6179   1020.7332 299.9436173 +22.7353324     4221.162     69.80537     11.612    32.20       14.602     20.43085     101.4225       350     8.436     4.727  20.96  26
        12    154.1760   1023.1291 299.9327551 +22.7262765     885.8318     59.38317      5.120     4.97     22.66746     20.43085     38.26923        10     1.334     0.802 -34.11  27
        13    149.4737   1023.5051 299.9311714 +22.7249721     832.0594     57.39287     10.494    11.30     24.43604     20.43085     45.93076        14     2.995     1.187  -7.92  27
        14    144.0513   1022.6677 299.9297590 +22.7231036      869.895     61.78635      2.677     3.89     25.82193     20.43085     43.59519         5     1.234     0.351  28.02  19
        15    129.0979   1021.6862 299.9254319 +22.7183314     714.4658      66.3924      7.672     8.16     30.30375     20.43085     39.32527         9     1.626     1.145  69.23  25
        16     48.6234   1014.2282 299.9028587 +22.6920232     1096.894     72.41634     10.573    17.94     60.94096     20.43085     51.86786        41     4.783     1.869  27.21  19
        17     33.1773    997.5067 299.9035038 +22.6825922     2212.927     72.32405      7.201    25.42     57.10263     20.43085     67.26363       139     4.244     4.228  38.88   3
        18     42.6266   1020.5610 299.8989346 +22.6920365     2363.592      70.3581      7.004    25.85     68.53433     20.43085     57.54568       148     6.000     3.092   8.49  27
        19     35.3926   1016.1179 299.8981340 +22.6885904     1414.902     72.34251      4.731     9.51     69.19192     20.43085     61.37376        25     2.173     1.160 -17.28  19
        20     35.5681   1011.9529 299.8995442 +22.6874497     2029.269     72.45322      6.299    14.13     65.85628     20.43085     62.04269        60     3.820     1.453 -33.23  19
        21    197.3171   1008.0113 299.9510839 +22.7348988     803.3518     72.37944      3.853     6.30     11.39249     20.43085     53.26151        14     1.333     1.043  -0.05   0
        22    187.7729   1011.9365 299.9468398 +22.7331579     1964.317     72.41634      6.905    13.68     13.47815     20.43085     55.31052        47     3.807     1.367  66.33  19
        23    514.8289   1004.5424 300.0509711 +22.8292179     1517.038     72.41634      1.654     3.60     3.626126     20.43085     119.7036        20     1.224     1.036 -20.12   0
        24     64.2927    998.9301 299.9127054 +22.6923461     1446.389     72.54534     11.389    16.33     45.51297     20.43085     50.89613        38     3.970     1.868 -26.00   3
        25    486.1339   1007.9279 300.0409381 +22.8215775     453.1777     72.45322      1.490     4.57     3.621703     20.43085     44.39888         7     1.135     0.523 -47.38   0
        26    408.8944   1001.0137 300.0191548 +22.7964123     927.9064     72.34251      1.543     3.12      3.60198     20.43085     100.3965        17     1.063     1.014 -48.29   0
        27    339.3120    999.1089 299.9981303 +22.7749792         6507     72.58215      1.730     3.45     3.710117     20.43085     551.8812        42     1.393     1.302 -44.87   0
        28     33.1075   1005.3004 299.9009454 +22.6848044     1695.808     72.58215      4.420    12.32     62.19227     20.43085      58.1942        40     2.820     1.499 -59.13   3
        29    371.7690    986.0380 300.0124802 +22.7809742     507.9596     72.41634      1.507     4.52     3.616775     20.43085     56.65834        10     1.225     0.813 -61.98   0
        30     47.1260    986.2822 299.9114895 +22.6835655      820.098     72.52692      2.133     5.90     43.90569     20.43085     44.68256        13     1.284     0.763 -63.90   0
        31     49.7789    964.5488 299.9193867 +22.6781343     1053.081     72.41634      3.878    10.44     29.81768     20.43085     40.11711        19     2.517     1.206  21.66   2
        32     34.2857    980.4879 299.9093871 +22.6780484     2070.193     72.54534      7.268    23.32     43.73152     20.43085     54.63906       116     5.304     2.848  -7.17   3
        33     34.3330    967.7911 299.9135339 +22.6744242      2107.58     72.41634      5.705    20.92     35.07833     20.43085      56.1422       108     4.865     2.499  -8.23   2
        34    231.6210    982.1923 299.9701509 +22.7377979     239.0112     72.39789      1.092     2.64     5.337831     20.43085     35.05009         5     0.719     0.451 -71.36   0
        35    885.6523    977.5349 300.1752781 +22.9327042     2071.916     72.45322      1.745     3.72     3.691767     20.43085     142.3506        27     1.300     1.176 -13.46   0
        36    535.5858    975.3487 300.0669349 +22.8270722     395.9642     72.43478      1.320     3.37     3.600527     20.43085      45.0531         7     0.944     0.586 -65.51   0
        37    674.6518    966.4294 300.1131406 +22.8662353     697.5957     72.43478      1.946     6.75     3.683458     20.43085     48.25561        14     1.682     0.760  59.79   0
        38   1001.6733    965.5191 300.2153699 +22.9640383     446.4156     72.52692      1.509     5.42     3.558777     20.43085     49.10966        10     0.912     0.908 -22.73   0
        39    709.1436    960.6356 300.1257706 +22.8749187     1100.553     72.43478      1.690     4.71     3.689988     20.43085     84.73172        20     1.363     1.045  75.88   0
        40    487.1777    961.6504 300.0563262 +22.8086167     469.8577     72.41634      1.396     4.19     3.582088     20.43085     51.65556         8     1.061     0.512 -56.07   0
        41    731.4716    954.4339 300.1347452 +22.8798359     11150.89     72.41634      1.657     3.16     3.693332     20.43085     919.7498        52     1.370     1.327   6.51   0
        42    777.5217    954.1877 300.1491739 +22.8935764     530.4463     72.39789      1.653     5.46     3.691434     20.43085     42.36732        10     1.132     0.742  81.75   0
        43    922.6706    954.2111 300.1944119 +22.9371069     382.1502     72.43478      1.702     4.75     3.627121     20.43085     31.94092         8     0.978     0.653   4.63   0
        44     43.6197    946.4156 299.9233746 +22.6710878     299.6331     72.39789      1.224     2.96     18.41679     20.43085     47.16455         8     0.871     0.662  86.64   0
        45    783.2744    942.6319 300.1547277 +22.8919846     330.2347     72.41634      1.493     2.98     3.684456     20.43085     42.15705         5     0.823     0.604 -38.24   0
        46    436.9250    942.9772 300.0467654 +22.7881800     427.3489     72.45322      1.494     3.49      3.61495     20.43085      44.7354         9     0.829     0.736 -60.33   0
        47    740.0516    936.4451 300.1432730 +22.8772461     1311.065     72.43478      1.551     3.13     3.681898     20.43085     134.5014        19     1.127     0.980  -0.56   0
        48    922.6968    936.1298 300.2003050 +22.9319231     378.9771     72.54534      1.793     4.30     3.589948     20.43085     43.64284         5     0.877     0.601 -13.16   0
        49    592.2141    933.8514 300.0980705 +22.8321568     468.5046     72.45322      1.680     4.87     3.467134     20.43085     42.49396         7     1.101     0.611 -81.55   0
        50    777.9995    929.9874 300.1571990 +22.8867731     939.6703     72.23165      1.988     4.18     3.676964     20.43085     73.78743        16     1.302     0.922 -11.26   0
        51    886.7517    926.7564 300.1921481 +22.9184550     441.0681     72.43478      2.116     5.37     3.642029     20.43085     37.88115         7     1.319     0.617  -4.36   0
        52    677.7802    920.4524 300.1290784 +22.8539791     692.8686     72.39789      1.515     4.51     3.607569     20.43085     56.26705        13     1.274     0.868 -34.70   0
        53    826.2991    921.1514 300.1751273 +22.8987200     626.8404     72.45322      1.643     4.86     3.676007     20.43085     54.27317        12     1.085     0.892  -9.66   0
        54    390.4542    916.7315 300.0408481 +22.7667058     3994.463     72.45322      1.565     2.92      3.69232     20.43085     401.2728        36     1.313     1.230 -69.53   0
        55    689.4064    916.9425 300.1338420 +22.8564589     520.5902     72.37944      1.556     5.36     3.610189     20.43085     53.58078        11     1.109     0.866  24.78   0
        56     52.2416    905.0579 299.9395098 +22.6618240     426.8636     72.41634      1.737     6.00     6.130323     20.43085     41.16183        11     1.298     0.803 -24.59   0
        57    115.7604    902.7487 299.9599946 +22.6802359     778.8539     72.41634      2.195     5.29     6.267138     20.43085     62.72079        17     1.415     1.182  85.60   0
        58    433.5089    904.5217 300.0582163 +22.7761241     367.8958     72.56375      1.572     3.45      3.65767     20.43085     42.73244         6     0.867     0.725  14.39   0
        59     92.7263    899.6476 299.9538469 +22.6724305      1591.82     72.41634      1.803     3.85     6.475925     20.43085     109.6847        27     1.337     1.200  -7.79   0
        60     24.4588    900.3869 299.9323999 +22.6521417     526.0205     72.39789      2.296     5.21     5.465345     20.43085     44.99461         9     1.321     0.594 -34.67   0
        61    964.5444    888.2926 300.2289226 +22.9307304     2117.797     72.47165      1.678     3.46     3.507328     20.43085     166.4674        28     1.318     1.148 -25.91   0
        62    918.9604    886.7463 300.2152105 +22.9166222     2167.884     72.41634      1.632     3.15     3.589943     20.43085     172.4803        24     1.172     1.103 -30.31   0
        63    624.5335    887.2932 300.1232846 +22.8284915     431.3403     72.56375      1.582     5.42     3.499159     20.43085     51.56164         9     1.034     0.803 -47.64   0
        64   1015.4867    882.8339 300.2465885 +22.9444313     339.0719     72.37944      1.693     5.31     3.449419     20.43085     44.16961         6     1.272     0.625  -8.11  16
        65    702.0297    880.7726 300.1495438 +22.8498632     689.6901     72.41634      1.550     4.43     3.542912     20.43085     63.67042        13     1.120     0.873 -72.04   0
        66    125.2205    880.9510 299.9700258 +22.6768277     409.5213     72.41634      1.452     3.83     5.059648     20.43085     40.95446         6     0.950     0.442  52.80   0
        67    570.4319    874.7624 300.1105157 +22.8086668     4823.466     72.43478      1.537     2.71     3.634833     20.43085      499.886        36     1.260     1.192  73.23   0
        68     60.0080    875.7616 299.9514535 +22.6557591     410.6324     72.43478      1.827     5.68     4.719599     20.43085     43.31304         7     1.282     0.710 -51.73   0
        69    372.3767    871.8355 300.0498322 +22.7484031     634.7614     72.43478      1.601     3.78     3.768326     20.43085     65.36006        11     1.018     0.813 -19.25   0
        70    120.6110    868.7926 299.9725489 +22.6719581     1142.264      72.2871      1.639     3.39     4.529417     20.43085     116.7516        21     1.214     1.096  85.63   0
        71    526.7215    867.2938 300.0993381 +22.7934110     6486.134     72.54534      0.719     0.99     3.689549     20.43085     2385.179        11     0.530     0.506  -6.09   2
        72    590.9061    866.8582 300.1194621 +22.8125402     758.3981     72.47165      1.519     3.47     3.580731     20.43085     72.17223        12     0.978     0.851 -55.57   0
        73    389.7602    866.4509 300.0569916 +22.7520752     326.1884     72.41634      1.250     2.34      3.77625     20.43085     45.55685         5     0.681     0.490 -10.32   0
        74    139.9024    865.8049 299.9795154 +22.6768936     476.1501     72.32405      1.564     4.96     4.370969     20.43085     45.26553        11     1.224     0.731  41.68   0
        75    963.4948    854.6608 300.2395381 +22.9207565     1180.984     72.50851      1.585     3.85     3.545131     20.43085     108.8024        20     1.358     0.956 -12.60   0
        76    746.4972    854.4175 300.1719724 +22.8556326      4135.27     72.32405      1.530     2.75     3.531588     20.43085     387.8135        31     1.233     1.113 -56.02   0
        77    292.7916    855.2563 300.0304735 +22.7197633     2923.568     72.39789      0.945     3.37     4.090914     20.43085     919.8322         8     0.944     0.377 -41.86   0
        78    154.7524    848.8318 299.9896516 +22.6764856     414.8203     72.45322      1.499     4.86      4.28257     20.43085     37.42112        10     1.188     0.719 -31.25   0
        79    463.4742    846.8201 300.0863136 +22.7685616     732.9576     72.41634      1.958     3.77     3.660326     20.43085     77.41975        14     1.089     0.929   7.74   0
        80    109.8659    845.4183 299.9768138 +22.6620309     914.7299     72.39789      1.587     3.48     4.240232     20.43085     85.97223        18     1.144     1.035  -4.56   0
        81    525.0468    840.2563 300.1076126 +22.7851503     560.9974     72.45322      1.554     3.95      3.74384     20.43085     62.64379         9     1.064     0.680 -27.68   0
        82    259.5535    837.2161 300.0260069 +22.7046134     52696.17     72.43478      1.604     2.84     4.075786     20.43085      5348.18       103     1.491     1.449 -43.32   0
        83    517.4214    836.0685 300.1066013 +22.7816611     1574.161     72.41634      1.501     2.74     3.731197     20.43085     183.8655        19     1.114     0.956  79.72   0
        84    930.1671    835.1339 300.2354974 +22.9051587     841.7506     72.41634      1.483     3.57     3.771531     20.43085     76.14055        16     1.091     0.978 -56.74   0
        85    232.9930    835.4398 300.0183270 +22.6961319     297.0438     72.45322      1.513     5.35     4.065343     20.43085     30.64753         6     0.977     0.827 -76.25   0
        86    188.0821    835.4470 300.0043641 +22.6826531     271.4197     72.43478      1.212     3.32     4.168844     20.43085     56.97681         6     0.803     0.471  14.21   0
        87    546.2363    832.3123 300.1167930 +22.7892270     845.5741     72.39789      1.457     3.47     3.811902     20.43085     96.14389        16     1.132     0.938 -51.98   0
        88    557.2668    830.6016 300.1207835 +22.7920448     603.8497     72.39789      1.287     2.53     3.782224     20.43085      81.4217         9     0.900     0.653  24.52   0
        89    877.0780    828.0760 300.2212404 +22.8872184     413.6844     72.52692      1.858     6.19      4.06251     20.43085      35.3268         7     1.236     0.870 -40.44   0
        90    662.6682    826.9339 300.1547983 +22.8226047     521.4459     72.47165      1.593     4.58     3.532562     20.43085     50.80386        11     1.003     0.912 -23.85   0
        91    309.2137    814.4775 300.0488449 +22.7129956     31032.45     72.43478      1.564     2.77     3.987608     20.43085     2769.409        79     1.424     1.375 -35.16   0
        92    700.2691    816.9546 300.1697570 +22.8310156     746.6235     72.39789      1.425     2.93     3.517379     20.43085       78.502        13     0.955     0.863 -64.50   0
        93    323.4915    814.9457 300.0531330 +22.7174146     1929.197     72.47165      1.537     3.00     3.948282     20.43085     215.6635        24     1.205     1.067 -62.77   0
        94    832.3458    810.1707 300.2131204 +22.8686671     2671.506     72.41634      1.460     2.61     4.025434     20.43085     313.9811        27     1.196     1.100 -53.65   0
        95    320.5047    808.8707 300.0541800 +22.7147757     582.3234     72.52692      1.557     3.04     3.954169     20.43085     66.30291         9     0.874     0.726 -44.11   0
        96    861.7684    808.4969 300.2228365 +22.8770063     270.3852     72.37944      1.142     3.78      4.22442     20.43085     44.53925         6     0.819     0.500   1.20   0
        97    590.0468    806.3250 300.1388861 +22.7949094     840.2842     72.41634      1.377     2.96     3.759805     20.43085     102.0249        15     1.050     0.859  -9.84   0
        98    191.7319    806.2830 300.0149843 +22.6753856     703.6647     72.52692      1.456     3.49     4.074927     20.43085     83.18494        13     1.050     0.801 -28.44   0
        99    484.7499    803.8596 300.1069091 +22.7626176     257.0058     72.47165      1.484     3.81     3.732032     20.43085     36.79845         5     0.952     0.438  42.31   0
       100    437.2876    801.2261 300.0929955 +22.7476233     726.7316     72.36098      1.315     2.99     3.831214     20.43085      100.647        13     0.978     0.853 -14.99   0
       101    838.4899    797.8363 300.2190476 +22.8669668     548.5253     72.39789      1.467     2.30      4.12823     20.43085     69.74168         8     0.815     0.616  32.48   0
       102    426.3933    806.4122 300.0879189 +22.7458428     351.3652      72.2871      1.403     3.86     3.847654     20.43085     51.14709         8     0.925     0.708 -50.88   0
       103    339.6069    797.5726 300.0637957 +22.7172669     408.7362     72.41634      1.603     4.54     3.921349     20.43085     37.29756         7     0.938     0.623 -69.60   0
       104    383.3011    795.9130 300.0779269 +22.7299014     290.9143     72.58215      1.272     3.37     3.892881     20.43085     42.54147         5     0.773     0.426 -74.80   0
       105     25.6275    795.6036 299.9668466 +22.6224579     592.1987     72.37944      1.942     5.76     3.691951     20.43085     40.58131        13     1.204     0.923  19.66   0
       106    816.1823    792.6724 300.2137740 +22.8587967     428.0249     72.41634      1.467     4.29     4.006734     20.43085      47.7861         9     0.970     0.748 -57.36   0
       107    189.4102    790.7859 300.0193026 +22.6702446     405.8217     72.32405      1.306     2.81     4.094311     20.43085     73.33766         6     0.740     0.623  11.73   0
       108    512.6307    781.2339 300.1229456 +22.7644880      451.011     72.43478      1.402     3.33     3.931207     20.43085     69.53874        11     1.013     0.784 -61.65   0
       109    482.3392    779.1885 300.1141827 +22.7548147     614.0246     72.36098      1.482     2.87     3.824333     20.43085     69.49867        10     0.902     0.721 -48.94   0
       110    898.6976    775.4014 300.2451145 +22.8785700     4501.311     72.32405      1.521     2.73     4.264004     20.43085     425.2456        35     1.294     1.122 -46.25   0
       111    391.9277    778.3925 300.0863087 +22.7274630     390.3595     72.39789      1.391     1.86     3.931494     20.43085     66.98495         6     0.740     0.485   6.22   0
       112    504.0948    776.4551 300.1218428 +22.7605562     1421.224     72.47165      1.386     2.85     3.926364     20.43085     172.1203        17     1.058     0.976 -12.74   0
       113    423.9511    775.8760 300.0970903 +22.7363485     315.0466     72.41634      1.428     3.97     3.922558     20.43085      39.5906         8     0.952     0.619 -61.03   0
       114    887.1904    766.7951 300.2443257 +22.8726491     1547.094     72.26862      1.430     2.79     4.346378     20.43085     180.1037        21     1.132     0.983  82.77   0
       115    250.2292    760.8180 300.0479547 +22.6799029       878.15     72.39789      1.492     3.69     4.113967     20.43085     94.60168        16     1.083     0.992  78.31   0
       116    116.7103    761.5170 300.0062272 +22.6400292     284.4108     72.52692      1.140     3.25     4.176046     20.43085     36.39441         5     0.728     0.475  16.22   0
       117    713.7581    758.2310 300.1930586 +22.8182003     2516.559     72.45322      1.535     2.84     3.976881     20.43085     260.5218        30     1.568     1.047  -0.08   0
       118    918.3275    756.9550 300.2572345 +22.8791545     1668.069     72.39789      1.520     3.03     4.257531     20.43085     162.6845        18     1.117     0.953  39.59   0
       119    348.3385    749.9218 300.0820076 +22.7062164     2438.301     72.49008      0.980     2.92     4.011207     20.43085     718.6693        10     0.999     0.413 -66.77   0
       120     98.8138    744.8377 300.0060899 +22.6298743     559.1964     72.41634      1.414     3.73     4.221807     20.43085     70.89854        11     1.000     0.852 -76.85   0
       121    795.6337    743.8438 300.2232497 +22.8386142     639.0979     72.47165      1.570     2.34      4.08319     20.43085     87.46289         9     0.810     0.726 -68.04   0
       122    831.9520    735.0975 300.2374137 +22.8469885     145413.8     72.45322      1.420     2.45     4.338493     20.43085     17608.87       163     1.480     1.410 -64.62   0
       123    594.3506    738.8161 300.1621811 +22.7768222     444.2961     72.45322      1.154     2.20     4.410607     20.43085     70.91451         6     0.724     0.558 -36.81   0
       124    979.0125    736.6401 300.2827665 +22.8915036     1200.472     72.41634      1.502     3.35     3.869535     20.43085     108.6079        18     1.166     0.918 -27.20   0
       125    684.4340    735.4592 300.1913286 +22.8028700     809.9982     72.45322      1.574     3.81     4.374469     20.43085     72.03751        12     0.973     0.885 -18.86   0
       126    864.9296    727.8131 300.2500624 +22.8547802     337.6067     72.41634      1.261     4.29     4.569334     20.43085     44.31326         8     0.966     0.664 -15.96   0
       127    518.1716    724.0126 300.1432777 +22.7497270     1609.468     72.41634      1.388     2.33     4.328476     20.43085     207.5997        19     1.053     0.912  81.03   0
       128    699.4595    721.2479 300.2006302 +22.8032942     9354.136     72.47165      1.381     2.41     4.335083     20.43085     1039.266        44     1.234     1.153 -53.26   0
       129    181.3969    722.8319 300.0389083 +22.6483504     218.5245     72.39789      1.016     3.38      4.31683     20.43085     31.36929         5     0.756     0.438 -69.31   0
       130    200.9330    716.6408 300.0469935 +22.6524375     5010.194     72.39789      1.511     2.67     4.304657     20.43085     507.6673        38     1.269     1.218 -65.89   0
       131    283.0706    714.7658 300.0731399 +22.6765471     1067.516     72.41634      1.351     2.69     4.286075     20.43085     122.2827        17     1.113     0.890 -77.11   0
       132    158.8387    712.1530 300.0353690 +22.6385174     541.3517     72.47165      1.676     4.08     4.411494     20.43085     54.30206        10     1.051     0.742  78.76   0
       133    491.3456    710.0292 300.1394743 +22.7376677      771.335     72.41634      1.596     4.08       4.2826     20.43085     75.33905        16     1.226     0.982  62.78   0
       134    482.8308    702.2003 300.1393695 +22.7328669     3327.661     72.37944      1.388     2.42     4.313022     20.43085     438.1976        28     1.215     1.079  78.60   0
       135    473.1082    695.7866 300.1384287 +22.7281099     1475.666     72.36098      1.362     2.38     4.349244     20.43085     195.3008        16     1.053     0.831  65.51   0
       136    401.2962    695.0095 300.1163356 +22.7063472     378.9843     72.34252      1.513     3.78     4.282438     20.43085     36.60523         5     0.819     0.502 -37.91   0
       137    866.8586    693.3960 300.2618544 +22.8454718      483.778     72.37944      1.351     4.06     4.567317     20.43085     51.86613        10     1.083     0.660 -78.39   0
       138    384.3787    692.9855 300.1117304 +22.7006916     276.2139     72.39789      1.384     3.19     4.279836     20.43085     38.91573         5     0.786     0.547  -1.63   0
       139    136.4145    692.1052 300.0349174 +22.6260374      630.027     72.34252      1.445     2.67     4.503497     20.43085     69.40035        11     0.953     0.705  19.25   0
       140    150.4350    690.6349 300.0397525 +22.6298235      552.775     72.49008      1.470     3.93     4.510907     20.43085     78.06705        11     1.117     0.795 -10.62   0
       141    397.9367    685.7060 300.1183149 +22.7026696     1908.061     72.50851      1.455     2.67     4.335109     20.43085     217.4381        24     1.147     1.097  66.29   0
       142    919.9999    686.7432 300.2805864 +22.8594851     599.9058     72.32405      1.561     4.67     4.539312     20.43085     51.34044        10     1.053     0.758 -60.73   0
       143    497.0331    686.3569 300.1489406 +22.7325788     579.0006     72.47165      1.632     3.17     4.500572     20.43085      58.1434         9     0.975     0.674 -57.04   0
       144    176.2047    687.0754 300.0489188 +22.6365362     447.8374     72.32405      1.394     2.95     4.504008     20.43085     67.27443         9     0.837     0.735  23.37   0
       145    431.6748    684.6750 300.1291473 +22.7124935     422.0635     72.50851      1.935     4.98     4.383337     20.43085     27.68295         6     1.153     0.608  66.09   0
       146     51.8981    680.7869 300.0123373 +22.5974244     19682.92     72.30558      1.630     3.02     4.319768     20.43085     1741.291        72     1.456     1.442  -3.48   0
       147    973.6864    683.0154 300.2985414 +22.8745001     679.7239     72.36098      1.329     2.91     4.162583     20.43085     92.84548        14     1.039     0.827   5.93   0
       148    482.7248    681.1609 300.1461764 +22.7267962     1014.504     72.37944      1.346     3.08     4.497931     20.43085     136.6135        14     1.130     0.786 -36.48   0
       149    518.2726    679.6108 300.1577448 +22.7370119      348.107     72.43478      1.099     2.04     4.608798     20.43085     62.32701         5     0.698     0.431  24.53   0
       150    236.0672    672.7427 300.0721864 +22.6503878     171.1291     72.45322      1.123     2.99     4.464397     20.43085     40.97625         5     0.777     0.496  54.32   0
       151    900.8600    667.0234 300.2810293 +22.8480843     981.5916     72.39789      1.342     2.44     4.583573     20.43085      137.406        15     1.006     0.840 -18.55   0
       152    767.6835    665.0964 300.2401428 +22.8076195     560.6035     72.58215      1.384     3.74      4.33954     20.43085     60.81866        10     1.048     0.732 -35.95   0
       153     63.9769    664.8127 300.0212819 +22.5964689     365.1801     72.41634      1.549     4.83     4.414167     20.43085     38.76627         7     1.399     0.472  52.53   0
       154    446.4098    661.5212 300.1412591 +22.7102675     452.1187     72.37944      1.323     3.44     4.487816     20.43085     54.22338         8     0.960     0.619 -39.48   0
       155    841.1090    659.6606 300.2647946 +22.8280639     775.8223     72.50851      1.568     3.44     4.471134     20.43085     66.58085        14     1.099     0.879 -52.02   2
       156    836.7936    659.5357 300.2634900 +22.8267348     414.3563     72.37944      1.381     3.50     4.455912     20.43085     44.88116         7     0.887     0.615  59.88   3
       157    238.9278    660.5767 300.0770303 +22.6477558     256.1549     72.45322      1.193     3.72     4.458325     20.43085      34.7155         6     0.807     0.492  -4.33   0
       158    402.8249    653.8808 300.1301809 +22.6950022     827.7537     72.39789      1.387     3.18     4.402212     20.43085     108.7951        15     1.309     0.772 -52.13   0
       159    598.5131    651.2098 300.1919589 +22.7529187      429.003     72.36098      1.373     3.20     4.551661     20.43085     60.78017         9     0.960     0.661  52.67   0
       160    550.9671    652.3093 300.1767976 +22.7389784     605.9157     72.37944      1.386     2.30     4.687776     20.43085     85.51112         7     0.723     0.615 -44.16   0
       161    568.6577    650.5115 300.1828898 +22.7437666     480.7894     72.49008      1.195     2.63     4.636215     20.43085     75.64963         9     0.855     0.724 -71.28   0
       162    447.0689    649.8715 300.1452509 +22.7071214     893.4388     72.49008      1.393     3.57     4.481803     20.43085     105.6098        15     1.059     0.999 -58.93   0
       163    880.8826    645.0652 300.2819385 +22.8357894     3165.478     72.52692      1.369     2.60     4.559351     20.43085     418.0205        28     1.215     0.992 -58.74   0
       164    412.6670    645.2090 300.1360618 +22.6954653     1641.524     72.41634      1.370     2.72     4.400409     20.43085     221.5653        20     1.126     0.936 -67.78   0
       165    978.8199    643.0461 300.3131361 +22.8645526     689.2235     72.45322      1.372     2.81     4.070467     20.43085     87.36895        11     0.900     0.783 -52.17   0
       166    777.5909    642.7016 300.2505100 +22.8041564     336.1053     72.30558      1.404     2.86     4.320264     20.43085     39.69827         5     0.792     0.662 -33.81   0
       167    388.4319    640.6619 300.1299996 +22.6868913     339.9554     72.43478      1.418     3.44      4.37957     20.43085     36.30574         5     0.759     0.451 -70.47   0
       168    441.8870    635.9234 300.1481719 +22.7015637     377.2484     72.54534      1.299     2.32     4.458847     20.43085     65.37103         5     0.749     0.488 -39.83   0
       169    920.2757    634.8041 300.2975569 +22.8446445     305.8483     72.32405      1.164     2.98     4.561192     20.43085     54.83286         5     0.820     0.461 -42.37   0
       170    276.0563    631.9934 300.0978647 +22.6506941     9003.311     72.41634      1.429     2.54      4.38344     20.43085     1061.996        41     1.229     1.169 -81.11   0
       171    398.5561    628.9890 300.1369433 +22.6865776     8871.637     72.41634      1.386     2.31     4.375563     20.43085     1122.615        46     1.221     1.166 -33.11   0
       172    810.1915    622.7791 300.2671458 +22.8082034     1964.287     72.39789      1.384     2.38     4.333464     20.43085     240.8098        21     1.263     0.909 -79.18   0
       173   1003.2042    624.0331 300.3269224 +22.8663933     950.2359     72.41634      1.401     3.14     3.750709     20.43085     107.3687        14     0.984     0.904 -55.58   0
       174    894.8478    620.1526 300.2943903 +22.8328159     12105.25     72.45322      1.389     2.43       4.5441     20.43085     1496.043        50     1.272     1.186 -51.11   0
       175    459.0916    618.5276 300.1591797 +22.7017298     11530.81     72.58215      1.370     2.37     4.496977     20.43085     1362.264        48     1.214     1.199 -66.92   0
       176    628.6316    614.3677 300.2133129 +22.7513690     484.7578     72.43478      1.152     2.38     4.407881     20.43085      77.5044         6     0.790     0.479 -85.01   0
       177    186.6716    614.1453 300.0758761 +22.6187558     1344.594     72.41634      1.533     2.95     4.491869     20.43085     139.9177        19     1.213     0.923 -32.12   0
       178    344.4181    612.7686 300.1253733 +22.6656842     209.8273     72.39789      1.270     3.18     4.357129     20.43085     32.22515         5     0.728     0.455 -70.35   0
       179    108.5026    613.5295 300.0517828 +22.5951232     248.3995     72.54534      1.382     3.98     4.495434     20.43085     31.03857         5     1.085     0.419  15.77   0
       180    433.5977    611.5028 300.1535293 +22.6920679     415.4894     72.32405      1.116     2.85     4.414775     20.43085     59.50792         9     0.858     0.741  -5.81   0
       181    390.7768    606.6947 300.1417685 +22.6778455     4473.823     72.30558      1.381     2.29      4.35513     20.43085     585.2455        32     1.147     1.099  74.44   0
       182    733.6669    606.4546 300.2486040 +22.7805802     805.2205     72.47165      1.329     2.64     4.310767     20.43085     91.33485        13     0.922     0.844 -53.91   0
       183    369.1117    605.3060 300.1354798 +22.6709490     1275.116     72.60056      1.336     2.46     4.353131     20.43085     167.1775        14     0.964     0.837 -54.42   0
       184    123.3718    604.6083 300.0593023 +22.5970261     725.9652     72.41634      1.527     3.13     4.482587     20.43085     68.25972        12     0.940     0.840 -21.37   0
       185    810.6123    602.1542 300.2739803 +22.8024043     1507.569     72.41634      1.456     2.72     4.325655     20.43085     166.0506        19     1.137     0.907 -72.10   0
       186    507.4336    594.3038 300.1820978 +22.7092715     196973.9     72.41634      1.357     2.27     4.653193     20.43085     23465.43       221     1.517     1.476 -39.93   0
       187     56.7264    602.1933 300.0393802 +22.5763335     343.9413     72.36098      1.735     5.46     4.351809     20.43085      33.4306         7     1.136     0.740  50.70   0
       188    911.7221    600.9550 300.3058914 +22.8323553     264.3435     72.39789      1.553     3.83     4.490767     20.43085     28.99158         5     0.836     0.503  34.13   0
       189    330.6293    600.7371 300.1249943 +22.6580953     335.2539     72.43478      1.488     5.33     4.351882     20.43085     33.49749         9     1.031     0.777  36.40   0
       190    691.0967    599.0060 300.2377619 +22.7656816     790.5435     72.32405      1.369     2.82     4.310782     20.43085     100.4806        13     1.019     0.768  77.51   0
       191    193.5879    594.3128 300.0844707 +22.6151409     3040.796     72.36098      1.359     2.67     4.466928     20.43085     385.7553        29     1.157     1.118 -37.87   0
       192    895.8223    595.3180 300.3027656 +22.8259718     178.7498     72.37944      1.108     4.17     4.465703     20.43085     36.87819         6     0.768     0.645  78.24   0
       193    759.3134    590.1095 300.2619073 +22.7835712     524.8329     72.58215      1.502     3.38     4.300923     20.43085     54.46358         9     1.064     0.588 -81.18   0
       194    398.2126    578.2479 300.1533259 +22.6719102     472.2252     72.43478      1.478     3.43     4.326149     20.43085     66.23566         5     0.864     0.394 -21.02   3
       195    398.1488    574.4922 300.1545264 +22.6708130     2519.435     72.47165      1.375     2.41     4.322152     20.43085     309.0989        25     1.179     0.948 -67.70   2
       196    242.2967    576.9683 300.1052491 +22.6247772     420.3085     72.37944      1.421     4.28     4.423626     20.43085      47.6946         7     0.799     0.654 -66.09   0
       197    809.7078    570.5049 300.2839836 +22.7930403     340.7499     72.60056      1.349     3.43     4.305654     20.43085     56.81535         5     0.771     0.441 -21.83   0
       198    867.4382    563.8207 300.3041516 +22.8084170      186.409     72.43478      1.293     4.23     4.360686     20.43085     29.15217         5     0.935     0.546  40.53   0
       199    795.0549    560.6367 300.2826232 +22.7858144     1686.761     72.43478      1.308     2.32     4.292192     20.43085     233.0669        18     0.978     0.909  37.01   0
       200     26.3789    559.4576 300.0438388 +22.5549683     392.7603     72.43478      1.509     5.89     4.392947     20.43085     41.97404         8     1.407     0.694 -89.82   0
       201    681.6989    559.9999 300.2475097 +22.7516611      409.596      72.2871      2.041     3.84     4.309512     20.43085      50.0662         6     0.963     0.439 -81.01   0
       202    666.1836    558.3615 300.2432090 +22.7465402     2527.507     72.43478      1.280     2.25     4.345986     20.43085     328.1368        23     1.045     0.966 -76.07   0
       203    910.6765    555.9341 300.3201957 +22.8191043     512.0502     72.50851      1.397     3.28     4.240924     20.43085     61.55545        11     1.015     0.754  81.78   3
       204    909.2892    551.2317 300.3212911 +22.8173373     794.1786     72.37944      1.503     2.87     4.217541     20.43085     95.88948        11     0.886     0.837  39.12   3
       205    876.0094    555.3618 300.3095725 +22.8085542     327.8223     72.43478      1.533     4.52     4.307234     20.43085     39.02036         6     0.842     0.690 -18.74   0
       206    571.1064    554.8697 300.2147341 +22.7170380     308.6896     72.54534      1.221     2.73     4.811482     20.43085     54.54333         7     0.819     0.625 -31.76   0
       207    923.3985    552.3173 300.3253381 +22.8218759     1246.575     72.32405      1.382     2.57      4.19268     20.43085     154.6122        16     0.995     0.896  74.00   0
       208    795.4244    551.0293 300.2858601 +22.7831648     2065.846     72.41634      1.364     2.23       4.2919     20.43085     272.6437        21     1.070     0.942  72.94   2
       209    794.0307    547.3351 300.2866261 +22.7816858     434.4063     72.41634      1.685     3.86     4.291793     20.43085     46.49572         5     1.249     0.343 -29.06   2
       210    548.5150    548.7833 300.2096779 +22.7085176     772.3368     72.37944      1.666     2.62     4.940626     20.43085     78.41791         8     0.771     0.729 -49.70   0
       211    334.8567    548.5325 300.1432721 +22.6443799      243.133     72.45322      1.206     2.95     4.314033     20.43085     45.21373         6     0.770     0.496   4.92   0
       212    833.3967    545.7210 300.2994206 +22.7930170     4316.194     72.32405      1.363     2.30      4.29363     20.43085     515.5779        31     1.148     1.060  78.74   0
       213    386.9047    547.8080 300.1596983 +22.6597811     367.1171     72.30558      1.466     3.19      4.29617     20.43085     46.40913         7     0.919     0.570 -76.02   0
       214    453.3835    554.4027 300.1782409 +22.6816091     635.7578     72.32405      1.294     2.82     4.503059     20.43085     83.93169        13     1.005     0.825  56.49   0
       215    925.1329    536.1197 300.3311419 +22.8177402     655.0389     72.52692      1.297     3.51     4.159619     20.43085     93.81008        12     1.033     0.855  43.00   0
       216     65.5048    536.4241 300.0634761 +22.5601022     936.7964     72.30558      1.577     3.32     4.432677     20.43085     91.40979        17     1.106     0.974 -13.83   0
       217    726.4265    529.8256 300.2712482 +22.7563975      352.312     72.37944      1.694     3.78     4.295927     20.43085     42.97116         6     0.985     0.490 -85.43   0
       218    331.5773    529.7244 300.1483624 +22.6379978     206.0167     72.45322      1.209     4.33     4.286877     20.43085     35.58433         5     1.025     0.588  29.45   0
       219    113.1098    528.7311 300.0807664 +22.5721791     165.2213     72.56375      1.342     4.24     4.408967     20.43085     35.68634         5     0.735     0.709  25.57   0
       220     57.8631    526.4393 300.0643456 +22.5549449     504.1656     72.41634      1.690     5.13     4.428856     20.43085     44.33897         9     1.075     0.741  13.49   0
       221    921.4604    524.6476 300.3337239 +22.8133429     327.1699     72.47165      1.218     4.45     4.188401     20.43085        50.02         8     1.179     0.494 -86.60   0
       222    665.8912    520.3953 300.2554532 +22.7355470     360.2467     72.32405      1.133     2.72     4.358098     20.43085     68.65562         8     0.932     0.566  44.07   0
       223    554.8876    518.5508 300.2214841 +22.7017459     342.6941     72.41634      1.337     5.35     4.862629     20.43085     43.31956         8     1.388     0.581  66.57   0
       224    274.3759    518.3908 300.1342548 +22.6175890     238.8257     72.41634      1.310     4.13     4.316467     20.43085     33.59523         7     1.058     0.460 -80.75   0
       225    606.7869    516.1951 300.2384096 +22.7166261     730.3808      72.2871      1.270     3.17     4.681644     20.43085     101.9718        13     1.079     0.797 -35.92   0
       226   1014.5247    513.8630 300.3662548 +22.8381168     1048.996     72.47165      1.457     2.71     3.672743     20.43085     119.9914        15     1.048     0.933  77.02   0
       227    921.3367    508.6735 300.3388751 +22.8087146     596.9492     72.45322      1.470     2.52      4.21477     20.43085     73.84824        10     0.870     0.722  47.70   0
       228    667.6764    508.4641 300.2598854 +22.7326547     835.9479     72.49008      1.258     2.30     4.350308     20.43085     103.0713        12     0.917     0.722 -67.80   0
       229    824.9146    504.7026 300.3101031 +22.7786889     1031.234     72.58215      1.312     2.37     4.353207     20.43085     137.4595        14     0.935     0.845 -25.23   0
       230    809.5490    500.5016 300.3066784 +22.7728782     699.4506     72.49008      1.382     5.08     4.333927     20.43085     107.9552        10     1.469     0.576 -55.46   0
       231    789.5231    501.0671 300.3002532 +22.7670409     459.4312     72.50851      1.273     2.47     4.314039     20.43085     53.34863         6     0.749     0.498  86.07   0
       232    553.4520    499.1399 300.2273428 +22.6957409     3078.931     72.47165      1.277     2.28     4.815107     20.43085     422.5131        24     1.010     0.999 -51.62   0
       233    913.6637    497.8327 300.3400042 +22.8033003     446.5226     72.41634      1.310     2.89     4.258335     20.43085     78.73392        11     1.060     0.679 -41.00   0
       234     29.8526    490.5243 300.0673103 +22.5362370     331.1874     72.41634      1.534     4.94     4.442531     20.43085     42.69934         5     0.993     0.696  73.32   0
       235    558.7741    486.9906 300.2329463 +22.6938469     317.8525     72.41634      1.217     2.63     4.770912     20.43085     49.55334         7     0.736     0.658 -89.18   0
       236    393.3608    486.2376 300.1817084 +22.6440410     385.8226     72.49008      1.309     3.34     4.260187     20.43085     53.24183         7     0.787     0.713 -12.22   0
       237    964.6040    478.1244 300.3622929 +22.8128924     1171.809     72.32405      1.294     2.41     3.998255     20.43085      161.694        15     0.958     0.820 -76.99   0
       238    836.6809    477.9644 300.3224567 +22.7745298     643.5298     72.36098      1.375     2.84     4.412836     20.43085     79.43559         9     0.838     0.730  -8.41   0
       239    923.0405    476.7623 300.3497728 +22.8000525     1063.444     72.49008      1.419     2.31     4.245765     20.43085     132.4178        15     1.064     0.850 -14.53   0
       240    573.1052    475.2324 300.2412277 +22.6947652     363.2902     72.39789      1.729     2.78     4.728822     20.43085     55.71485         7     0.901     0.640  -3.37   0
       241    459.6019    473.8475 300.2063449 +22.6603437     327.8692     72.39789      1.101     2.74     4.562738     20.43085      61.5266         6     0.761     0.488 -85.66   0
       242    664.1230    472.9695 300.2703084 +22.7213930     1072.988     72.39789      1.277     2.43       4.3827     20.43085     177.0257        13     1.000     0.743  -0.01   0
       243    168.0593    471.3744 300.1164738 +22.5722060     637.3451     72.41634      1.438     2.95     4.374782     20.43085     79.48429        12     0.950     0.847   7.33   0
       244    230.3554    467.1928 300.1371973 +22.5896914     3674.934     72.43478      1.436     2.51     4.410848     20.43085     414.1615        31     1.158     1.089  65.20   0
       245      7.7639    469.2015 300.0673745 +22.5234921     4.921974     72.39789      1.228     3.17     4.466961     20.43085     38.60225         6     0.732     0.599 -44.94   0
       246    963.4388    465.3721 300.3660717 +22.8088774      4414.36     72.45322      1.397     2.34     4.047936     20.43085     497.4757        34     1.197     1.123  85.16   0
       247    177.5499    462.0383 300.1224559 +22.5723735     7506.819     72.41634      1.455     2.42     4.399347     20.43085     904.9673        44     1.301     1.180 -75.51   0
       248    943.3777    456.4462 300.3627141 +22.8003035     1801.113     72.45322      1.358     2.38     4.143429     20.43085     198.3486        19     1.004     0.954  83.81   0
       249    318.4366    456.1601 300.1681703 +22.6129396     4838.105     72.49008      1.378     2.46     4.280156     20.43085     540.8387        31     1.126     1.078  31.85   0
       250    562.5131    452.7538 300.2452306 +22.6851339     18074.51     72.39789      1.320     2.22     4.740226     20.43085     2312.404        59     1.241     1.238 -43.53   0
       251    410.0952    454.5079 300.1972206 +22.6399481     399.2556     72.60056      1.648     3.65     4.350887     20.43085     36.24787         8     0.882     0.668 -56.10   0
       252    579.7906    452.7999 300.2505953 +22.6903255      888.434     72.23165      2.051     6.60     4.691384     20.43085     68.13288        16     1.570     0.865 -29.46   0
       253    189.0930    451.5843 300.1294389 +22.5728356     255.4111     72.34252      1.444     5.44     4.427316     20.43085     45.99152         7     1.308     0.639 -65.67   0
       254    806.0242    448.5353 300.3224595 +22.7568884     256.1889     72.39789      1.330     3.71     4.357495     20.43085     31.16375         6     0.792     0.499  -0.49   0
       255    759.6527    442.9037 300.3098366 +22.7413780     368.9758     72.49008      1.254     2.99     4.354358     20.43085     49.90169         7     0.835     0.557 -64.73   0
       256    182.6676    439.5404 300.1313528 +22.5674517     354.1771     72.45322      1.453     3.95      4.44567     20.43085     40.86367         6     0.938     0.641 -68.51   0
       257    896.2840    434.9335 300.3550154 +22.7800150     816.0469     72.52692      1.558     3.45     4.217861     20.43085      95.0152        12     1.092     0.745 -46.78   0
       258    433.1492    434.8628 300.2107741 +22.6412185      392.051     72.47165      1.371     2.85     4.493815     20.43085      45.3023         5     0.757     0.512  37.85   0
       259    117.3802    433.0420 300.1131721 +22.5460036     1949.406     72.45322      1.443     2.66     4.424237     20.43085     220.2366        22     1.178     1.033 -52.33   0
       260    916.7069    422.4419 300.3654406 +22.7825405      1144.87     72.43478      1.313     2.69     4.155468     20.43085     149.7963        16     0.997     0.871  84.27   0
       261    503.2282    422.2596 300.2366774 +22.6586059     6499.117     72.41634      1.330     2.23     4.779391     20.43085     901.9434        36     1.185     1.051 -88.59   0
       262    217.9285    421.4077 300.1482023 +22.5728227     633.0259     72.39789      1.356     3.15     4.514397     20.43085     78.94079         9     0.900     0.672  72.43   0
       263     75.5788    415.0941 300.1060114 +22.5283137     500.8687     72.34252      1.516     5.04     4.438445     20.43085     49.16311         9     1.182     0.607  48.63   0
       264    763.4154    413.5509 300.3205417 +22.7340699     428.6972     72.45322      1.681     4.14     4.393512     20.43085     43.65254         7     0.877     0.665 -62.30   0
       265    707.3628    411.2379 300.3038272 +22.7166125     1161.031     72.49008      1.329     2.42     4.400002     20.43085     138.8887        16     1.089     0.822 -83.42   0
       266    617.0490    412.1716 300.2753919 +22.6898198     506.2447     72.43478      1.361     3.34     4.506217     20.43085     70.92162         9     0.912     0.725 -25.17   0
       267    409.8413    408.5570 300.2120637 +22.6266770     6066.088     72.50851      1.334     2.36     4.450517     20.43085     759.1462        32     1.135     1.043 -87.87   0
       268    801.7866    402.8168 300.3359860 +22.7424792     1387.783     72.36098      1.284     2.41     4.410272     20.43085     185.2634        16     1.033     0.876 -49.66   0
       269    899.2310    402.7322 300.3663917 +22.7716407     656.2005     72.39789      1.445     2.71     4.200811     20.43085     92.48166         9     0.850     0.716  85.03   0
       270    394.2158    397.2140 300.2108851 +22.6187354     531.5206     72.36098      1.347     3.40     4.438953     20.43085     67.19955         9     0.988     0.818  65.57   0
       271    477.0012    395.3715 300.2372450 +22.6430219     396.0747     72.37944      1.178     2.20     4.717129     20.43085     61.61344         6     0.760     0.483  -0.66   0
       272    457.4384    392.7345 300.2320127 +22.6364008     423.6064     72.39789      1.348     3.99     4.627776     20.43085     36.22485         5     0.951     0.478 -80.64   0
       273    774.4255    390.4113 300.3314867 +22.7307178     492.8311     72.41634      1.214     2.88     4.439622     20.43085     71.13544        11     0.937     0.790 -42.78   0
       274    297.5208    387.8438 300.1838491 +22.5870547     2385.172     72.39789      1.416     2.57     4.386891     20.43085     266.1949        24     1.109     1.047  64.85   0
       275     56.1783    390.0486 300.1081157 +22.5153070     277.9958     72.41634      1.469     4.60     4.430848     20.43085     30.23158         7     0.912     0.660  32.72   0
       276     15.9775    385.0600 300.0972472 +22.5018157     875.4545     72.39789      1.451     3.06     4.429328     20.43085     120.1242        15     1.104     0.850 -63.19   0
       277    266.7275    377.2591 300.1777095 +22.5747826      29541.9     72.45322      1.437     2.42     4.427015     20.43085     3566.092        80     1.384     1.267  68.46   0
       278    801.4089    374.6599 300.3450109 +22.7342731     1308.312     72.39789      1.303     2.45     4.463234     20.43085      165.941        16     0.989     0.870 -73.39   0
       279    716.8365    363.2672 300.3223548 +22.7056652     528.1896     72.41634      1.259     3.72     4.499955     20.43085     81.52218        11     1.153     0.657 -57.84   0
       280    365.2931    362.5424 300.2131437 +22.6001083     562.6431     72.47165      1.483     3.26     4.418671     20.43085     75.75954        10     1.049     0.645 -78.53   0
       281    141.0142    363.4857 300.1431002 +22.5331298      541.642     72.36098      1.581     3.35     4.489464     20.43085     55.67801        11     0.977     0.832  45.55   0
       282    677.2333    356.6518 300.3121644 +22.6918998     1878.611     72.43478      1.296     2.33      4.51008     20.43085     271.9042        20     1.057     0.937 -79.42   0
       283    485.3437    351.5769 300.2540601 +22.6329429      358.947     72.43478      1.288     4.09     4.657493     20.43085     38.53753         7     0.876     0.642  73.37   0
       284    892.0681    349.5614 300.3814222 +22.7542093     528.2501     72.37944      1.282     2.84     4.378829     20.43085     72.71313         8     0.987     0.495  -1.90   0
       285    338.8824    341.7589 300.2116749 +22.5862225     1990.579     72.37944      1.471     2.78     4.397725     20.43085     238.6134        28     1.436     0.951  70.31   0
       286    551.0695    340.5455 300.2781018 +22.6494705     311.4003     72.45322      1.366     2.44      4.56569     20.43085     47.63166         6     0.766     0.493  -6.77   0
       287    778.0288    333.9228 300.3509496 +22.7155607     705.0125     72.41634      1.321     2.72     4.504829     20.43085     91.87782        10     0.898     0.651  87.63   0
       288    660.4710    331.8837 300.3149835 +22.6797604     368.3928     72.54534      1.224     2.62     4.463383     20.43085     58.04652         8     0.812     0.670 -41.16   0
       289    414.6876    320.9051 300.2420278 +22.6029562     1239.747     72.60056      1.424     2.47     4.448046     20.43085     156.8134        17     1.016     0.894 -73.06   0
       290    926.1500    316.5696 300.4027602 +22.7549283     272.3831     72.45322      1.072     3.37      4.26462     20.43085     46.30297         6     0.763     0.608  45.42   0
       291    659.6541    312.6877 300.3209601 +22.6739991     2134.791     72.43478      1.283     2.25     4.413972     20.43085     285.3261        20     0.980     0.956  10.27   0
       292    798.2368    313.6912 300.3638152 +22.7157972     253.8903     72.39789      1.211     3.42     4.489931     20.43085      49.5895         5     0.763     0.444 -11.92   0
       293    920.9662    306.9516 300.4042657 +22.7506105     3059.697     72.45322      1.366     2.26     4.286991     20.43085     436.3398        27     1.095     1.049 -65.73   0
       294    367.8756    296.5396 300.2353715 +22.5819269     518.7875     72.47165      1.278     2.67     4.418396     20.43085     83.57831         9     0.832     0.720  -9.29   0
       295    990.2458    294.7234 300.4298429 +22.7678351     1604.021     72.39789      1.377     2.23     4.563307     20.43085       239.38        19     1.008     0.958 -68.84   0
       296     42.8121    290.7733 300.1361875 +22.4828072     1453.197     72.41634      1.740     3.95     4.419603     20.43085     108.6154        24     1.339     1.096 -53.98   0
       297     73.6575    290.8027 300.1457610 +22.4920666     593.2206     72.37944      1.290     2.49     4.419603     20.43085      74.4201         9     0.841     0.660 -23.60   0
       298    936.6750    287.3025 300.4155424 +22.7496633     523.7976     72.54534      1.420     2.62     4.317692     20.43085     60.40801         8     0.842     0.620  82.16   0
       299    388.7934    287.4648 300.2448245 +22.5855900     1499.473     72.37944      0.715     1.10     4.435781     20.43085     741.9352         7     0.678     0.383  76.34   0
       300    780.1365    284.0222 300.3678038 +22.7018472     287.0016     72.39789      1.403     3.74     4.493936     20.43085     39.82872         6     0.918     0.458  54.02   0
       301    127.0094    282.8275 300.1649275 +22.5057770     474.7538     72.41634      1.395     3.29     4.518946     20.43085     62.54652         9     0.979     0.685 -21.58   0
       302    921.9553    279.8934 300.4133566 +22.7431257     293.3577     72.43478      1.343     2.58     4.317069     20.43085     57.49319         6     0.746     0.549  46.65   0
       303    802.4943    276.4207 300.3772392 +22.7063574     290.3848     72.34252      1.228     2.45     4.478916     20.43085     63.25648         6     0.830     0.495 -83.90   0
       304    731.0331    274.2372 300.3556776 +22.6843283     629.3584     72.45322      1.265     2.52     4.524986     20.43085     97.52621        10     0.946     0.619  68.46   0
       305    321.5392    273.4920 300.2284375 +22.5614184     442.0073     72.49008      1.293     2.88      4.38232     20.43085     48.80791         6     0.849     0.457  16.42   0
       306      6.3574    265.9287 300.1329258 +22.4647428     353.4363     72.37944      1.428     3.78      4.79742     20.43085     29.76468         5     1.290     0.317 -25.77  16
       307    829.2955    263.0597 300.3899296 +22.7105415     2031.118     72.49008      1.318     2.21     4.472315     20.43085     279.9898        19     1.002     0.929  71.14   0
       308    247.8555    260.5949 300.2097080 +22.5356266       2106.3     72.39789      1.424     2.83     4.524574     20.43085     230.2673        21     1.114     0.938  75.58   0
       309    325.8238    255.5381 300.2355964 +22.5575462      949.385     72.39789      1.397     3.10     4.385945     20.43085     106.9249        13     1.058     0.798 -85.33   0
       310     77.1912    256.1487 300.1581043 +22.4831791     331.6056     72.41634      1.441     4.79     4.761124     20.43085     43.24122         7     1.057     0.731 -33.03   0
       311    727.6995    254.5410 300.3610309 +22.6776679     463.6882     72.50851      1.281     2.41     4.544545     20.43085     84.48964         9     0.895     0.630  40.70   0
       312    372.3656    252.7234 300.2509878 +22.5706873     335.0875     72.39789      1.453     4.11     4.487496     20.43085     42.14371         6     0.723     0.666 -12.77   0
       313    834.7488    251.5813 300.3953546 +22.7088740     280.1127     72.39789      1.128     2.19     4.473266     20.43085     61.30103         5     0.686     0.458  21.12   0
       314    142.4941    247.8325 300.1810958 +22.5003735     607.6154     72.36098      1.205     2.65     4.801991     20.43085     75.82317        10     0.862     0.733   2.96   0
       315     38.1512    247.8464 300.1486693 +22.4690882     413.8301     72.43478      0.558     2.32     4.980793     20.43085     331.9614         5     0.494     0.330 -23.17   0
       316    680.4192    244.4560 300.3495730 +22.6606082     1651.089     72.39789      1.387     2.47     4.489432     20.43085     192.0658        21     1.244     0.856  77.79   0
       317    745.3517    244.2182 300.3698812 +22.6799869      522.637     72.45322      1.288     2.90     4.560516     20.43085     74.68279        12     1.024     0.738 -74.58   0
       318    111.7973    244.0414 300.1727861 +22.4900807     343.2191     72.43478      1.588     4.33     4.816056     20.43085     31.14506         5     1.020     0.524  53.52   0
       319    164.0043    241.1352 300.1899544 +22.5049000     459.6921     72.41634      1.353     2.84     4.853856     20.43085     70.26498        10     0.875     0.751  84.59   0
       320    951.7817    236.9067 300.4366092 +22.7396919     979.3027     72.34252      1.391     2.98     4.476203     20.43085     117.8033        15     1.043     0.898  38.35   0
       321    684.8967    236.1746 300.3536551 +22.6595688     641.3078     72.36098      1.282     3.21     4.511736     20.43085     84.08187        10     0.980     0.705  43.31   0
       322    605.0765    235.2528 300.3290919 +22.6353951     1248.955     72.45322      1.369     2.52     4.516051     20.43085     172.5662        15     1.015     0.839 -76.95   0
       323    426.3470    231.5210 300.2746636 +22.5807738     348.1955     72.45322      1.231     3.88     4.802584     20.43085     51.23974         7     0.964     0.646  45.75   0
       324    800.5087    226.7332 300.3927447 +22.6914768     1513.417     72.56375      1.370     2.43     4.479248     20.43085     177.2234        18     1.018     0.963 -81.61   0
       325    531.2178    227.0873 300.3087437 +22.6109222     1111.358     72.36098      1.539     2.53     4.621024     20.43085     132.9506        15     1.030     0.895  87.85   0
       326    812.4816    225.7807 300.3967857 +22.6947879     673.9305     72.39789      1.251     2.75     4.479177     20.43085      93.9523        11     0.879     0.831 -62.73   0
       327    859.3253    224.6360 300.4117601 +22.7084842     281.6653     72.36098      1.264     3.42     4.479248     20.43085     43.05939         5     0.952     0.409 -74.58   0
       328    973.3940    216.6190 300.4499334 +22.7403257     1579.559     72.37944      1.298     2.54     4.572484     20.43085     205.7679        18     1.065     0.904  86.15   0
       329    929.1224    216.1384 300.4362812 +22.7269355     1211.286     72.47165      1.458     2.13     4.502782     20.43085     159.1137        17     1.109     0.823 -47.63   0
       330    163.2463    209.5036 300.1999816 +22.4955903     747.9739     72.43478      1.306     2.87     4.976775     20.43085     87.26923        13     0.939     0.872 -88.97   0
       331    538.7439    206.2478 300.3178483 +22.6071882     1600.673     72.45322      0.673     0.97     4.675724     20.43085     770.6961         6     0.518     0.431   2.97   0
       332     25.1875    204.2302 300.1587929 +22.4526806     2044.882     72.41634      1.518     2.78     5.362177     20.43085     200.7975        25     1.189     1.104 -52.35   0
       333    848.3237    200.6617 300.4161090 +22.6982960     741.8745     72.47165      1.387     2.90     4.653854     20.43085      110.834        16     1.165     0.883  82.69   0
       334    182.5395    197.5757 300.2098483 +22.4979492     5686.815     72.39789      1.484     2.58     4.943569     20.43085      598.924        36     1.308     1.092  70.60   0
       335    981.3859    184.7734 300.4627586 +22.7335570     18255.64     72.43478      1.414     2.37      4.71391     20.43085     2276.059        61     1.321     1.211 -74.74   0
       336    165.6981    188.3582 300.2076034 +22.4902534     554.9642     72.39789      1.391     2.79     4.989374     20.43085     66.30565         8     0.866     0.658  12.64   0
       337    826.6110    178.8470 300.4164176 +22.6855221     3477.475     72.43478      1.398     2.34     4.786268     20.43085     432.6699        33     1.204     1.129 -73.15   0
       338    660.0057    181.3134 300.3637009 +22.6363434     772.8838     72.34252      0.635     1.46     4.658624     20.43085     430.7475         5     0.548     0.340 -77.22   0
       339    930.3499    177.5357 300.4491885 +22.7161996     2802.385     72.47165      1.430     2.47     4.715363     20.43085     305.8907        25     1.151     1.003  75.74   0
       340    376.0329    173.9550 300.2776845 +22.5491583      626.537     72.47165      1.436     2.69     4.875709     20.43085     87.27836         9     1.032     0.580 -84.69   0
       341    129.4971    174.8188 300.2007439 +22.4755127     383.9326     72.32405      1.528     4.33      5.03341     20.43085     30.24545         6     1.085     0.491  84.54   0
       342    490.4597    172.1520 300.3138784 +22.5829248       191.02     72.47165      1.081     3.65     4.897066     20.43085     46.65044         6     0.927     0.560 -22.98   0
       343    300.2743    166.0788 300.2566734 +22.5241927     549.2373     72.52692      1.236     2.10     4.922804     20.43085     97.07498         9     0.804     0.672  22.48   3
       344    304.2871    164.6592 300.2583819 +22.5249875     446.1869     72.50851      1.508     3.36     4.932529     20.43085     47.89021         9     0.937     0.694 -15.10   3
       345     66.4526    163.2363 300.1849104 +22.4532854     610.1841     72.43478      1.287     2.58     5.198852     20.43085     74.45806        10     0.823     0.774 -38.78   0
       346    427.4326    161.5461 300.2977028 +22.5609942      1710.61     72.43478      1.335     2.41     4.924664     20.43085     186.0513        18     0.992     0.919  67.87   0
       347    355.9032    161.7427 300.2753835 +22.5396177     447.6711     72.49008      1.451     5.70      4.95982     20.43085     51.47187        11     1.107     0.849  29.79   0
       348    489.1982    160.4448 300.3172834 +22.5791825     364.1843     72.41634      1.422     3.82     4.915796     20.43085      48.3471         9     1.128     0.626  67.73   0
       349    171.2725    156.8083 300.2195701 +22.4828644     429.1512     72.39789      1.225     3.37     5.015228     20.43085     49.25734         8     0.888     0.623 -87.13   0
       350    932.7984    155.7678 300.4570138 +22.7106708     232.8445     72.37944      1.378     4.31     4.831304     20.43085     27.73139         5     0.845     0.628  51.97   0
       351    715.9421    150.5338 300.3911120 +22.6442451     313.1411     72.45322      1.341     3.37     4.801536     20.43085     44.83455         7     0.929     0.565 -59.03   0
       352    563.4219    147.3465 300.3446395 +22.5976519     244.1761     72.43478      1.410     4.47     4.906594     20.43085     32.99586         5     1.163     0.489 -86.15   0
       353    861.2103    145.3097 300.4380833 +22.6862345     372.5307     72.36098      1.611     2.77     4.996932     20.43085     40.26679         5     0.743     0.433  15.53   0
       354    991.9334    142.1129 300.4798880 +22.7244406     3643.681     72.50851      1.451     2.37     4.841631     20.43085     454.0504        34     1.283     1.142 -65.39   2
       355    201.5318    141.4077 300.2339717 +22.4875116     5933.389     72.39789      1.477     2.56     5.015228     20.43085      610.421        38     1.274     1.138  79.15   0
       356    708.0789    141.8281 300.3914859 +22.6393874     303.9784     72.43478      1.348     3.33     4.777467     20.43085     42.47153         8     0.858     0.627  52.00   0
       357     52.5611    140.8357 300.1878598 +22.4426889     709.7383     72.49008      1.753     3.16     5.242715     20.43085     85.45824        13     1.024     0.873  43.21   0
       358    830.8532    138.6877 300.4307673 +22.6752425     346.1347     72.45322      1.349     3.37      4.93608     20.43085     42.93675         7     0.841     0.598 -27.65   0
       359    173.4846    135.1936 300.2272682 +22.4773200     316.4339     72.34252      1.508     4.42     5.015228     20.43085      33.2363         7     0.876     0.636  14.48   0
       360    216.9994    133.0633 300.2414868 +22.4897511      408.058     72.41634      1.708     5.26     5.015228     20.43085     38.45119         9     1.000     0.910 -46.23   0
       361    447.5840    126.6821 300.3152821 +22.5570131     6238.747     72.37944      1.395     2.33     4.886637     20.43085     756.4891        36     1.246     1.080 -86.13   0
       362    333.1561    126.3521 300.2797861 +22.5226338     616.3646     72.43478      1.357     2.85     4.970297     20.43085     79.19766        12     0.935     0.793  18.52   0
       363    504.6438    120.6907 300.3349855 +22.5723842     193.3102     72.41634      1.342     3.98     4.886637     20.43085     41.10971         6     0.952     0.477  87.44   0
       364    201.5710    120.2793 300.2408362 +22.4814550     261.7167     72.41634      1.227     3.47     5.015228     20.43085     30.46216         5     0.757     0.459 -72.12   0
       365    699.8415    116.9683 300.3969825 +22.6297728     882.5436     72.47165      1.809     5.01     4.764924     20.43085     97.29555        14     1.610     0.702 -75.45   0
       366    641.5509    117.4943 300.3786532 +22.6124694     475.0096     72.47165      1.736     3.92     4.842257     20.43085     41.36479         6     0.875     0.749  71.45   0
       367    792.7990    114.9478 300.4266053 +22.6570228     543.9493     72.37944      1.486     3.51     4.870075     20.43085     62.84338        10     1.110     0.649  64.60   0
       368    140.6080    110.5964 300.2250264 +22.4604010      524.218     72.23165      1.713     3.41     5.072285     20.43085     54.87174         9     0.908     0.827  50.74   0
       369    575.9564    106.7530 300.3617084 +22.5897374     6152.271     72.45322      1.369     2.25     4.956107     20.43085     836.4879        40     1.265     1.079  83.78   0
       370    499.0389    108.9002 300.3370646 +22.5673166     445.8142     72.43478      1.343     3.90     4.878842     20.43085     54.91973        10     0.974     0.731 -65.63   0
       371    350.7632    105.8068 300.2919263 +22.5220066     1377.316     72.41634      1.380     2.70     4.970297     20.43085      176.129        17     1.080     0.959 -34.77   0
       372    617.0165    104.1100 300.3753524 +22.6012743     840.6508     72.34251      1.390     2.49     4.963573     20.43085      118.656        13     0.984     0.809  74.28   0
       373    686.4625    101.2460 300.3979132 +22.6212460     406.3925     72.45322      1.797     3.48     4.740639     20.43085     33.24141         5     0.769     0.455  70.78   0
       374    633.1860    100.0071 300.3817191 +22.6049368     600.6225     72.30558      1.335     2.43     4.891641     20.43085     87.33345         7     0.713     0.666  76.30   0
       375     99.5795     97.9253 300.2163848 +22.4444634     572.3762     72.41634      1.498     3.41     5.217017     20.43085     70.28811        14     1.073     0.877  54.22   0
       376    902.8796     97.3313 300.4666373 +22.6849057     581.1949     72.52692      1.555     3.17     5.096673     20.43085     68.53719         8     0.888     0.683  60.74   0
       377    942.5895     97.1686 300.4790740 +22.6967431     193.7962     72.41634      1.306     2.56     5.057451     20.43085     38.52046         5     0.716     0.450 -69.07   0
       378    671.4537     95.6337 300.3950576 +22.6151383     523.1456     72.43478      1.247     2.56     4.723577     20.43085      62.7327         7     0.868     0.490  83.15   0
       379    620.1329     91.5691 300.3803900 +22.5986020     2833.328     72.41634      1.379     2.38     4.950538     20.43085     360.8783        25     1.122     0.975  82.58   0
       380    260.8977     92.2113 300.2683845 +22.4911725     440.0571     72.30558      1.387     5.54      4.99113     20.43085      42.5993        11     1.020     0.849  55.90   0
       381    635.2126     90.2864 300.3855027 +22.6027489     994.9793     72.36098      1.969     4.72     4.883785     20.43085     79.69645        18     1.511     0.808  57.28   0
       382    706.6116     83.1847 300.4100479 +22.6220853     1565.661     72.36098      1.387     2.37     4.774489     20.43085     197.4375        18     1.056     0.880  81.33   0
       383    644.5136     76.0045 300.3930310 +22.6014276     690.5624     72.34252      1.483     3.26     4.839283     20.43085     75.58612        14     1.079     0.883  58.66   0
       384    450.1323     75.6164 300.3326354 +22.5431006     1149.641     72.41634      1.494     3.28     4.605834     20.43085     131.9312        17     1.141     0.903 -37.59   0
       385     22.9357     75.6522 300.1997940 +22.4150909      590.658     72.45322      1.759     6.10     5.229182     20.43085     47.41055        11     1.093     0.984 -13.90   0
       386    354.0742     73.7981 300.3033358 +22.5138014     884.1263     72.32405      1.509     3.28     4.715306     20.43085     107.7729        14     1.084     0.873  56.78   0
       387    996.9460     70.4367 300.5046981 +22.7053171     2230.225     72.43478      1.415     2.58     4.998679     20.43085     268.5389        24     1.108     1.053  82.46   0
       388    735.9859     71.9605 300.4228403 +22.6276518     389.9402     72.43478      1.463     4.02     4.801124     20.43085     48.07272         6     0.768     0.691  40.53   0
       389    125.3580     63.8834 300.2354339 +22.4424140     3907.326     72.37944      1.625     2.79     5.154621     20.43085     383.1339        37     1.314     1.237  62.10   0
       390    693.4929     64.3101 300.4120810 +22.6127299      661.848     72.58215      1.510     3.15     4.736491     20.43085     83.08499        12     1.035     0.842  30.31   0
       391    255.8744     64.3715 300.2758495 +22.4816692      268.313     72.43478      1.384     3.46     5.006191     20.43085      28.3074         5     0.792     0.436 -18.35   0
       392    312.7595     61.2560 300.2945509 +22.4978191     2762.852     72.39789      0.947     3.69     4.808188     20.43085     933.8772        10     0.949     0.413  61.75   0
       393    451.5546     60.7593 300.3378955 +22.5392565     294.4572     72.49008      1.451     4.31     4.430007     20.43085     41.10465         7     1.016     0.665  71.16   0
       394    548.4303     60.6784 300.3680782 +22.5682485     267.0965     72.41634      1.285     2.72     4.968804     20.43085     49.02786         6     0.840     0.467  -0.73   0
       395    241.4512     56.1945 300.2740158 +22.4749980     1153.813     72.39789      1.393     2.82     5.038325     20.43085     132.1129        17     1.079     0.866  76.91   0
       396    686.8427     55.9982 300.4127043 +22.6083486     876.2877     72.41634      1.378     2.81     4.726006     20.43085      115.661        11     0.932     0.793 -16.99   0
       397    724.5502     51.0953 300.4260425 +22.6182275     694.8766     72.47165      1.487     4.33     4.747609     20.43085     64.24313        10     1.068     0.701  74.91   0
       398    648.1273     51.0863 300.4022364 +22.5953446     577.1155     72.54534      1.696     3.04     4.825932     20.43085      54.9884         7     0.794     0.702  38.41   0
       399    744.6102     47.4401 300.4334785 +22.6231815     2166.582     72.41634      1.364     2.46     4.764961     20.43085      241.779        24     1.162     0.953  78.16   0
       400    450.2037     45.7163 300.3423524 +22.5345282     405.0083     72.34252      1.275     2.80     4.254179     20.43085     62.34017         9     0.865     0.702 -80.06   0
       401    127.7579     42.7731 300.2430239 +22.4370700     1050.002     72.43478      1.520     2.82      5.16005     20.43085     115.5442        16     1.119     0.835  21.60   0
       402    919.5574     40.8252 300.4901614 +22.6736398      799.311     72.45322      1.379     3.37     5.102931     20.43085     90.37878        12     1.189     0.714  76.28   0
       403    693.0766     40.0362 300.4198218 +22.6056247     862.6295     72.37943      1.377     2.54     4.719602     20.43085     126.6737        11     0.871     0.778  70.06   0
       404    400.3601     38.0491 300.3293273 +22.5173943     403.0051     72.45322      1.313     3.70     4.203223     20.43085     52.28352         6     0.828     0.476 -84.55   0
       405    114.6194     37.4021 300.2406819 +22.4315894      257.934     72.34252      1.978     4.94     5.191267     20.43085     27.09303         5     1.313     0.525  44.59   0
       406    450.6810     32.5817 300.3467592 +22.5308959     327.1786     72.41634      1.580     3.40     4.101796     20.43085     37.90627         6     1.012     0.461 -85.82   0
       407    144.0602     32.4478 300.2514380 +22.4389902        344.1     72.47165      1.765     4.52     5.135025     20.43085     35.09924         5     0.852     0.681 -56.28   0
       408    277.5864     29.5220 300.2938999 +22.4781624     389.7071     72.43478      1.215     2.96     4.959477     20.43085      47.6146         6     0.878     0.426  71.24   0
       409    545.4254     24.9957 300.3787116 +22.5570902     759.5408     72.37944      1.295     2.86     5.008689     20.43085     97.20033        13     0.936     0.872  41.41   0
       410    680.4692     22.5038 300.4215782 +22.5968082     424.8453     72.54534      1.699     4.25     4.712214     20.43085     49.04068         7     0.904     0.678  68.70   0
       411    154.9974     22.2875 300.2581312 +22.4393495      520.562     72.34252      1.357     3.14     5.124942     20.43085     61.74836         9     0.943     0.643  53.68   0
       412    708.5121     19.4908 300.4312920 +22.6043368     660.5062     72.58215      1.473     2.67     4.696944     20.43085     79.35034        11     0.936     0.759  85.44   0
       413     75.6516   1012.2172 299.9119091 +22.6995654      904.348     72.41634      3.264     3.80     46.84782     20.43085     41.54251         5     1.478     0.280 -21.28   3
       414    339.0750     20.3072 300.3160122 +22.4939365     276.0847     72.58215      1.486     4.25     4.298649     20.43085     35.25033         5     1.046     0.491  37.57   0
       415     90.4374   1017.5806 299.9147566 +22.7055433     1198.109     72.43478      8.581    11.67     42.50813     20.43085     37.40157        24     2.328     1.629 -41.33  19
       416    100.1930   1015.7546 299.9183819 +22.7079501     2181.993     72.43478      8.153    14.09     37.35793     20.43085     58.41902        72     3.211     2.207  56.32  19
       417     81.0798   1013.5002 299.9131778 +22.7015634     1312.378     72.54534      4.100    10.66     45.35071     20.43085      48.3355        27     2.643     1.198 -73.28  19
       418     77.8805   1008.9949 299.9136504 +22.6993115     921.5918     72.34251      5.773     7.18     44.52505     20.43085     38.44337        13     1.546     0.935  18.07   3
       419    606.3639   1013.7441 300.0764722 +22.8593243     6872.682     72.43478      1.770     3.38     3.685163     20.43085     463.3303        49     1.441     1.362 -21.68   0
       420    116.5364   1022.7046 299.9211974 +22.7148505     1216.479     61.67816      8.144     9.49     34.33902     20.43085     44.60793        19     2.305     1.091  38.36  27
       421    119.9493   1010.8135 299.9261285 +22.7124678     1317.296     72.45322      8.410     9.37     30.07763     20.43085     43.97657        17     1.741     1.406  71.71  18
