#   1 NUMBER                 Running object number                                     
#   2 X_IMAGE                Object position along x                                    [pixel]
#   3 Y_IMAGE                Object position along y                                    [pixel]
#   4 ALPHA_J2000            Right ascension of barycenter (J2000)                      [deg]
#   5 DELTA_J2000            Declination of barycenter (J2000)                          [deg]
#   6 FLUX_APER              Flux vector within fixed circular aperture(s)              [count]
#   7 FLUXERR_APER           RMS error vector for aperture flux(es)                     [count]
#   8 FLUX_RADIUS            Fraction-of-light radii                                    [pixel]
#   9 FWHM_IMAGE             FWHM assuming a gaussian core                              [pixel]
#  10 BACKGROUND             Background at centroid position                            [count]
#  11 THRESHOLD              Detection threshold above background                       [count]
#  12 FLUX_MAX               Peak flux above background                                 [count]
#  13 ISOAREA_IMAGE          Isophotal area above Analysis threshold                    [pixel**2]
#  14 A_IMAGE                Profile RMS along major axis                               [pixel]
#  15 B_IMAGE                Profile RMS along minor axis                               [pixel]
#  16 THETA_IMAGE            Position angle (CCW/x)                                     [deg]
#  17 FLAGS                  Extraction flags                                          
         1    857.0620     13.2882 300.4333984 +22.6232059     2229.243      72.4863      1.454     2.65     4.833743     20.42978      273.394        25     1.196     1.038 -87.64   0
         2    904.9845     11.4623 300.4489297 +22.6370215     175.3573     72.37566      1.245     4.48     4.947819     20.42978     31.73142         5     1.013     0.563 -76.22   0
         3    562.6323     11.9018 300.3421278 +22.5346684     446.6851     72.39411      1.284     2.21     4.345253     20.42978     77.57237         8     0.836     0.633  12.00   0
         4    240.4120      8.6109 300.2429509 +22.4372056     1151.509     72.30181      1.750     3.23     4.200386     20.42978     106.5055        17     1.147     0.956 -76.38   0
         5    805.4980      5.6188 300.4198118 +22.6055681     960.1458     72.33875      1.512     2.86     4.849218     20.42978     119.1472        17     1.082     0.912 -82.40  16
         6    512.7457      3.8920 300.3291939 +22.5174273     418.5416     68.58568      1.513     2.37     4.357224     20.42978     58.17041         6     0.729     0.592 -20.17  16
         7    800.3985   1012.8544 300.0911962 +22.8933917     510.1397     72.33875      1.942     6.90      3.37758     20.42978       43.999        11     1.444     0.923 -35.95   0
         8    422.1846   1023.3679 299.9700271 +22.7829264     251.5934     58.06086      1.341     3.79      4.07208     20.42978     42.83566         7     0.918     0.701  -2.25  24
         9    266.3989   1012.5072 299.9251172 +22.7330456     4334.223     72.30181      8.123    24.89     58.54872     20.42978      89.4687       333     5.510     5.177  72.82  19
        10    305.4361   1000.0239 299.9413142 +22.7411878     8099.333       72.431      8.887    33.72     38.19986     20.42978     170.4832       784    11.171     5.064  66.71  18
        11    143.5742   1016.5703 299.8856251 +22.6973274     4552.279     72.41256     11.540    42.59     51.27233     20.42978     92.62936       585     9.140     5.508  11.26  27
        12    142.3709    981.4527 299.8966750 +22.6869036     4446.671       72.431     24.415    83.64     33.95354     20.42978     93.30825      3171    18.589    15.324 -38.57  27
        13    564.2393   1002.3207 300.0210773 +22.8195236     386.4974     72.39411      1.705     5.27      2.93249     20.42978     44.12149         6     1.175     0.667 -50.16   0
        14    193.6375    979.8733 299.9131184 +22.7018456     1754.547     72.35721     11.247    16.12     42.84998     20.42978     45.91151        45     3.020     2.392 -31.93   3
        15     21.7764    985.0340 299.8580529 +22.6517105     276.6191       72.431      1.290     3.80     2.755053     20.42978     33.57826         5     0.819     0.506  39.78   0
        16    143.6715    941.8631 299.9099555 +22.6759493     3304.746     72.44944     15.261    46.13     17.22552     20.42978      79.1709       700     9.503     6.215 -40.77   3
        17    598.1563    974.2233 300.0407758 +22.8216413     399.8478     72.46787      2.005     5.53     2.978656     20.42978     32.77099         8     1.422     0.606  11.16   0
        18    238.2627   1019.6986 299.9140319 +22.7266584     3464.625     72.32028      6.690    26.13     64.03491     20.42978     73.87091       197     5.525     3.431 -15.33  27
        19    626.8615    970.1005 300.0510538 +22.8290707      1480.18      72.4863      1.719     3.94     3.052299     20.42978     102.9584        23     1.252     1.152  26.51   0
        20    718.4091    979.5547 300.0764875 +22.8592454     6893.271       72.431      1.885     4.02     3.191557     20.42978     387.3283        50     1.529     1.433   7.40   0
        21    520.8083    966.9201 300.0190761 +22.7963387     1145.786     72.35721      1.996     4.63     2.985143     20.42978     80.92367        23     1.449     1.114  -8.57   0
        22    451.2193    965.0685 299.9980251 +22.7749249     7123.586     72.41256      1.979     9.23     3.376685     20.42978      656.707        44     1.772     1.341 -49.24   0
        23    286.0114   1010.2432 299.9319507 +22.7382852      5212.09     72.41256      8.749    31.08     55.60201     20.42978     111.3617       445     6.625     5.528 -64.88  19
        24    483.8976    951.6400 300.0125604 +22.7808806     619.9854     72.41256      1.726     6.14      3.10286     20.42978     41.81728        12     1.256     0.845  -8.04   0
        25    992.6049    995.8711 300.1566362 +22.9461526     703.3012     72.35721      1.996     7.31     2.995052     20.42978     46.51743        13     1.593     0.941  17.97   0
        26    212.5559    984.6521 299.9174432 +22.7088957     805.0861     72.44944      2.711     4.80     45.69538     20.42978     53.78976         5     1.400     0.467  81.50   3
        27    182.9912    943.9650 299.9214892 +22.6883580     1183.219     72.39411     10.459    12.84     22.61119     20.42978     43.50102        22     2.786     1.646 -57.72   3
        28    494.7154    939.5840 300.0198477 +22.7806692     395.5533     72.37566      2.032     4.31     3.104084     20.42978     41.75007         5     1.022     0.518 -31.96   2
        29    997.6523    943.5804 300.1752212 +22.9326537     2104.235     72.39411      2.038     4.75     3.317842     20.42978     113.6152        32     1.438     1.393 -37.29   0
        30    786.7427    932.2891 300.1131499 +22.8661773     771.4767     72.44944      1.898     6.78     3.619715     20.42978     60.85231        18     1.671     0.835  55.11   0
        31    599.0583    927.7238 300.0561813 +22.8085734     415.8174     72.44944      1.638     5.05      3.08413     20.42978     41.57426        12     1.240     0.921  34.54   0
        32    821.1791    926.5964 300.1257317 +22.8748699     1072.194     72.37566      1.822     5.79     3.565611     20.42978     69.05721        20     1.332     1.089 -19.68   0
        33     31.4163    923.6264 299.8810180 +22.6370130      512.197       72.431      1.775     3.02     3.455763     20.42978     64.97638         8     0.946     0.727 -65.84   0
        34    843.6043    920.2617 300.1347805 +22.8797760      11187.2     72.41256      1.799     3.85     3.489175     20.42978     671.9952        59     1.491     1.461 -12.74   0
        35    647.2856    941.0542 300.0668612 +22.8268651     254.6502     72.46787      1.244     3.16     3.213955     20.42978     47.51759         6     0.915     0.487 -53.01   0
        36    888.7786    920.6426 300.1487367 +22.8934298     531.1284     72.44944      2.042     4.73     3.415846     20.42978     41.83769         7     1.044     0.609 -19.92   0
        37    155.2996    911.7430 299.9233635 +22.6708087     903.1805     72.50472      2.286     4.89     10.70092     20.42978     60.84975        14     1.233     1.034   0.29   0
        38    895.3019    908.5873 300.1546909 +22.8919249     430.5965     72.30181      1.626     4.07     3.413045     20.42978     41.43159         7     0.964     0.490   3.34   0
        39    852.1901    902.5090 300.1432300 +22.8772547     1285.504     72.35721      1.649     4.18     3.462588     20.42978     96.68143        22     1.287     1.145  10.81   0
        40    549.3550    908.9129 300.0468272 +22.7882661     591.6044     72.39411      2.082     3.84     3.158425     20.42978     38.38359         7     0.836     0.621  67.42   0
        41    704.8265    899.8016 300.0981974 +22.8322878     398.4062     72.35721      1.596     5.02     3.556393     20.42978     36.33861         9     1.050     0.678  28.30   0
        42    890.4565    895.9136 300.1573022 +22.8868341     742.0536     72.50472      1.617     4.95     3.412372     20.42978     58.59783        15     1.252     0.872  -8.51   0
        43    999.1972    892.3847 300.1923543 +22.9184172     390.7805     72.26485      1.762     6.28     3.413855     20.42978     31.89662         7     1.112     0.997 -54.15   0
        44    938.3796    887.2318 300.1750656 +22.8987079      575.627     72.41256      2.059     4.96     3.400378     20.42978     40.46645         8     0.844     0.824  82.11   0
        45    789.9495    886.3611 300.1290858 +22.8539576     766.8474       72.431      1.745     4.34     3.633299     20.42978     63.57615        14     1.202     0.942   1.02   0
        46     49.2990    884.6749 299.8992371 +22.6312224     400.9876     72.54156      1.681     5.27     3.582298     20.42978     33.10038         7     1.384     0.566  20.28   0
        47    801.4836    883.3929 300.1336449 +22.8565641     532.8593     72.33875      1.787     6.03     3.632078     20.42978      43.3765        11     1.100     0.931  35.34   0
        48    502.6634    882.4691 300.0408951 +22.7666724      4128.23     72.46787      1.654     3.21      3.39807     20.42978     353.1011        34     1.284     1.240  38.10   0
        49    546.2916    871.1508 300.0581533 +22.7765145     385.9473     72.44944      1.980     6.11     3.551738     20.42978     26.96351         7     1.078     0.973  37.43   0
        50    280.5740    871.2344 299.9754702 +22.6968042     473.5374     72.41256      2.160     6.56     4.594928     20.42978     42.33361         9     1.252     0.965  -7.29   0
        51    227.9238    868.3540 299.9600404 +22.6801745     849.7962     72.41256      2.316     4.81     5.519897     20.42978     59.05887        17     1.354     0.989  83.10   0
        52    205.0078    865.0969 299.9539772 +22.6723618     1582.625     72.30181      1.764     3.74      5.09833     20.42978     148.8616        24     1.370     1.084 -29.65   0
        53    210.3550    980.6002 299.9180772 +22.7070736     1668.491     72.41256     10.806    14.00     43.49126     20.42978     52.67568        44     2.755     1.980   2.84   2
        54    735.6479    853.5000 300.1228538 +22.8282432     496.5241       72.431      1.776     5.99      3.60392     20.42978     33.14131         9     1.092     0.924 -88.04   0
        55    507.9997    852.3624 300.0523448 +22.7596372     211.2163     72.41256      1.263     2.73     3.511924     20.42978     33.61228         5     0.852     0.480   2.43   0
        56    814.3161    846.7152 300.1495699 +22.8498836     666.2229     72.52314      1.772     6.39     3.541099     20.42978      47.1431        16     1.141     1.088  30.99   0
        57    237.0958    846.7872 299.9699030 +22.6767448     394.5974     72.33875      1.474     5.51     4.690503     20.42978     41.49861        10     1.154     0.743  39.14   0
        58    682.6703    840.5823 300.1105527 +22.8086492     4706.994       72.431      1.612     3.22     3.555883     20.42978     410.4105        35     1.282     1.199 -88.22   0
        59    172.6362    841.3729 299.9516302 +22.6558432     385.6648     72.41256      1.566     3.37     4.548444     20.42978     53.23701         5     0.928     0.484  -0.03   0
        60    484.7501    837.5525 300.0499249 +22.7484138     527.4419     72.44944      1.441     5.87     3.437663     20.42978     57.95343        11     1.126     0.862  31.38   0
        61    232.9166    834.2213 299.9726891 +22.6718877     1392.782     72.37566      1.811     3.43     4.562569     20.42978     111.8225        22     1.255     1.050  24.97   0
        62    703.4815    833.0415 300.1194860 +22.8127259     787.4682     72.37566      1.657     4.04     3.533524     20.42978     72.59418        12     1.135     0.726  11.60   0
        63    252.2105    831.3260 299.9796275 +22.6768487     505.3358     72.41256      1.775     3.38     4.350613     20.42978     46.19113         6     0.771     0.581  40.82   0
        64    620.3134    823.5546 300.0966710 +22.7850617     324.3539     72.39411      1.688     5.38     3.620738     20.42978       32.408         6     0.987     0.829  50.28   0
        65    858.6609    820.3996 300.1719456 +22.8556231     4248.331     72.37566      1.694     3.29     3.425273     20.42978      333.032        38     1.343     1.288 -19.82   0
        66    267.0805    814.2248 299.9898091 +22.6764083     518.8711     72.39411      1.459     3.07     4.084793     20.42978     72.17933         8     0.809     0.672  12.25   0
        67    575.6581    812.9253 300.0862243 +22.7686184     665.3663     72.46787      1.556     4.01     3.620975     20.42978     68.32234        14     1.222     0.794  -5.25   0
        68    221.8923    811.1203 299.9767719 +22.6619555     1018.142     72.52314      1.688     3.73     4.272825     20.42978     116.9185        23     1.348     1.101  12.28   0
        69    371.7210    802.8660 300.0260385 +22.7045523      53530.3     72.52314      1.602     3.15     3.798342     20.42978     5208.825        97     1.436     1.429   3.77   0
        70    637.2684    805.9990 300.1076572 +22.7851088     507.9388     72.37566      1.604     5.26     3.554539     20.42978      51.9709        11     1.053     0.799  55.10   0
        71    629.7719    801.9464 300.1066404 +22.7816976     1640.497       72.431      1.518     3.05     3.564282     20.42978     171.2273        19     1.104     0.959 -28.98   0
        72    299.9883    800.4556 300.0045156 +22.6823358     475.9318     72.39411      1.598     4.86     3.892825     20.42978     52.30355         8     1.150     0.664  62.26   0
        73    658.5734    798.1521 300.1168422 +22.7892460     785.1086       72.431      1.494     3.83     3.499798     20.42978     82.52141        16     1.114     0.965  12.31   0
        74     24.7143    797.5055 299.9199391 +22.5988596     829.2502     72.59677      2.194     6.41     3.238896     20.42978     59.38653        17     1.429     1.179  39.98   0
        75    669.4103    796.6265 300.1207129 +22.7920578      651.534     72.41256      1.594     4.16     3.479009     20.42978     60.17689        13     1.210     0.910 -79.14   0
        76     57.7498    797.5714 299.9301772 +22.6087972     922.4183       72.431      2.247     5.39     3.316978     20.42978     65.39472        17     1.394     1.157  -1.56   0
        77    989.3189    793.4249 300.2214498 +22.8870381     463.5797     72.39411      1.792     5.18     3.477263     20.42978     31.04515         7     1.146     0.700 -37.46   0
        78    774.8941    792.7769 300.1548217 +22.8225808     359.8732     72.32028      1.289     2.41     3.430271     20.42978     54.41538         7     0.712     0.655  10.92   0
        79    812.4807    783.0564 300.1696931 +22.8310583     887.0695     72.44944      1.550     3.43     3.418087     20.42978     80.91073        14     1.008     0.906  -3.81   0
        80    421.4597    780.1080 300.0489068 +22.7129477     31364.37      72.4863      1.553     2.90     3.541732     20.42978     3268.948        78     1.406     1.352  22.38   0
        81    435.6439    780.5179 300.0531862 +22.7173207     2038.797     72.37566      1.608     3.26     3.550105     20.42978     191.6654        27     1.258     1.147   2.20   0
        82    311.2491    778.7888 300.0150592 +22.6795015     321.4251       72.431      1.468     3.85     3.769753     20.42978     31.38583         5     0.931     0.458 -44.11   0
        83    944.6075    775.9798 300.2131783 +22.8686289     2913.768     72.37566      1.715     3.46     3.463062     20.42978     201.4986        31     1.295     1.223  32.19   0
        84    432.5063    774.2181 300.0542576 +22.7145722     603.2654     72.33875      1.609     3.45     3.560324     20.42978      56.7348        11     1.048     0.750   0.79   0
        85    702.5724    772.1517 300.1389965 +22.7949769     1021.069       72.431      1.628     3.30     3.531156     20.42978     85.49088        17     1.124     0.925  74.89   0
        86    538.8357    772.5033 300.0879017 +22.7459755     498.7552     72.41256      1.611     4.51     3.758441     20.42978      49.1687         7     0.991     0.643  17.33   0
        87    303.7353    771.9006 300.0149616 +22.6752713      830.874     72.50472      1.587     3.41     3.726334     20.42978      77.7476        14     0.997     0.944  -1.93   0
        88    549.6774    766.8095 300.0931268 +22.7475935     803.2049     72.37566      1.473     2.89     3.792111     20.42978     107.3033        14     0.975     0.908  17.59   0
        89    108.5002    767.3218 299.9557726 +22.6153622     469.3072     72.54156      1.704     4.66     3.428395     20.42978     39.82398         7     0.925     0.665 -18.32   0
        90    950.6628    763.7474 300.2190424 +22.8669305     532.6046     72.46787      1.570     5.14     3.517815     20.42978     51.69374        10     1.008     0.857  59.14   0
        91    451.4712    763.3143 300.0637017 +22.7171334     253.2291     72.52314      1.177     4.20     3.638207     20.42978     42.13596         7     1.086     0.554 -43.71   0
        92    703.8549    761.5224 300.1428507 +22.7923103     359.5858     72.44944      1.394     5.03     3.562424     20.42978     38.17942         7     1.121     0.697  13.84   0
        93    407.5249    762.0330 300.0504466 +22.7035822     496.8804     72.41256      1.991     4.83     3.548558     20.42978     34.21307         6     1.027     0.647  40.63   0
        94    137.2199    761.1294 299.9667075 +22.6222080     632.5176       72.431      2.325     6.34     3.462678     20.42978     43.57636        12     1.276     1.010  17.05   0
        95    495.2893    761.6380 300.0778808 +22.7297965     353.2437     72.39411      1.487     2.35      3.76464     20.42978     48.19079         5     0.721     0.431 -21.50   0
        96    301.6168    756.6017 300.0192750 +22.6702480     527.6182     72.32028      1.441     3.17     3.636098     20.42978     60.99324        11     0.959     0.775 -13.23   0
        97    624.6810    746.5403 300.1230638 +22.7642700     445.3492     72.46787      1.399     4.11     3.665727     20.42978     49.24278        10     0.977     0.835 -66.05   0
        98    594.4667    744.8290 300.1142130 +22.7547183     603.4121     72.41256      1.489     2.88     3.742574     20.42978     88.21318        11     0.983     0.791 -55.01   0
        99   1010.9744    741.4115 300.2451100 +22.8785875     4357.259     72.41256      1.716     3.52     4.078842     20.42978      327.608        37     1.364     1.283  35.85   0
       100    616.4301    742.4153 300.1218354 +22.7606119     1401.592     72.41256      1.525     3.19     3.683177     20.42978     143.3741        22     1.166     1.096 -77.25   0
       101    503.6821    743.8155 300.0862847 +22.7272002     274.5022     72.39411      1.295     3.41     3.916645     20.42978     46.89234         5     1.083     0.446  32.82   0
       102    536.0272    742.0374 300.0969290 +22.7363912     445.7623       72.431      1.568     4.13     3.940748     20.42978     33.61573         7     0.952     0.511  46.30   0
       103    698.2557    737.2946 300.1489808 +22.7836769     361.2198     72.46787      1.626     3.91     3.641165     20.42978     39.38811         7     0.961     0.659   3.19   0
       104    999.4833    732.8022 300.2443242 +22.8726715     1557.664     72.32028      1.638     3.63     4.014206     20.42978     125.9139        22     1.170     1.137  -0.53   0
       105    362.2748    726.4419 300.0479383 +22.6797972     844.0082     72.39411      1.396     3.31     3.503136     20.42978     97.08767        15     1.150     0.815  31.90   0
       106    825.7618    723.9745 300.1930342 +22.8180756     2503.699       72.431      1.559     3.05     3.409532     20.42978     243.0899        26     1.199     1.112 -23.84   0
       107     48.1372    714.4047 299.9542181 +22.5820723     899.7471     72.39411      1.866     5.58     3.333033     20.42978     76.74475        21     1.491     1.149 -55.86   0
       108    908.3043    710.0903 300.2232742 +22.8388263      683.203     72.59677      1.904     3.41     3.560532     20.42978     67.98286         9     1.059     0.670  54.77   0
       109    211.1140    710.5198 300.0061155 +22.6298744     640.0626     72.57837      1.449     3.20     3.452707     20.42978     61.19548         9     0.896     0.730   8.37   0
       110    944.2532    700.9794 300.2374428 +22.8469818     147284.5     72.39411      1.611     3.10     3.775734     20.42978     12350.46       169     1.551     1.507  65.25   0
       111    706.7371    704.7157 300.1622093 +22.7768672      291.112     72.50472      1.168     2.39     3.834277     20.42978     47.69693         6     0.703     0.594 -47.68   0
       112    796.7487    701.3693 300.1913388 +22.8028884     729.4969     72.44944      1.413     3.08     3.436793     20.42978     88.92433         7     0.790     0.636  37.77   0
       113    977.0659    694.1184 300.2499040 +22.8548426     446.3712     72.52314      1.552     3.45     3.918377     20.42978     53.43729         9     0.942     0.693  18.89   0
       114    630.3829    689.8001 300.1432771 +22.7496937     1583.016     72.30181      1.321     2.70     3.906761     20.42978      211.269        17     1.001     0.937  58.13   0
       115    811.7438    687.1095 300.2006449 +22.8032881     9388.466     72.46787      1.457     2.76     3.403981     20.42978     949.4131        45     1.243     1.206  77.03   0
       116    313.1707    682.2433 300.0470290 +22.6523867     4836.203     72.44944      1.463     2.76     3.353092     20.42978     494.9361        35     1.241     1.164 -13.65   0
       117    395.2670    680.2999 300.0731922 +22.6764571     1174.271     72.50472      1.406     2.75     3.313585     20.42978     124.7663        15     0.993     0.859 -15.25   0
       118     27.1417    680.4680 299.9587231 +22.5660411     1661.922       72.431      1.754     3.45     3.289069     20.42978     162.2937        22     1.226     1.103  39.43   0
       119    271.6019    678.3528 300.0353686 +22.6387991     605.8345     72.41256      1.802     5.38     3.359203     20.42978     62.65695        13     1.440     0.783  34.42   0
       120    603.5090    675.7714 300.1394677 +22.7376092     645.3904     72.37566      1.392     3.04     3.959226     20.42978      98.5443        13     0.994     0.876  48.22   0
       121    595.1608    667.9319 300.1394156 +22.7328559      3199.34     72.37566      1.426     2.69     3.991899     20.42978     356.4648        26     1.177     1.016  37.57   0
       122    585.3754    661.3870 300.1384955 +22.7280432     1329.999     72.41256      1.385     2.80     4.021116     20.42978      167.715        20     1.411     0.978  54.37   0
       123    513.4606    661.1600 300.1161846 +22.7064138     201.9963     72.41256      1.408     3.43     3.929981     20.42978     43.31895         5     0.754     0.471  73.78   0
       124    979.3024    659.9938 300.2616891 +22.8457096     487.1581     72.32028      1.718     3.89     3.964639     20.42978     39.52545         6     0.995     0.533  41.92   0
       125    248.6852    657.7505 300.0349374 +22.6260139     597.1318     72.39411      1.504     3.50     3.391358     20.42978     89.48421        16     1.205     0.901 -66.87   0
       126    263.0186    655.9302 300.0399845 +22.6297922     594.7543       72.431      1.399     4.83     3.379752     20.42978     71.66651        11     1.039     0.735  68.33   0
       127    609.2453    652.2721 300.1488881 +22.7325836     467.9571     72.39411      1.238     2.74     4.058332     20.42978     72.13271         8     0.943     0.568 -66.44   0
       128    510.1320    651.3210 300.1183450 +22.7025918     1726.094     72.52314      1.407     2.77     3.954352     20.42978     169.5033        20     1.080     0.973  85.88   0
       129    319.6915    653.0696 300.0585341 +22.6459740     326.1524     72.54156      1.278     4.33     3.351667     20.42978     39.97872         7     1.003     0.616  73.47   0
       130    288.7357    652.8434 300.0489825 +22.6366224     495.7692     72.41256      1.505     3.13     3.347287     20.42978     68.00424        10     1.040     0.639  23.52   0
       131    164.1576    646.2988 300.0123862 +22.5973663     19599.26     72.39411      1.595     3.04     3.833247     20.42978     1895.344        65     1.402     1.355  44.77   0
       132     85.0540    647.9772 299.9872646 +22.5741084     650.2714       72.431      1.661     4.02     3.746808     20.42978      59.6727        12     1.128     0.946 -21.32   0
       133    595.1804    646.7108 300.1463157 +22.7267703      1022.96     72.35721      1.316     2.88     4.079329     20.42978     123.1629        16     1.029     0.890  37.28   0
       134    630.2609    645.9368 300.1574896 +22.7370656     317.2246     72.44944      1.306     2.35     4.080941     20.42978     60.92974         6     0.706     0.579 -38.83   0
       135    512.7551    643.9330 300.1215613 +22.7012581     292.5955     72.41256      1.409     3.77     3.987294     20.42978     32.67778         5     0.832     0.491  31.77   0
       136    348.4145    637.9781 300.0723685 +22.6502607     420.4514     72.41256      1.593     4.10     3.402987     20.42978      51.2785         8     1.112     0.691   0.47   0
       137   1013.1821    632.7850 300.2810948 +22.8480419     1017.049     72.39411      1.626     3.41     3.964639     20.42978     81.27739        19     1.162     1.007  88.95   0
       138    110.0992    630.5874 300.0006933 +22.5766383     1404.234     72.32028      1.958     4.77     3.963552     20.42978     98.85159        26     1.605     1.085 -89.58   0
       139    880.1155    631.2684 300.2400962 +22.8077398     500.2139     72.52314      1.458     4.14     3.790215     20.42978     64.41859        10     0.940     0.789 -36.46   0
       140    176.4862    631.1972 300.0211226 +22.5967347     383.9752     72.33875      1.409     4.03     3.865388     20.42978     41.11595         7     0.972     0.479 -80.18   0
       141    953.3397    625.6899 300.2647373 +22.8280762      828.155     72.50472      1.820     3.45     3.964639     20.42978     78.66556        14     1.095     0.885  42.40   0
       142    558.5192    627.2197 300.1412344 +22.7101833     406.6562     72.39411      1.256     3.15     4.163611     20.42978     52.03174         8     0.830     0.690 -36.46   0
       143    351.1227    626.2494 300.0770204 +22.6477079     310.5241     72.41256      1.357     4.60     3.445638     20.42978     40.42937         8     0.837     0.718 -37.46   0
       144    948.7408    625.5802 300.2633389 +22.8266669     408.1944     72.35721      1.538     3.32     3.964639     20.42978     35.43218         5     0.745     0.433  23.04   1
       145    515.3724    619.4785 300.1303194 +22.6950241     686.6875       72.431      1.347     3.16     4.079451     20.42978     83.65991        13     1.074     0.775  60.49   0
       146    710.0786    616.7905 300.1918152 +22.7526241     615.9178     72.37566      1.631     3.80     4.085129     20.42978     67.45629        12     1.055     0.880 -58.19   0
       147    662.8553    618.1493 300.1766659 +22.7388592     606.2906     72.44944      1.651     2.63     4.138476     20.42978     63.40483         9     0.872     0.664  22.46   0
       148    680.8618    616.4019 300.1828413 +22.7437550     455.9551     72.39411      1.227     3.01     4.121148     20.42978     82.03168        10     0.895     0.784 -57.50   0
       149    559.4885    615.3633 300.1453873 +22.7070707     966.3761     72.39411      1.404     2.94     4.213836     20.42978     101.7974        13     0.977     0.839  53.63   0
       150    524.8887    610.9831 300.1360405 +22.6954391     1704.818     72.33875      1.374     2.61     4.148258     20.42978     209.3264        21     1.108     0.956  43.33   0
       151    993.3016    610.9622 300.2819833 +22.8358163     3248.306     72.41256      1.520     3.02     3.964639     20.42978     310.3422        30     1.183     1.159  89.37   0
       152    890.5156    608.5375 300.2507219 +22.8043264     215.0426     72.50472      1.403     4.30     3.933916     20.42978     35.83151         7     1.106     0.759 -30.85   0
       153    874.9620    607.3651 300.2462544 +22.7993294     221.0304      72.4863      1.150     3.82     3.918941     20.42978     33.13314         5     0.878     0.477   5.04   0
       154     86.8956    604.4022 300.0019895 +22.5621660     5174.601     72.32028      1.663     3.15      4.02956     20.42978     485.9386        40     1.373     1.291  29.14   0
       155    388.3863    597.6244 300.0979075 +22.6506711     9056.636     72.41256      1.433     2.45      3.62957     20.42978     1126.164        46     1.262     1.190  67.60   0
       156    510.8253    594.6689 300.1369623 +22.6865397     9064.428     72.41256      1.372     2.42     4.150782     20.42978     1207.677        43     1.258     1.120 -87.00   0
       157    275.9119    592.1938 300.0646946 +22.6153765     408.5453     72.32028      1.958     4.36     3.540581     20.42978     32.34805         6     1.105     0.489 -26.88   0
       158    922.5761    588.7330 300.2671496 +22.8082423     1859.299     72.39411      1.507     2.79     3.927268     20.42978     190.5775        21     1.157     0.977  66.20   0
       159   1007.2031    586.0669 300.2944052 +22.8328270     12439.62     72.39411      1.558     3.00     3.899876     20.42978     1131.329        51     1.354     1.305 -32.55   0
       160    571.4229    584.2887 300.1591951 +22.7017282     11594.13     72.33875      1.366     2.44     4.290191     20.42978     1229.025        45     1.198     1.158  24.31   0
       161    741.2251    580.0564 300.2134487 +22.7514103     452.6016     72.41256      1.277     2.84      4.08935     20.42978     69.05741        10     0.877     0.778 -66.52   0
       162    298.9951    579.5920 300.0759639 +22.6186853     1365.346     72.26485      1.468     2.76     3.600203     20.42978     146.4248        19     1.185     0.928  19.56   0
       163    457.0497    579.3100 300.1252164 +22.6660066     314.2296     72.41256      1.154     2.37     3.985459     20.42978     54.51678         5     0.835     0.454  -7.27   0
       164      1.2558    576.8581 299.9843361 +22.5285662     972.8843     55.99997      0.957     2.26     3.630029     20.42978     286.1735        10     1.036     0.436  89.03  24
       165    545.6110    577.1696 300.1534722 +22.6919460     376.1143     72.41256      1.376     4.64     4.348374     20.42978     40.60978         8     1.059     0.578  35.24   0
       166    503.0631    572.4594 300.1417594 +22.6778372     4303.029     72.44944      1.338     2.43     4.209155     20.42978     545.6871        29     1.092     1.055  67.56   0
       167    845.8763    572.2628 300.2485894 +22.7805312     767.5693     72.46787      1.384     3.18     3.906757     20.42978      83.2915        14     1.054     0.861  76.53   0
       168    481.2822    570.8683 300.1354980 +22.6708498      1201.58     72.52314      1.335     2.38     4.130454     20.42978     154.7942        16     0.984     0.899  53.23   0
       169    235.6959    569.9473 300.0594170 +22.5969302     704.8615      72.4863      1.392     3.16       3.8402     20.42978     75.11607        13     0.939     0.878  61.12   0
       170    922.9427    567.9003 300.2740299 +22.8023668     1658.191     72.50472      1.562     3.27     3.893122     20.42978     145.3226        24     1.210     1.090 -58.38   0
       171    619.7161    559.9950 300.1821198 +22.7092305     199338.3     72.33875      1.383     2.37     4.234814     20.42978     27276.84       211     1.477     1.461  71.84   0
       172    803.2938    564.8583 300.2377235 +22.7656451      734.915     72.46787      1.385     2.90     3.953004     20.42978     105.2954        15     1.063     0.868 -62.79   0
       173    443.0177    566.5007 300.1250102 +22.6581225     251.9498     72.32028      1.336     3.39     3.985918     20.42978     45.93538         6     0.799     0.500   0.60   0
       174   1007.9390    562.3983 300.3023217 +22.8262460      319.118     72.37566      1.397     5.85     3.831625     20.42978     39.11555         7     1.262     0.763 -18.53   0
       175    896.7893    563.2145 300.2673980 +22.7931856      169.532     72.32028      1.058     3.41      3.87908     20.42978     32.66562         5     0.968     0.347  42.20   0
       176    305.6526    559.9667 300.0844069 +22.6150512     3738.514       72.431      1.525     2.73     3.760802     20.42978     448.0062        33     1.324     1.152 -19.36   0
       177    871.4078    556.1119 300.2617925 +22.7835410     482.0103     72.32028      1.309     2.61     3.866384     20.42978     67.66647        10     0.919     0.699  50.52   0
       178    510.3248    540.6318 300.1543546 +22.6708780     2836.516     72.41256      1.453     2.52      4.34455     20.42978     293.2523        30     1.507     0.976 -88.05   0
       179    354.3001    542.8747 300.1050849 +22.6247371     392.0836     72.54156      1.292     4.98     3.875015     20.42978     64.29427         9     1.078     0.677  14.85   0
       180    960.1697    540.4893 300.2945391 +22.8056422     228.9211     72.37566      1.005     2.22     3.843886     20.42978     53.66269         5     0.702     0.473  18.16   0
       181    921.5881    536.9869 300.2836465 +22.7930790     336.0269     72.33875      1.133     2.77      3.87686     20.42978     57.08793         7     0.855     0.606  17.69   0
       182    827.3729    529.0286 300.2568623 +22.7625675     283.1828     72.37566      1.139     2.00     3.921835     20.42978     65.72494         5     0.738     0.448  27.55   0
       183    907.3708    526.4025 300.2826508 +22.7857789     1784.461     72.35721      1.553     2.79     3.897179     20.42978     198.8469        23     1.240     0.989 -58.53   0
       184     37.8232    525.2587 300.0124458 +22.5247438     950.4811     72.41256      1.931     4.74     4.198971     20.42978     82.01727        16     1.425     0.854 -46.72   0
       185    793.8702    526.6000 300.2472105 +22.7518319     316.4398     72.32028      1.283     3.41     3.991027     20.42978     32.47753         5     0.793     0.424  21.51   0
       186    778.5543    524.1643 300.2432290 +22.7465431     2586.932     72.44944      1.346     2.48     4.061304     20.42978      294.665        23     1.055     1.030 -22.28   0
       187   1022.9019    521.9152 300.3201349 +22.8190931     477.7369     60.71462      1.685     4.09     3.866386     20.42978     46.89842        10     0.940     0.864 -40.54  27
       188   1021.3591    517.3893 300.3211233 +22.8173303     807.4062     67.58524      1.809     3.35     3.888411     20.42978      67.3872        12     1.035     0.766  32.16  19
       189    988.1583    521.4102 300.3094626 +22.8085426     259.5708     72.41256      1.426     3.44     3.890581     20.42978     28.72744         5     0.789     0.435  20.47   0
       190    683.4791    520.7623 300.2147157 +22.7170756     497.4146     72.37566      1.325     2.63     4.324477     20.42978      59.0288         9     0.844     0.693  68.01   0
       191    566.0322    520.1036 300.1783593 +22.6816847     729.2797     72.37566      1.307     2.53     4.460202     20.42978     98.66151        11     0.847     0.798  27.66   0
       192    907.5317    516.5446 300.2859019 +22.7829946     2171.484     72.44944      1.702     3.62     3.917674     20.42978      207.719        31     1.579     1.010  73.33   0
       193    660.8669    514.8569 300.2095907 +22.7086029     866.1163     72.44944      1.878     5.12      4.37031     20.42978     80.01499        10     1.221     0.629 -48.95   0
       194    945.7403    511.6605 300.2994006 +22.7930360     4183.818     72.46787      1.434     2.59     3.942471     20.42978     502.9385        28     1.145     1.073  63.94   0
       195    499.2306    513.4501 300.1597274 +22.6597488     311.8122     72.44944      1.283     2.59     4.334602     20.42978     56.64754         5     0.704     0.465  19.69   0
       196    446.7557    513.9689 300.1432303 +22.6441651      264.422     72.46787      1.234     4.21     4.139313     20.42978      36.9889         6     1.142     0.443 -60.97   0
       197    586.8196    511.3875 300.1876606 +22.6854131     136.1156     72.37566      1.045     3.40     4.452111     20.42978     33.29755         5     0.751     0.446 -18.89   0
       198    606.4330    507.4779 300.1950363 +22.6901693     270.0865     72.39411      1.261     3.54     4.441493     20.42978     39.45442         6     0.866     0.495  88.46   0
       199    177.9168    501.8918 300.0635551 +22.5600734      937.915     72.55997      1.464     3.07     4.160424     20.42978     118.0741        16     1.072     0.952 -29.29   0
       200    838.6705    495.5587 300.2712505 +22.7563366     434.9452     72.37566      1.500     2.78     3.960173     20.42978     52.70727         6     0.843     0.470  89.42   0
       201    224.8328    494.7973 300.0804397 +22.5721110      288.043     72.37566      1.395     4.54     4.107733     20.42978     32.83234         5     1.256     0.467 -27.36   0
       202    170.3042    491.8752 300.0644410 +22.5549161      371.194     72.55997      1.446     3.77      4.18426     20.42978     51.51649        10     0.950     0.833  62.48   0
       203    824.3994    486.7812 300.2696524 +22.7495394     239.7523     72.33875      1.508     4.44     4.014067     20.42978     30.99698         5     1.223     0.459 -81.36   0
       204    777.9910    486.0616 300.2554243 +22.7354289     459.9813     72.33875      1.264     2.48     4.191376     20.42978     60.27308         9     0.772     0.727  28.64   0
       205    667.1481    484.0849 300.2215372 +22.7016477       219.29     72.41256      0.935     1.87     4.501893     20.42978     75.45817         6     0.710     0.516  36.37   0
       206    386.7304    484.4690 300.1341337 +22.6176996     209.2756     72.46787      1.221     4.18     4.028029     20.42978     40.14458         6     1.016     0.490  -5.96   0
       207    719.2839    482.0112 300.2384492 +22.7166752     770.7708     72.37566      1.356     2.97     4.438849     20.42978     100.5441        12     0.927     0.868  54.09   0
       208    779.9077    474.4232 300.2597998 +22.7326597     849.1946     72.33875      1.352     2.49     4.221758     20.42978     98.32894        12     0.863     0.827 -29.55   0
       209    937.2598    470.4890 300.3101231 +22.7786644     978.8547      72.4863      1.336     2.95     4.064477     20.42978     131.8519        16     1.098     0.865  51.64   0
       210    902.0765    467.3438 300.3001747 +22.7672227     324.6433       72.431      1.306     4.14     3.993623     20.42978     42.88654         7     1.030     0.502  43.28   0
       211    921.6493    466.8530 300.3064362 +22.7729441     594.8074     72.44944      1.440     3.74     4.044019     20.42978     73.32135        12     1.024     0.845 -18.06   0
       212    665.7862    464.9002 300.2273408 +22.6957296     3188.871     72.32028      1.307     2.17     4.515905     20.42978     494.9125        23     1.030     0.977 -71.21   0
       213    437.6469    452.8655 300.1602318 +22.6238935     306.9789       72.431      1.085     3.36     4.206343     20.42978     37.32736         5     0.772     0.424  69.94   0
       214    505.7606    451.6921 300.1818078 +22.6439753     241.6593     72.41256      1.222     3.38     4.477498     20.42978     60.21137         6     0.849     0.696  66.79   0
       215    948.7067    443.5164 300.3224480 +22.7743408      615.525     72.59677      1.475     3.95     4.164936     20.42978     83.63921         8     1.152     0.525  53.78   0
       216    572.5714    439.5841 300.2065336 +22.6605237     468.1632     72.41256      1.461     3.48     4.572604     20.42978     50.93824         9     0.953     0.688 -30.17   0
       217    776.5184    438.7749 300.2703153 +22.7214027     991.4639     72.39411      1.241     2.35     4.347133     20.42978      151.625        14     0.913     0.875  33.77   0
       218    280.6213    437.0112 300.1165395 +22.5722605     563.4891     72.39411      1.244     2.79     4.111372     20.42978     78.12236         9     0.816     0.717 -27.57   0
       219    342.7282    432.8623 300.1371986 +22.5896931     3623.625     72.44944      1.369     2.39     4.072619     20.42978     496.6722        28     1.141     1.054  65.73   0
       220    119.3876    434.5490 300.0672265 +22.5231960     280.3579     72.44944      1.333     3.55     4.244536     20.42978      54.0337         5     1.259     0.397  30.59   0
       221    289.9612    427.5173 300.1225247 +22.5723366     7520.036     72.37566      1.431     2.55     4.116673     20.42978     962.3002        43     1.231     1.192  78.34   0
       222    430.7782    421.8283 300.1681683 +22.6129238     4812.877     72.41256      1.317     2.26     4.253573     20.42978      706.941        29     1.091     1.028 -72.71   0
       223    674.9442    418.4877 300.2452576 +22.6851424     18525.16     72.44944      1.327     2.26      4.50608     20.42978     2689.121        56     1.230     1.147  61.98   0
       224    692.5079    418.6730 300.2506678 +22.6904581      823.557     72.57837      1.869     5.40     4.480323     20.42978     75.53368        12     1.520     0.696 -44.08   0
       225    871.8893    409.1227 300.3096619 +22.7414500     387.6753     72.54156      1.425     2.16     3.950235     20.42978     61.70582         6     0.716     0.543 -33.59   0
       226    295.0211    405.7149 300.1311733 +22.5675962     397.1004     72.35721      1.558     3.36     4.193581     20.42978     42.65623         5     0.797     0.496  54.77   0
       227   1008.6351    400.9314 300.3549591 +22.7800455     826.1315     72.41256      1.554     4.18     4.577875     20.42978     77.33207        14     1.174     0.819 -21.52   0
       228    229.5678    398.5660 300.1131443 +22.5459171     2245.414     72.44944      1.584     2.86     4.247431     20.42978     248.8806        23     1.227     0.995  73.04   0
       229    615.5773    387.9503 300.2366802 +22.6585820     6505.481     72.41256      1.289     2.16     4.550505     20.42978     940.7097        35     1.162     1.003  84.14   0
       230    330.4194    387.1843 300.1481939 +22.5728908     600.9924     72.39411      1.317     2.55     4.301165     20.42978     76.81125         9     0.834     0.673 -29.54   0
       231    188.2168    380.6469 300.1061061 +22.5283739     499.3188     72.44944      1.534     4.94     4.378365     20.42978     52.15171         8     1.115     0.688 -17.52   0
       232    875.3734    379.7624 300.3202761 +22.7340555     502.4454       72.431      1.649     3.79     4.185572     20.42978     49.51747         6     0.993     0.521 -59.51   0
       233    819.8227    377.1369 300.3038137 +22.7166636     1322.055     72.39411      1.514     2.90     4.357365     20.42978     143.6027        18     1.243     0.921 -83.25   0
       234     35.3421    378.1775 300.0594110 +22.4818119     1239.067     72.41256      1.535     3.20     4.801769     20.42978     122.5672        18     1.148     0.967  12.71   0
       235      4.2436    376.0849 300.0504320 +22.4718823     1367.956     69.72515      1.946     6.01     4.952439     20.42978     94.46141        23     1.705     0.998 -59.33  16
       236    729.6298    378.2810 300.2753394 +22.6899755     506.0027     72.41256      1.283     3.66     4.425319     20.42978     69.59162         8     0.979     0.689  -5.61   0
       237    522.2338    374.1946 300.2120852 +22.6266588     6160.169     72.39411      1.282     2.26     4.572604     20.42978     802.9891        32     1.130     1.029  59.20   0
       238    914.2983    368.7473 300.3359853 +22.7425464     1330.479     72.50472      1.319     2.49     4.337597     20.42978     205.1253        17     0.981     0.937 -63.70   0
       239   1011.5422    368.7274 300.3663166 +22.7716577     654.7852     72.44944      1.453     3.04     4.547986     20.42978     75.01674        13     0.972     0.872  53.83   0
       240    506.8293    363.0419 300.2109095 +22.6188393     354.5016       72.431      1.209     2.67     4.572604     20.42978     63.91842         9     0.787     0.735 -55.91   0
       241     13.7583    363.4478 300.0574868 +22.4711115     241.6029     72.44944      1.084     2.86     4.954945     20.42978     52.41203         5     0.921     0.368  23.36   0
       242    589.1534    360.7030 300.2372943 +22.6428377     438.6664     72.44944      1.228     2.37     4.552325     20.42978     67.48619         9     0.854     0.649  64.63   0
       243     33.5314    359.5399 300.0648955 +22.4759219     1062.655       72.431      1.654     3.55     4.880885     20.42978     110.3071        19     1.244     0.980  17.02   0
       244    569.5353    358.2749 300.2319746 +22.6362617     227.4024     72.44944      1.127     4.54     4.560464     20.42978     36.82761         6     0.935     0.627  20.62   0
       245    887.2050    356.3203 300.3315711 +22.7308611     408.3426     72.33875      1.348     3.04     4.381987     20.42978     58.29832         9     0.873     0.721  88.91   0
       246    168.7894    355.3333 300.1082815 +22.5152834     116.2301     72.41256      1.312     4.33     4.542586     20.42978     29.26319         5     0.992     0.539  50.45   0
       247    409.7625    353.4095 300.1838314 +22.5869800     2618.748       72.431      1.367     2.23     4.530798     20.42978     354.5708        24     1.125     0.951  44.66   0
       248    128.3772    351.0311 300.0971196 +22.5019290     940.8708     72.41256      1.405     2.60     4.603422     20.42978     114.9576        15     1.007     0.896 -16.10   0
       249    757.5779    347.8111 300.2939333 +22.6895925     194.3126     72.39411      1.304     4.00     4.425887     20.42978     36.09138         5     0.820     0.689 -22.08   0
       250    379.1051    342.8213 300.1777300 +22.5747502     29703.47     72.32028      1.379     2.41     4.530798     20.42978     4043.235        82     1.387     1.227  57.11   0
       251    913.8943    340.5589 300.3450057 +22.7343228     1222.579       72.431      1.330     2.38      4.42594     20.42978     191.3261        17     1.071     0.873  -4.46   0
       252     75.4467    330.6146 300.0872986 +22.4801955     4931.255       72.431      1.592     2.79     4.750346     20.42978     590.1993        39     1.334     1.229  55.24   0
       253    829.0652    329.3538 300.3221981 +22.7056993      466.816     72.41256      1.224     3.30     4.422388     20.42978      66.9586         9     0.903     0.649  71.02   0
       254    252.9654    329.2452 300.1429089 +22.5330368      420.695     72.46787      1.323     3.05     4.535661     20.42978     52.23885         8     0.785     0.699  44.75   0
       255    477.6508    327.9678 300.2132083 +22.6000218     405.5887     72.44944      1.244     3.46     4.512465     20.42978     70.28376         9     0.888     0.739  13.70   0
       256    789.5104    322.5743 300.3120708 +22.6919046     1841.097     72.35721      1.314     2.25      4.44203     20.42978     245.7695        18     1.002     0.927   6.24   0
       257    919.4149    318.6171 300.3538457 +22.7296683     126.6292     72.37566      1.138     3.40     4.431124     20.42978     26.90622         5     1.054     0.318  21.48   0
       258    597.8823    317.1017 300.2541578 +22.6329285     440.1883     72.57837      1.385     2.69     4.507197     20.42978      54.6005         9     0.790     0.736 -65.83   0
       259   1004.8130    315.4608 300.3815006 +22.7543283     625.9385     72.37566      1.486     3.47     4.548286     20.42978      67.0994        12     1.099     0.735  78.85   0
       260    451.3214    307.2149 300.2117476 +22.5861710     2158.305       72.431      1.538     3.06      4.49334     20.42978     233.8693        25     1.383     0.939  74.10   0
       261    663.6547    306.1315 300.2781977 +22.6494816       311.28     72.44944      1.090     2.03      4.47157     20.42978      60.3913         5     0.707     0.431 -69.11   0
       262    890.4279    300.1864 300.3507876 +22.7156908     630.5893     72.41256      1.445     2.52     4.420654     20.42978     78.79767        10     0.841     0.756  67.71   0
       263    882.6648    301.0864 300.3480755 +22.7136250     231.4409     72.50472      1.147     4.28     4.417448     20.42978     41.59893         7     0.782     0.666 -64.24   0
       264     23.1683    298.5082 300.0814749 +22.4553031     845.3209     72.35721      2.007     6.69     5.008141     20.42978     60.74195        15     1.920     0.654 -20.06   0
       265    772.7714    298.0079 300.3148245 +22.6798311     498.2368     72.41256      1.412     2.28     4.448576     20.42978     78.16588         7     0.719     0.623 -33.13   0
       266    789.6252    297.2081 300.3203355 +22.6846488      406.945     72.41256      1.584     3.46     4.449586     20.42978      27.4957         5     0.765     0.452 -73.75   0
       267    612.5090    294.3016 300.2661081 +22.6307606     199.1915     72.59677      1.101     3.37     4.481697     20.42978     42.81031         5     0.778     0.422  65.84   0
       268    527.2118    286.5540 300.2420669 +22.6029787     1215.114     72.41256      1.302     2.46     4.458849     20.42978     159.6637        16     0.942     0.904 -33.53   0
       269    334.3214    286.6232 300.1820312 +22.5451903     241.3254     72.37566      1.248     3.45     4.524886     20.42978      37.3709         5     0.754     0.456 -15.78   0
       270     99.6062    286.2491 300.1091945 +22.4747103     218.8433     72.39411      1.113     3.45     4.653922     20.42978      30.0744         5     0.747     0.461 -74.13   0
       271    772.0955    278.4522 300.3209572 +22.6740084     2064.163      72.4863      1.327     2.26     4.451911     20.42978     329.1881        22     1.052     0.985 -31.53   0
       272      5.1833    263.8221 300.0871390 +22.4399564     72895.44     72.02419      1.659     3.09      5.10691     20.42978      7773.78       106     1.601     1.430  54.17  24
       273    480.4528    262.1044 300.2354443 +22.5819448     630.3867      72.4863      1.246     2.95     4.395793     20.42978     78.56628        10     0.941     0.678  84.35   0
       274    185.6678    256.3909 300.1456205 +22.4919466     626.0316     72.41256      1.645     5.30     4.504808     20.42978     66.51288        10     1.152     0.782  42.29   0
       275    155.2494    256.4828 300.1361374 +22.4828527     1358.276     72.41256      1.586     3.31     4.510234     20.42978     169.0921        19     1.206     0.966 -29.36   0
       276    892.8630    249.9631 300.3678372 +22.7019815     341.1022     72.41256      1.471     4.00     4.426405     20.42978     41.36243         7     0.896     0.621  37.88   0
       277    238.7567    248.6040 300.1646475 +22.5056275     547.6294       72.431      1.548     4.00      4.51999     20.42978     57.53519         9     1.009     0.731   4.12   0
       278     94.9070    245.6618 300.1208974 +22.4616530     346.3724     72.50472      1.391     4.04     4.662611     20.42978     44.38399         6     0.777     0.599 -42.69   0
       279    915.3796    242.2043 300.3773736 +22.7064918     288.7172     72.37566      1.250     2.26     4.423349     20.42978     45.55102         5     0.694     0.459  72.29   0
       280    843.7442    240.0083 300.3557544 +22.6844132     710.2931     72.41256      1.246     2.66      4.43833     20.42978     105.9679        10     0.886     0.758  16.16   0
       281    434.1731    239.2901 300.2284426 +22.5615239     380.9586     72.37566      1.246     2.24     4.394764     20.42978     61.05219         7     0.786     0.572 -28.74   0
       282    934.5865    233.1431 300.3863009 +22.7096364     332.6805     72.39411      1.571     3.03     4.419254     20.42978     38.98737         5     0.744     0.431 -66.86   0
       283    941.8527    228.9332 300.3899319 +22.7106010     2104.583       72.431      1.437     2.64     4.417668     20.42978     257.8044        27     1.219     1.115 -89.67   0
       284    360.4739    226.2741 300.2097368 +22.5356995     2172.854     72.46787      1.295     2.32     4.367776     20.42978     266.6784        23     1.085     1.026  75.94   0
       285    438.3743    221.3072 300.2355812 +22.5576177     1002.445     72.35721      1.407     2.73     4.364168     20.42978     108.9296        14     0.992     0.842 -21.83   0
       286    840.2689    220.4962 300.3609990 +22.6777634     573.1032     72.54156      1.392     2.85     4.451497     20.42978     73.50844        12     1.010     0.752  62.11   0
       287    947.0583    217.8082 300.3951629 +22.7089603     380.2727     72.39411      1.479     3.43      4.42918     20.42978     43.58886         7     0.758     0.651  -0.35   0
       288     36.8832    214.6456 300.1129304 +22.4353518      359.176     72.37566      1.528     4.52     4.966701     20.42978     34.70161         6     0.947     0.613 -68.89   0
       289    255.0278    213.6075 300.1810541 +22.5004573     709.2213     72.41256      1.304     2.63     4.514862     20.42978     98.64007        11     0.942     0.722  65.50   0
       290    372.9879    213.2795 300.2178428 +22.5357179     356.4431     72.39411      1.239     4.56     4.357072     20.42978     44.49491         7     1.025     0.618 -24.52   0
       291    793.0101    210.3318 300.3495668 +22.6606913     1753.375     72.41256      1.356     2.55     4.472223     20.42978     234.8018        20     1.099     0.932  73.68   0
       292    858.0431    209.9667 300.3699536 +22.6800577     699.2002     72.46787      1.560     3.20     4.467019     20.42978     75.09807        11     0.991     0.827  21.72   0
       293    224.9046    208.7195 300.1732746 +22.4900241     318.3377     72.52314      1.494     3.84     4.520587     20.42978     29.17511         5     1.276     0.331 -49.11   0
       294    276.6095    206.6222 300.1900290 +22.5049206     543.5656     72.41256      1.314     2.60     4.505248     20.42978     83.76765        10     0.828     0.793  24.52   0
       295    797.2265    201.9906 300.3535854 +22.6595559     894.1382     72.41256      1.498     2.21     4.484615     20.42978     126.9462        13     0.974     0.861  17.40   0
       296    566.7156    202.7118 300.2815542 +22.5907273     365.1211     72.54156      1.345     3.76     4.395614     20.42978     46.75911         5     0.926     0.440 -82.85   0
       297    717.5566    200.9964 300.3290848 +22.6354135       1181.8       72.431      1.360     2.67     4.431698     20.42978      155.831        16     1.039     0.895 -55.84   0
       298    539.2442    197.3717 300.2747339 +22.5809635     455.3849     72.44944      1.560     4.57     4.408282     20.42978     44.09329         7     0.898     0.660 -71.06   0
       299    643.6008    192.9471 300.3086598 +22.6109512     1002.497     72.37566      1.267     2.37     4.351147     20.42978     158.2092        12     0.943     0.809  89.68   0
       300    912.9183    192.5160 300.3927193 +22.6914679     1413.289     72.54156      1.373     2.38     4.486134     20.42978     205.2374        18     1.020     0.979  23.35   0
       301    924.8271    192.0185 300.3965937 +22.6948897     737.1606       72.431      1.376     2.46     4.484831     20.42978     98.92171        10     0.828     0.752  -3.64   0
       302    971.3251    190.8248 300.4114802 +22.7084642     345.1484       72.431      1.573     3.35     4.484699     20.42978     41.73993         5     0.745     0.685  24.66   0
       303     65.2454    178.4851 300.1334638 +22.4334783     437.1184     72.39411      1.485     3.98     4.856282     20.42978     63.66586        11     1.136     0.841  76.07   0
       304    275.7786    174.9617 300.2000355 +22.4955802     696.1454       72.431      1.388     3.99     4.480383     20.42978     110.0204        13     1.142     0.839  65.10   0
       305    137.6385    169.7729 300.1587796 +22.4526822     2093.383       72.431      1.500     2.49     4.532785     20.42978     299.1793        28     1.279     1.080  69.24   0
       306    960.6799    166.6522 300.4159980 +22.6983262     547.5555       72.431      1.291     3.14     4.535145     20.42978     86.63007        14     1.039     0.891 -80.77   0
       307     87.4189    166.4883 300.1442411 +22.4366831      476.839     72.35721      1.363     4.25     4.725991     20.42978     63.98184         9     1.150     0.614 -81.61   0
       308    295.0552    163.1345 300.2098635 +22.4979611     5699.615     72.46787      1.407     2.62     4.445044     20.42978     636.4194        37     1.254     1.142  70.25   0
       309    276.9880    164.0532 300.2039479 +22.4928102     344.6828     72.41256      1.470     4.93     4.470726     20.42978     35.01745         8     1.028     0.669  61.16   0
       310      5.8333    160.3415 300.1208922 +22.4104560     252.1167       72.431      1.338     4.50     5.259717     20.42978     26.38609         6     1.183     0.488 -45.53  16
       311     79.3765    157.4289 300.1446794 +22.4316714     1313.185     72.41256      1.557     3.14     4.800237     20.42978       135.59        20     1.183     0.996 -66.26   0
       312    278.4416    153.9936 300.2076609 +22.4903570     560.4803     72.44944      1.345     3.22     4.450551     20.42978     75.32088        11     0.995     0.777  36.12   0
       313    939.2386    144.6997 300.4164288 +22.6855955     3673.541       72.431      1.460     2.60     4.568942     20.42978     481.2238        32     1.210     1.154  83.00   0
       314    241.5029    140.4465 300.2005679 +22.4753959     465.7754     72.44944      2.106     4.61     4.474144     20.42978     39.39547         8     1.221     0.495 -86.24   0
       315    488.4332    139.8918 300.2775542 +22.5492272     685.5872     72.37566      1.329     2.61     4.392494     20.42978     87.42181        10     0.874     0.725  58.29   0
       316    603.1447    137.6346 300.3139944 +22.5829385     322.2203       72.431      1.332     3.75     4.318808     20.42978      43.8058         7     0.862     0.781  63.38   0
       317    412.6591    131.6481 300.2566484 +22.5241578     788.2088     72.46787      1.779     3.23     4.285832     20.42978     81.60954        12     1.027     0.781 -86.37   0
       318    178.5134    129.1878 300.1846379 +22.4532832      750.723     72.35721      1.591     4.09     4.681429     20.42978     97.51575        12     1.254     0.653 -35.96   0
       319    540.0261    127.1885 300.2977301 +22.5610316     1767.432     72.41256      1.381     2.35     4.372577     20.42978     217.0368        22     1.056     0.993  51.86   0
       320    468.0592    127.7743 300.2751417 +22.5396422     563.0542     72.41256      1.396     2.36     4.365865     20.42978     81.02038        10     0.827     0.744  88.85   0
       321    601.8270    126.4966 300.3171945 +22.5793428     476.3253     72.35721      1.792     1.89     4.318633     20.42978     54.20156         5     0.673     0.453  25.11   0
       322    283.4923    122.4557 300.2194542 +22.4828134     426.7552     72.46787      1.290     3.15     4.363982     20.42978     74.27753         8     0.998     0.617 -81.12   0
       323    828.3405    116.6558 300.3909476 +22.6443366     349.6957      72.4863      1.139     2.44      4.61856     20.42978     58.52074         5     0.692     0.470  -7.68   0
       324    676.4734    113.0364 300.3448036 +22.5978280     129.5194     72.35721      0.878     3.74      4.32037     20.42978     30.97613         6     0.807     0.498 -87.17   0
       325    974.1558    111.2680 300.4381549 +22.6864298     306.9706     72.39411      1.231     3.28     4.751147     20.42978     42.45958         5     0.850     0.455  48.61   0
       326    314.0132    106.9538 300.2339692 +22.4875071     5909.412       72.431      1.428     2.55      4.28952     20.42978     730.7264        37     1.218     1.166  89.94   0
       327    165.0930    106.4479 300.1878373 +22.4427312     745.0155       72.431      1.500     3.82     4.941103     20.42978     78.58449        12     1.043     0.816  44.32   0
       328    943.0930    104.8348 300.4305532 +22.6752835     306.2962     72.35721      1.242     3.10     4.639608     20.42978     50.27796         6     0.900     0.442  39.16   0
       329      8.9217    103.5257 300.1402665 +22.3950749     740.4222     72.52314      1.671     3.70     5.104374     20.42978     73.26984        13     1.101     0.882   5.72   0
       330    285.8767    101.2687 300.2270625 +22.4774429       428.46     72.50472      1.358     2.48     4.303525     20.42978     51.12278         7     0.696     0.666 -24.12   0
       331    329.3633     98.0720 300.2416215 +22.4895555     340.6875     72.37566      1.277     3.03     4.260157     20.42978     56.35516         7     0.837     0.605  64.59   0
       332    560.0624     92.3558 300.3152573 +22.5570228     6353.261       72.431      1.369     2.41     4.335944     20.42978     832.8375        39     1.251     1.074  70.26   0
       333    445.4900     92.0428 300.2796999 +22.5226150     623.1963       72.431      1.345     3.21     4.296198     20.42978     67.37435        14     1.007     0.925 -84.79   0
       334    616.8724     87.0932 300.3346507 +22.5725235      261.597     72.54156      1.286     2.36     4.316761     20.42978     56.31876         5     0.746     0.494  38.88   0
       335    812.4610     82.4719 300.3970782 +22.6297535     884.5803     72.44944      1.740     4.76     4.681205     20.42978     90.76667        13     1.324     0.766 -65.94   0
       336    754.4045     83.5219 300.3786468 +22.6126760     380.7533     72.32028      1.612     3.79     4.616232     20.42978     43.27093         9     0.922     0.775  16.37   0
       337    905.3931     80.9908 300.4265265 +22.6571429     513.6509     72.26485      1.417     3.32     4.670508     20.42978     62.96633        10     1.056     0.668 -12.28   0
       338    124.1551     77.3367 300.1845501 +22.4221018     75.68385       72.431      1.243     4.34     5.091361     20.42978     26.93032         5     1.164     0.461  56.76   0
       339    252.9331     76.0511 300.2249921 +22.4603281     525.1814       72.431      1.338     2.13     4.333631     20.42978      80.3027         8     0.774     0.629  43.23   0
       340    611.6038     74.8887 300.3369654 +22.5674378     460.9037     72.32028      1.406     2.43     4.322587     20.42978     68.31737         7     0.796     0.598  24.80   0
       341    688.4493     72.3763 300.3617119 +22.5897254     6236.091     72.41256      1.389     2.37     4.396566     20.42978     768.4237        36     1.228     1.083  84.66   0
       342    463.3643     71.3986 300.2919522 +22.5220375     1416.499     72.37566      1.318     2.36     4.328132     20.42978      201.235        17     1.128     0.823  69.12   0
       343    729.5417     69.5528 300.3754277 +22.6012163     950.6424     72.46787      1.516     4.33     4.609891     20.42978     132.3133        14     1.233     0.755  83.62   0
       344    799.3481     67.8281 300.3977374 +22.6216175     307.9112       72.431      1.273     2.37     4.710284     20.42978     52.75705         5     0.725     0.436 -70.68   0
       345    745.4930     65.8166 300.3816081 +22.6049175     564.3943     72.33875      1.469     3.22     4.666652     20.42978     64.00066        11     0.989     0.770  53.13   0
       346   1015.3696     63.8492 300.4663782 +22.6851212     459.8112     72.44944      1.344     2.38     4.956756     20.42978     59.59047         6     0.703     0.605  37.17   0
       347    211.9838     63.8507 300.2162158 +22.4445526     587.1296       72.431      1.344     3.82     4.515221     20.42978      60.5704        10     0.982     0.749  85.92   0
       348     59.0607     64.3903 300.1685218 +22.3988721     391.5123     72.37566      1.693     4.30      5.09587     20.42978     39.14364         7     0.785     0.672  17.53   0
       349    784.0704     61.4122 300.3950557 +22.6151994     419.1685       72.431      1.388     2.15     4.714348     20.42978     73.26887         7     0.761     0.579 -28.08   0
       350    747.6589     56.1073 300.3854294 +22.6027742     989.5823     72.46787      1.778     4.76     4.703117     20.42978     98.45949        20     1.747     0.836  55.90   0
       351    732.7016     57.2368 300.3804033 +22.5986213     2818.135     72.41256      1.385     2.49     4.669501     20.42978     347.2968        26     1.168     1.012 -85.18   0
       352    373.5930     58.0727 300.2683407 +22.4913166     557.3094     72.35721      1.321     1.96     4.201393     20.42978     75.27085         6     0.713     0.481  79.04   0
       353     26.2949     51.4051 300.1625518 +22.3853218     871.2424     72.30181      1.484     3.17     5.084208     20.42978     94.75692        14     1.136     0.821  37.80   0
       354    819.1571     48.8857 300.4100494 +22.6220995     1667.721     72.37566      1.469     2.66     4.754158     20.42978      198.603        21     1.145     0.977 -42.59   0
       355    757.2048     42.0815 300.3929486 +22.6015988     680.4255     72.33875      1.270     2.71     4.753686     20.42978     100.2722        10     0.911     0.730 -10.02   0
       356    562.7679     41.3511 300.3326283 +22.5431738     1077.856     72.44944      1.422     2.79     4.341405     20.42978     135.2079        17     1.020     0.961 -78.94   0
       357    135.9834     41.6247 300.1997972 +22.4153926     439.3399     72.41256      1.362     2.56     5.119612     20.42978     57.40129         7     0.806     0.576 -26.18   0
       358    466.4461     39.2792 300.3033192 +22.5137309      687.898     72.41256      1.470     3.42     4.327875     20.42978     91.71308        15     1.140     0.896  65.03   0
       359    848.7977     37.7662 300.4228911 +22.6277730     484.2768     72.37566      1.757     5.67     4.778476     20.42978     43.51384         8     1.249     0.725 -88.17   0
       360    805.8279     30.2700 300.4119275 +22.6127563     599.3533     72.39411      1.264     3.14     4.796162     20.42978     85.15789        11     0.945     0.831  15.84   0
       361    237.9470     29.4050 300.2354477 +22.4424398     3808.032     72.39411      1.531     2.84      4.25268     20.42978     446.5626        33     1.329     1.118  81.60   0
       362     30.4519     29.7273 300.1708665 +22.3803445     342.8423     72.41256      1.313     3.33     5.085404     20.42978     50.42735         9     1.008     0.605   4.76   0
       363    660.6316     26.6084 300.3678783 +22.5682389     359.3986     72.41256      1.537     3.16     4.345465     20.42978      44.9082         6     0.711     0.680 -42.32   0
       364    563.7694     27.1810 300.3375314 +22.5394008     256.7226     72.41256      1.204     3.20     4.343307     20.42978     41.98859         5     0.846     0.455 -43.36   0
       365    799.2386     21.9546 300.4125683 +22.6083927     961.3245     72.46787      1.296     2.56     4.814004     20.42978     129.6649        13     0.954     0.863  68.54   0
       366    353.8959     21.5245 300.2740562 +22.4749154     1297.593     72.55997      1.550     2.81     4.162235     20.42978     163.9765        19     1.160     0.893  39.97   0
       367    837.0728     17.2704 300.4258775 +22.6183691     653.4114      72.4863      1.505     3.33     4.824901     20.42978     79.54871        11     0.995     0.742  81.24   0
       368    760.5680     16.9545 300.4021382 +22.5953801     433.6248     72.46787      1.080     2.57     4.832448     20.42978     71.71864         7     0.768     0.724 -15.27   0
       369    234.0816   1002.7830 299.9182354 +22.7205552     2280.487     72.39411      7.199    19.86     54.88597     20.42978     57.26031       111     4.605     2.378  75.04  19
       370    613.5649   1017.1617 300.0316038 +22.8385804     2298.195      72.4863      1.857     4.33     2.888558     20.42978     130.5379        31     1.418     1.284 -33.45  16
       371     38.0194   1019.9197 299.8517487 +22.6665831     1593.599     71.89426      0.422     2.34     5.589733     20.42978     1259.265         5     0.428     0.385 -30.25  16
       372    700.1989   1012.5298 300.0600878 +22.8632432     8604.933     72.33875      1.956     4.40     2.982171     20.42978     503.6118        50     1.532     1.495  50.45   3
       373    705.8062   1010.1953 300.0625938 +22.8642555     9203.637     72.26485      1.931     4.31     2.993073     20.42978     536.9774        51     1.515     1.478  70.26   3
