#   1 NUMBER                 Running object number                                     
#   2 X_IMAGE                Object position along x                                    [pixel]
#   3 Y_IMAGE                Object position along y                                    [pixel]
#   4 ALPHA_J2000            Right ascension of barycenter (J2000)                      [deg]
#   5 DELTA_J2000            Declination of barycenter (J2000)                          [deg]
#   6 FLUX_APER              Flux vector within fixed circular aperture(s)              [count]
#   7 FLUXERR_APER           RMS error vector for aperture flux(es)                     [count]
#   8 FLUX_RADIUS            Fraction-of-light radii                                    [pixel]
#   9 FWHM_IMAGE             FWHM assuming a gaussian core                              [pixel]
#  10 BACKGROUND             Background at centroid position                            [count]
#  11 THRESHOLD              Detection threshold above background                       [count]
#  12 FLUX_MAX               Peak flux above background                                 [count]
#  13 ISOAREA_IMAGE          Isophotal area above Analysis threshold                    [pixel**2]
#  14 A_IMAGE                Profile RMS along major axis                               [pixel]
#  15 B_IMAGE                Profile RMS along minor axis                               [pixel]
#  16 THETA_IMAGE            Position angle (CCW/x)                                     [deg]
#  17 FLAGS                  Extraction flags                                          
         1    205.4050     10.2117 300.2354952 +22.4424542     3950.782     72.47528      1.570     2.86     6.094944     20.48404     431.0284        34     1.290     1.185 -81.30   0
         2    773.4357     11.0426 300.4120672 +22.6127252     582.8793     72.66031      1.179     2.45     5.736337     20.48404     82.16547        11     0.909     0.723 -13.05   0
         3    531.3231      7.7827 300.3376950 +22.5393383     237.1185     72.60485      1.226     2.13     5.687953     20.48404     47.37576         5     0.720     0.427 -70.77   0
         4    627.7043      7.4101 300.3678332 +22.5680762      336.957     72.53084      1.237     3.74     5.737647     20.48404     47.49692         5     0.880     0.457 -46.70   0
         5    766.6396      2.7810 300.4126262 +22.6083152     904.3621     64.14088      1.424     3.27     5.743672     20.48404     116.2697        16     1.087     0.905 -71.74  24
         6    321.3792      2.5687 300.2740420 +22.4749883     1048.597     63.06422      1.197     2.43     5.656692     20.48404     159.6305        14     0.898     0.858  47.89  24
         7    732.3752      1.9357 300.4022208 +22.5978209     280.5642     59.85265      1.197     2.83     5.689024     20.48404     47.34415         7     0.812     0.608  62.05  24
         8      3.8701    996.1698 299.8527039 +22.6649501       2575.5     68.65056     14.589    22.36    -22.87639     20.48404     58.08602       132     4.496     3.087 -81.25  27
         9    282.2196   1019.9005 299.9314900 +22.7553045     2630.708     72.02927      5.565    25.38     34.91999     20.48404     61.43816       137     5.779     3.096 -86.96  27
        10    266.7961   1006.7444 299.9309750 +22.7469037     3784.483     72.56786      8.774    29.98     43.53507     20.48404      113.774       266     7.135     3.497 -15.54  19
        11    235.0247    992.9603 299.9255815 +22.7334169      4562.14     72.64183      9.176    36.06     60.38305     20.48404     96.41187       366     7.672     4.705 -82.95  19
        12    254.3698    992.2323 299.9318333 +22.7390136     6381.135     72.60485     12.492    49.64      46.2477     20.48404     114.1537       716    12.167     5.619 -53.47  19
        13    272.4290    981.0254 299.9410955 +22.7412194     9054.227     72.60485     11.207    36.50     29.25371     20.48404     179.1957       977    12.396     5.351  62.62  19
        14    113.5068    954.4071 299.9003530 +22.6858928     5054.419     72.51233     21.936    84.97     35.59336     20.48404     238.2393      2295    15.283    13.108  31.56  19
        15    200.6896    983.5329 299.9179743 +22.7204095     1735.186     72.73419      3.739    11.89       64.427     20.48404     57.89224        46     2.502     1.857  49.95   2
        16    962.0000    977.0457 300.1571523 +22.9468567     475.1124     72.58636      1.291     4.34     4.264467     20.48404     41.49745         6     1.379     0.389  89.77   2
        17    959.3263    977.3668 300.1562138 +22.9461477     535.1413     72.58636      1.940     4.88     4.226879     20.48404     38.09248         7     1.201     0.561 -81.87   2
        18    123.8721   1014.3714 299.8840635 +22.7061931     2809.184     72.60485     14.231    79.21      90.9113     20.48404     121.6251      1219    23.513     7.405  46.70  27
        19      3.6914    983.0067 299.8569312 +22.6611242     1633.716     67.92303      9.511    12.97    -17.77449     20.48404     47.65883        39     2.369     1.977 -44.72  27
        20    198.0031    972.5717 299.9207057 +22.7164606     540.3661     72.56786      2.615     4.86     55.93046     20.48404     28.73103         5     1.033     0.649  89.88   0
        21    178.1420    961.6354 299.9180898 +22.7073644     1353.148     72.60485      6.074    10.43     49.90194     20.48404      49.2194        22     2.481     1.221 -16.88   2
        22    110.0124    923.4387 299.9093414 +22.6759660     4122.328     72.60485     19.014    58.13     11.63245     20.48404     83.38684      1018    12.803     7.386 -28.20   3
        23    667.5423    993.4408 300.0600308 +22.8632998      8411.62     72.58636      1.926     4.44     3.531063     20.48404     477.2586        45     1.515     1.412  43.59   3
        24    161.1680    958.5924 299.9138038 +22.7013977     1231.503     72.60485      6.819     9.55      49.8749     20.48404     40.74713        19     1.983     1.284 -49.85   2
        25    157.4552    955.6858 299.9135955 +22.6994501     1319.856     72.66031      9.412    11.18     46.47536     20.48404     38.74935        18     3.401     1.024  68.71   3
        26    673.0020    991.1923 300.0624632 +22.8642916     9552.959     72.41969      1.998     4.70     3.524613     20.48404      599.205        52     1.543     1.502  -7.97   3
        27    685.7847    960.4479 300.0764496 +22.8593003     6990.457     72.64183      1.904     4.21     3.719442     20.48404     408.9411        51     1.564     1.429   8.31   0
        28    581.0980    997.9692 300.0316339 +22.8386769     2401.507     72.54935      1.997     5.03     3.662619     20.48404      141.563        31     1.477     1.321  -1.69   0
        29    149.1998    958.1852 299.9102165 +22.6976889      1345.73     72.45676      4.012     3.84     46.50956     20.48404     35.31707         5     1.020     0.415  62.84   2
        30    565.4933    955.1730 300.0407005 +22.8217172     522.8232     72.54935      1.892     5.34     3.959245     20.48404     36.67877         8     1.168     0.688 -19.49   0
        31    277.2837    954.5560 299.9512173 +22.7350857      458.071     72.56786      1.589     4.45     17.21686     20.48404      68.1992        12     1.117     0.971 -20.74   0
        32    838.3605    954.1389 300.1260516 +22.9032260     367.7482     72.60485      1.326     3.37     3.772143     20.48404     36.31999         5     0.761     0.431  70.31   0
        33    207.0575    997.8872 299.9152833 +22.7264361     1774.919     72.67879      4.561    10.02     74.76124     20.48404     56.30219        34     2.095     1.655 -75.15   3
        34    594.2463    951.2094 300.0509435 +22.8292020     1490.034     72.62334      1.795     4.24     4.006526     20.48404     109.4019        21     1.231     1.144  29.90   0
        35    488.3048    947.3558 300.0192134 +22.7963250     920.5239     72.62334      1.758     4.46     4.205732     20.48404     86.05751        18     1.282     0.998  31.48   0
        36    418.7618    945.5439 299.9981597 +22.7749460     6585.613     72.60485      1.826     4.09     4.440783     20.48404     499.7225        46     1.447     1.414 -14.82   0
        37    451.0107    932.9745 300.0122846 +22.7810132     529.3994     72.60485      1.759     6.05      4.37369     20.48404      51.9274        10     1.257     0.826  -7.30   0
        38    150.4672    923.6514 299.9218447 +22.6881684     1370.124     72.62334     10.692    11.59     20.58883     20.48404     46.58282        27     2.573     1.453 -47.45   3
        39    965.2393    924.5096 300.1752570 +22.9327388     2147.074     72.60485      2.032     5.11     4.786225     20.48404     115.4558        33     1.474     1.452 -51.15   0
        40    615.9799    921.8701 300.0672573 +22.8272988     346.8667     72.60485      1.564     2.07     4.127884     20.48404     57.05741         5     0.755     0.455  61.07   0
        41    753.7740    912.7183 300.1131629 +22.8659807     768.7567     72.58636      2.172     4.94     3.952237     20.48404      54.4318        11     1.072     0.936   9.33   0
        42    788.6394    907.5507 300.1257100 +22.8749472     958.3982     72.64183      1.777     4.46     4.008444     20.48404     68.12773        18     1.180     1.061 -44.76   0
        43    566.5679    908.2137 300.0563124 +22.8085636     247.1042     72.60485      1.171     3.64     4.159604     20.48404     48.87622         7     0.866     0.650  15.58   0
        44    810.9466    901.1847 300.1347340 +22.8798050     11373.11     72.58636      1.805     4.00     4.130421     20.48404     752.0471        54     1.471     1.419   9.67   0
        45    247.7857    903.1070 299.9587812 +22.7114803      682.569     72.53084      3.289     3.84      10.1092     20.48404     30.08527         5     1.198     0.352  79.40   0
        46     14.1339    979.5662 299.8612941 +22.6632733     1925.406     72.60485     13.607    24.27    -8.825383     20.48404     61.89264        96     4.720     3.466  72.40  27
        47   1002.3127    901.2766 300.1943804 +22.9371725     437.1563     72.73419      2.181     5.35     4.991883     20.48404     26.30128         7     1.287     0.627  44.93   0
        48    856.2567    901.3366 300.1488097 +22.8934274     470.3672     72.66031      1.910     5.24     4.273428     20.48404     34.99129         8     1.060     0.731  26.80   0
        49      5.9599   1015.5412 299.8470497 +22.6711287     3151.823     72.60485     10.576    44.77     -28.1612     20.48404     63.59821       455     8.700     6.393 -57.84  27
        50    706.1574    900.0974 300.1024311 +22.8480842     714.8515     72.60485      0.514     2.50     3.997817     20.48404     541.2499         6     0.648     0.289  26.79   0
        51    123.1505    892.7617 299.9234025 +22.6711138     1081.263     72.62334      4.189     4.45     10.17069     20.48404     64.46131        15     1.249     0.919  53.26   2
        52    862.0447    889.0259 300.1546190 +22.8916266     414.3993     72.62334      1.850     5.51     4.401965     20.48404     36.93137         6     1.053     0.812 -25.68   0
        53    515.7932    888.9498 300.0467702 +22.7878099     534.3087     72.60485      1.672     5.65     4.142402     20.48404     44.57759         9     0.998     0.902 -43.52   0
        54    767.5873    993.9410 300.0910399 +22.8934384     629.4138     72.58636      1.887     5.03     3.506746     20.48404     50.42539        13     1.287     1.050  66.03   0
        55    819.5970    883.2930 300.1432506 +22.8772599     1349.546     72.51233      1.735     3.91     4.349519     20.48404     117.2803        24     1.352     1.120 -37.74   0
        56   1004.3152    882.8800 300.2009896 +22.9324877     312.0883     72.75265      1.171     5.39     4.986163     20.48404     35.14957         6     1.148     0.714 -83.72   2
        57   1002.0000    882.9564 300.2002425 +22.9318161     255.1287     72.58636      1.252     3.77     4.980243     20.48404     35.54422         5     0.806     0.505  68.23   3
        58    112.4539    883.5983 299.9230587 +22.6652764      638.542     72.54935      3.806     7.40     7.825082     20.48404     45.57639        10     1.557     0.985  42.21   0
        59    671.5197    880.4726 300.0980234 +22.8320671     535.9645     72.73419      1.679     6.05     4.096336     20.48404      44.3215        11     1.241     0.830 -57.66   0
        60    857.4448    876.8384 300.1571492 +22.8867481     821.9492     72.66031      1.853     4.51     4.499717     20.48404     52.48014        17     1.195     1.007  15.26   0
        61    198.9279    876.0057 299.9524056 +22.6890485     929.6415     72.54935      0.521     2.94     9.032437     20.48404      396.136         8     0.658     0.386 -16.95   0
        62    905.8332    867.7473 300.1751943 +22.8986362     582.6555     72.62334      1.739     4.63     4.749227     20.48404     50.78274        13     1.149     0.849 -47.24   0
        63    757.7756    867.0519 300.1292645 +22.8540686     647.9056     72.62334      1.630     4.64     4.188242     20.48404     55.94071        11     1.037     0.780 -42.27   0
        64    469.9628    863.2797 300.0408534 +22.7667000     4180.518     72.56786      1.663     3.58     4.161709     20.48404     350.2523        36     1.357     1.253 -13.61   0
        65     17.5145    865.6525 299.8993980 +22.6316371     333.6815     72.62334      1.492     2.78     4.636064     20.48404     57.14366         5     0.930     0.480  43.54   0
        66    768.7086    864.1961 300.1336007 +22.8565253     636.5403     72.51233      1.572     4.38     4.277307     20.48404     50.64367        14     1.050     0.980 -47.80   0
        67    513.1559    851.5314 300.0581193 +22.7762808     309.8252     72.56786      1.525     4.67     4.092099     20.48404     31.36801         8     0.894     0.693  53.53   0
        68    248.5757    852.0798 299.9756227 +22.6970825     328.1683     72.58636      1.612     5.51     5.694105     20.48404      31.5122         8     1.082     0.792   6.98   0
        69    132.2048    852.0277 299.9394639 +22.6621512     358.6784     72.56786      1.447     3.87     6.123226     20.48404     35.28793         5     0.844     0.508  27.18   0
        70    195.1020    849.1429 299.9599523 +22.6801968     899.4059     72.69726      1.886     4.09     6.337147     20.48404      99.2401        19     1.304     1.127 -63.62   0
        71    112.9231    850.4845 299.9339735 +22.6559226     395.2905     72.71573      1.959     4.67      5.53269     20.48404     38.10355         5     1.015     0.608  86.76   0
        72    172.5083    845.9371 299.9539714 +22.6724983     1623.715     72.71573      1.782     3.70     6.540771     20.48404     152.8497        24     1.284     1.188 -10.05   0
        73     47.6309    836.1155 299.9183586 +22.6322083     409.0747     72.62334      2.159     3.44      4.77001     20.48404     33.51249         5     0.785     0.437 -71.66   0
        74    998.3397    833.6219 300.2151470 +22.9165464     1924.747     72.56786      1.804     4.52     4.977057     20.48404      111.844        27     1.357     1.239 -37.93   0
        75    703.6238    834.5618 300.1229573 +22.8285096     412.1788     72.62334      1.679     5.39     4.101212     20.48404     43.34183         9     1.220     0.671 -61.48   0
        76    781.8510    827.4452 300.1496491 +22.8499107     545.0568     72.62334      1.646     6.04     4.417182     20.48404     54.33469        14     1.315     0.950  35.08   0
        77    204.8974    827.0024 299.9701972 +22.6767858     397.2252     72.51233      1.650     4.23     5.517368     20.48404     46.77243         7     1.206     0.481  73.55   0
        78    650.0129    821.4804 300.1105097 +22.8086847     4812.837     72.58636      1.569     3.23     4.139243     20.48404     413.0988        32     1.246     1.165 -20.55   0
        79    139.9435    822.1143 299.9515960 +22.6558953     323.7354     72.71573      1.433     5.15     5.384559     20.48404     39.18742         8     1.053     0.820 -58.07   0
        80    452.1664    818.6933 300.0498140 +22.7485687     747.4794     72.54935      1.671     3.81     4.381743     20.48404     58.22906        17     1.107     1.047 -22.31   0
        81    200.2332    815.0433 299.9726357 +22.6719564     1386.096     72.66031      1.696     3.63     5.172277     20.48404     143.8572        25     1.289     1.186  57.70   0
        82    670.6554    813.8930 300.1194074 +22.8126937      790.809     72.66031      1.474     4.16     4.159367     20.48404     75.48737        14     1.130     0.920 -52.21   0
        83    826.0402    801.2327 300.1719472 +22.8556239     4146.047     72.66031      1.662     3.42     4.663679     20.48404     298.7873        35     1.344     1.235 -45.70   0
        84    234.7532    794.9547 299.9898998 +22.6765502     486.8673     72.64183      1.568     5.19      4.71979     20.48404     46.77564        11     1.073     0.850  73.73   0
        85    542.8985    793.6854 300.0861895 +22.7685956     635.9306      72.7711      1.461     3.70     4.107498     20.48404     84.60709        13     1.074     0.869  21.23   0
        86    189.3888    791.6022 299.9768859 +22.6619795     1062.309     72.41969      1.829     3.46     4.689584     20.48404     113.7169        17     1.196     0.986  13.58   0
        87    339.0753    783.6989 300.0260038 +22.7046122     53774.29     72.73419      1.612     3.21     4.893989     20.48404     5803.598        88     1.420     1.397  45.60   0
        88    605.3008    787.1502 300.1077462 +22.7854262     456.5706     72.67879      1.301     2.44     4.146078     20.48404     66.67279         5     0.756     0.408  70.80   0
        89    596.9840    782.7135 300.1065986 +22.7816595     1624.538     72.54935      1.470     3.19     4.163629     20.48404     151.7852        21     1.115     1.037  42.07   0
        90   1009.8309    782.2679 300.2354318 +22.9052330     796.6544     72.58636      1.719     4.23     4.822633     20.48404     60.66674        16     1.201     0.943  -0.85   0
        91    267.4904    781.6428 300.0044074 +22.6825516     421.8099     72.60485      1.609     6.32      4.76475     20.48404     45.05233        11     1.269     1.042 -70.23   0
        92    625.8844    778.6760 300.1169123 +22.7891631     954.1929     72.71573      1.543     3.90      4.20636     20.48404     85.07182        17     1.186     0.993 -71.78   0
        93     25.2088    778.4290 299.9301483 +22.6089394     846.4969     72.60485      1.885     4.47     4.546653     20.48404     83.71225        18     1.363     1.111  34.44   0
        94    636.8657    777.0451 300.1208629 +22.7919863     551.7557     72.60485      1.419     3.79     4.229856     20.48404      63.5108        11     1.015     0.751  17.57   0
        95    956.8428    774.5530 300.2214103 +22.8871455      344.412     72.64183      1.468     3.35     4.835751     20.48404     49.56543         6     0.953     0.705  49.05   0
        96    742.1808    773.7605 300.1547422 +22.8226057     537.4589     72.62334      1.703     5.12     4.188737     20.48404      50.8489        10     1.057     0.828 -60.23   0
        97    780.0229    763.8569 300.1697557 +22.8311007      665.158     72.60485      1.436     3.95     4.485241     20.48404     77.58408        14     1.101     0.882 -51.60   0
        98    388.7927    760.9297 300.0488736 +22.7129884      31703.1     72.56786      1.557     3.24     4.706873     20.48404     3072.353        71     1.354     1.334   3.16   0
        99    403.0797    761.4235 300.0531586 +22.7174143     1867.013     72.56786      1.528     3.12     4.646876     20.48404     170.0511        23     1.161     1.079  12.93   0
       100    911.9686    756.9962 300.2131228 +22.8686597     2688.934     72.56786      1.626     3.60     4.808687     20.48404     204.6581        30     1.281     1.243 -17.66   0
       101    400.0756    755.2825 300.0542202 +22.7147511     647.8201     72.71573      1.848     3.79     4.631659     20.48404     62.49954        11     1.075     0.843  55.26   0
       102    506.2078    753.1202 300.0879549 +22.7459517      614.053     72.53084      1.793     4.33     4.199392     20.48404      55.3102        10     1.014     0.816 -41.88   0
       103    669.7277    752.9368 300.1389375 +22.7949132     929.3264     72.64183      1.508     3.63      4.38378     20.48404     96.25568        17     1.111     1.023   2.85   0
       104    271.2508    752.7818 300.0149592 +22.6753995     851.3915     72.60485      1.697     4.11     4.681819     20.48404     79.93074        16     1.190     0.951 -12.68   0
       105    563.6013    750.5553 300.1066579 +22.7624206     233.5424     72.60485      1.240     4.06     4.297177     20.48404     39.44992         5     0.964     0.489  88.68   0
       106    516.9370    747.8231 300.0930171 +22.7476476     835.0571     72.58636      1.474     2.89     4.238943     20.48404     99.87589        12     0.964     0.781 -25.70   0
       107     76.4977    748.4335 299.9558334 +22.6157282     424.4396     72.58636      1.663     4.14     4.524862     20.48404     58.27332         8     1.093     0.676 -15.29   0
       108    917.8698    744.5225 300.2190184 +22.8668435     513.1634     72.71573      1.569     5.74      4.81671     20.48404     49.31714        11     1.262     0.736  64.98   0
       109    462.9229    742.3231 300.0779913 +22.7298756     452.3784     72.69726      1.473     3.47      4.25923     20.48404     59.01987        10     1.164     0.775 -20.89   0
       110    375.0211    743.3230 300.0503123 +22.7038061     409.2603     72.60485      1.508     2.82     4.707944     20.48404     37.16105         7     0.721     0.665   7.13   0
       111    104.8379    742.3217 299.9666264 +22.6224785     586.0532     72.58636      1.934     5.27     4.569939     20.48404     41.47214        10     1.113     0.706 -39.72   0
       112    671.1559    741.9123 300.1429664 +22.7921754     295.6964     72.60485      1.310     5.23      4.43624     20.48404     36.98547         8     1.029     0.751 -70.89   0
       113    269.0399    737.2305 300.0193268 +22.6702746     413.5256     72.62334      1.527     4.24     4.618149     20.48404     46.44831        10     1.054     0.860  -7.50   0
       114    592.1610    727.6689 300.1229912 +22.7644103     420.2157     72.56786      1.570     3.81     4.405775     20.48404     41.92945         7     1.019     0.519 -44.67   0
       115    561.9799    725.8425 300.1141864 +22.7548396     684.2309     72.64183      1.428     3.51       4.4235     20.48404     65.90453        14     1.021     0.933  70.38   0
       116    470.8813    724.6404 300.0862162 +22.7271859     368.8096     72.56786      1.459     2.92     4.338541     20.48404     53.49968         5     0.708     0.697 -77.02   0
       117    978.2959    722.2735 300.2450987 +22.8785488      4565.47     72.73419      1.718     3.55     4.676699     20.48404       363.06        38     1.390     1.270 -29.72   0
       118    583.8337    723.1856 300.1218552 +22.7606272     1358.639     72.58636      1.460     3.17     4.428185     20.48404      139.354        20     1.091     1.068 -38.12   0
       119    503.6333    723.1021 300.0969113 +22.7365629     295.0696     72.58636      1.310     3.36     4.370803     20.48404     52.03995         6     0.874     0.658  -1.30   0
       120    711.3350    719.8445 300.1626580 +22.7978783     234.8423     72.60485      1.473     5.55     4.431799     20.48404     24.63046         6     1.566     0.554 -57.45   0
       121    966.9281    713.6200 300.2443655 +22.8726576     1760.287     72.64183      1.694     3.80      4.77619     20.48404     125.2089        27     1.324     1.151 -36.84   0
       122    329.7436    707.5039 300.0478691 +22.6799497     771.5966     72.67879      1.495     3.76     4.742708     20.48404     80.41996        15     1.106     0.952  28.23   0
       123    195.8272    708.5295 300.0058910 +22.6400811     271.3048     72.58636      1.325     3.46     4.547189     20.48404     34.49265         5     0.779     0.444  20.96   0
       124    793.3093    704.9947 300.1930317 +22.8181740     2550.367     72.51233      1.581     3.31     4.632586     20.48404     250.5931        30     1.437     1.054   0.41   0
       125    997.8483    703.8286 300.2571940 +22.8791036     1719.251     72.62334      1.647     3.57     4.756789     20.48404     128.3864        26     1.299     1.151  62.08   0
       126     15.8046    695.3564 299.9542281 +22.5822959     800.4583     72.62334      1.677     4.15     4.303828     20.48404     76.35463        15     1.240     0.898 -19.94   0
       127    178.6255    691.2325 300.0061649 +22.6299591     653.6838     72.60485      1.544     3.84     4.637271     20.48404     81.69838        14     1.308     0.761  39.58   0
       128    875.6500    690.9929 300.2232529 +22.8388173     575.2466     72.60485      1.759     4.40     4.853736     20.48404     61.78737        11     1.287     0.638  19.13   0
       129    911.6164    681.8951 300.2374255 +22.8469756     149419.7     72.53084      1.595     3.29     4.969894     20.48404      12950.3       149     1.477     1.456 -33.54   0
       130    763.8937    682.0083 300.1913344 +22.8027583     670.2481     72.51233      1.369     3.61     4.572752     20.48404      72.4408        12     1.011     0.825  27.93   0
       131    943.9584    674.9364 300.2497741 +22.8546621     482.3481     72.58636      1.601     5.19     5.027422     20.48404     38.47567         9     1.451     0.525  55.73   0
       132    597.9276    670.8012 300.1432701 +22.7498095     1726.677      72.4938      1.469     2.70     4.585265     20.48404     206.5551        22     1.117     1.018  55.75   0
       133    779.1152    668.0184 300.2006251 +22.8032996     9474.604     72.54935      1.461     2.94     4.650542     20.48404     893.2826        44     1.242     1.212  31.36   0
       134    260.9678    669.3669 300.0388723 +22.6483815     262.2614     72.66031      1.235     4.83     4.650097     20.48404     43.35791         7     0.941     0.702  10.04   0
       135    280.5140    662.9141 300.0470478 +22.6523913      4869.57     72.73419      1.537     2.96     4.676212     20.48404     591.2349        36     1.266     1.197  22.40   0
       136    362.5039    661.1644 300.0731201 +22.6764736     1219.855     72.60485      1.601     3.71     4.709886     20.48404     105.6486        18     1.073     1.051  -7.93   0
       137    238.1016    658.8085 300.0351927 +22.6384944      618.757     72.47528      1.699     3.83     4.617545     20.48404     67.59666        11     1.140     0.781  25.89   0
       138    570.9829    656.7266 300.1394528 +22.7376928     699.5079     72.60485      1.432     2.85     4.798404     20.48404     98.71114        16     1.105     0.863  18.11   0
       139    562.6194    648.7397 300.1394439 +22.7328929     3121.788     72.54935      1.385     2.58     4.871598     20.48404     414.8159        22     1.037     1.003 -57.76   0
       140    552.7741    642.5771 300.1383807 +22.7281727      1392.49     72.56786      1.345     2.52     4.930464     20.48404      187.854        17     0.991     0.931  25.80   0
       141    946.4586    640.6840 300.2616853 +22.8455671     440.8436     72.71573      1.478     4.41     4.931745     20.48404     49.24758        12     1.136     0.773 -48.30   0
       142    216.0085    638.6583 300.0348706 +22.6260868     788.0076     72.56786      1.568     4.24     4.646705     20.48404      74.2704        15     1.154     0.930  14.62   0
       143    230.6463    637.3398 300.0398503 +22.6300982     571.5858     72.64183      1.445     2.84      4.61917     20.48404     71.63102         9     0.832     0.789  21.29   0
       144    255.7749    633.8134 300.0488099 +22.6366218     536.3237     72.60485      1.572     4.80      4.63674     20.48404     57.05067        12     1.149     1.044 -53.95   0
       145    999.6985    633.4611 300.2806405 +22.8594330     581.1967     72.67879      1.946     4.58     4.876601     20.48404     59.40971        13     1.288     0.995   8.47   0
       146    287.4463    634.0657 300.0585775 +22.6461911     373.4215     72.60485      1.531     2.69     4.656726     20.48404     46.10083         5     0.732     0.575  10.41   0
       147    576.8229    632.8977 300.1490145 +22.7326002     445.8826     72.53084      1.320     2.38     4.933702     20.48404      74.8208         8     0.840     0.625 -85.40   0
       148    477.6000    632.2593 300.1183297 +22.7026793     1714.853     72.54935      1.359     2.57     4.849908     20.48404     219.2784        18     1.003     0.975 -74.71   0
       149    131.4657    627.0244 300.0123695 +22.5973931     20241.25     72.58636      1.683     3.29      4.88655     20.48404     2107.637        65     1.427     1.411  79.70   0
       150    562.4122    627.5035 300.1462796 +22.7267326     1076.431     72.51233      1.524     2.87     4.988228     20.48404     116.3849        14     1.005     0.842  17.27   0
       151    598.1990    626.9135 300.1576159 +22.7372873      294.323     72.51233      1.337     3.54     4.944165     20.48404     49.84371         7     0.944     0.684  -4.50   0
       152    617.5956    620.2059 300.1658364 +22.7411731     163.2936     72.45676      1.223     3.46      4.99375     20.48404     21.92332         5     0.775     0.446 -71.16   0
       153    315.7425    619.4062 300.0721414 +22.6504680     322.7614     72.56786      1.405     3.96     4.661036     20.48404      40.0013         7     0.934     0.730   7.62   0
       154    980.6381    613.7526 300.2810982 +22.8480610     1127.799     72.64183      1.617     4.13     4.812954     20.48404     95.05259        19     1.240     1.086 -15.17   0
       155    645.7869    614.8879 300.1763454 +22.7480928     437.5368     72.54935      1.711     3.72      5.03465     20.48404     36.99296         6     0.896     0.617 -73.34   0
       156    927.4029    612.9783 300.2647445 +22.8318981     317.4477     72.54935      1.883     4.63     4.855073     20.48404     24.35476         5     1.058     0.575  16.82   0
       157     77.5644    611.4115 300.0006912 +22.5767464     1561.197     72.60485      2.064     5.63     4.928759     20.48404     86.08912        27     1.586     1.165 -84.26   0
       158    847.5569    611.8167 300.2402232 +22.8076526     422.1407     72.62334      1.384     3.62       4.8356     20.48404     58.58139         8     0.934     0.604  76.71   0
       159     52.7921    628.7968 299.9873460 +22.5743025     781.0795     72.41969      2.030     2.96     4.739145     20.48404     78.66232        11     0.980     0.799  10.70   0
       160    525.8737    608.4086 300.1411068 +22.7102991     552.4172     72.58636      1.399     3.82     5.034157     20.48404     54.12083         7     0.950     0.488   3.87   0
       161    920.3105    606.6635 300.2645843 +22.8279594     835.0047     72.69726      1.803     4.15     4.842408     20.48404     84.41323        16     1.236     0.867   7.51   0
       162    318.4482    606.9208 300.0770394 +22.6476956     370.2849     72.60485      1.737     5.13     4.657186     20.48404     39.33646         8     1.331     0.730  25.93   0
       163    665.0057    604.2376 300.1857927 +22.7507918     272.9274     72.64183      1.745     5.38     5.091938     20.48404     34.28321         7     1.299     0.629  71.94   0
       164    482.5775    600.4706 300.1302071 +22.6950438     761.1495     72.64183      1.538     2.96     4.944494     20.48404     89.04048        15     1.036     0.890  46.32   0
       165    630.7430    599.1348 300.1767775 +22.7390605     512.6844     72.66031      1.400     2.49     5.127631     20.48404     67.31682         7     0.743     0.615 -61.06   0
       166    677.8359    597.4691 300.1919888 +22.7526914     493.6833     72.60485      1.383     3.95     5.098568     20.48404     57.79757         9     0.947     0.732 -51.10   0
       167    713.6159    596.1763 300.2035569 +22.7630390     169.7018     72.60485      1.433     4.13     4.956081     20.48404     37.45493         6     1.010     0.751  82.97   0
       168    648.0955    597.2601 300.1827917 +22.7437211     613.3679     72.67879      1.379     3.31     5.129439     20.48404      69.4903        11     0.989     0.766  -2.77   0
       169    526.8371    596.1954 300.1453746 +22.7070807     915.4995     72.64183      1.424     2.96      5.14045     20.48404      100.592        14     0.965     0.857  29.34   0
       170    960.6481    591.9375 300.2819502 +22.8358052     3380.097     72.64183      1.543     3.13     4.812047     20.48404     311.0239        30     1.239     1.159 -89.53   0
       171    492.4255    591.7732 300.1360982 +22.6954979     1547.866     72.56786      1.334     2.59     5.038841     20.48404     215.6126        18     1.023     0.952  34.72   0
       172    857.9134    589.6130 300.2506662 +22.8043736      379.175     72.54935      1.453     3.38     4.831141     20.48404     34.64543         5     0.767     0.432  20.76   0
       173    467.9941    586.9548 300.1300585 +22.6867921     263.8032     72.60485      1.285     2.55     4.976949     20.48404     45.61601         5     0.632     0.571 -89.79   0
       174     54.2194    585.1635 300.0019641 +22.5622140     5326.361     72.62334      1.780     3.40     4.927848     20.48404     509.1324        42     1.395     1.378 -16.55   0
       175    999.6903    582.1141 300.2973213 +22.8446706     353.2711      72.7711      1.331     3.65     4.790005     20.48404     44.39469         6     0.763     0.608  25.95   0
       176    522.1011    582.6124 300.1483127 +22.7017608      322.587     72.51233      1.230     2.36     5.231263     20.48404     44.04661         5     0.708     0.448 -20.34   0
       177    355.7623    578.4700 300.0978897 +22.6507154     9488.574     72.56786      1.459     2.70     4.694706     20.48404     1131.927        42     1.243     1.161  59.63   0
       178    478.2137    575.5623 300.1369404 +22.6865837     9038.207     72.60485      1.377     2.53     5.098773     20.48404     1113.446        39     1.169     1.137  40.43   0
       179    724.8235    571.8269 300.2149596 +22.7594009     384.1703     72.58636      1.320     2.98     5.007574     20.48404     49.01764         5     0.921     0.334 -41.69   0
       180    889.8696    569.5884 300.2671361 +22.8081883     1936.128     72.62334      1.489     2.91     4.823479     20.48404      223.092        23     1.150     1.048  49.20   0
       181    974.6006    567.0246 300.2943962 +22.8328212     12637.52     72.54935      1.556     3.02     4.806436     20.48404     1162.054        46     1.297     1.251 -65.76   0
       182    538.8156    565.1492 300.1591896 +22.7017544     11605.56     72.62334      1.365     2.54     5.461089     20.48404     1444.667        39     1.158     1.107  51.42   0
       183    708.5522    561.0059 300.2134045 +22.7514179     543.6878     72.58636      1.552     3.65      5.12006     20.48404     58.29718        10     1.007     0.670 -27.84   0
       184    266.2247    560.6204 300.0758369 +22.6187487     1327.402     72.60485      1.494     2.87     4.751576     20.48404     173.7357        16     1.042     0.907  10.50   0
       185    424.3770    559.9249 300.1252637 +22.6659582      353.315     72.64183      1.410     3.32     4.874123     20.48404     43.26576         6     0.821     0.605 -51.23   0
       186    513.1741    557.9640 300.1535402 +22.6920071     315.4388     72.62334      1.244     3.24     5.399344     20.48404     61.47544         7     0.925     0.557  75.44   0
       187    470.4525    553.3453 300.1417413 +22.6778781     4249.253     72.64183      1.340     2.39     5.209014     20.48404     521.2573        30     1.120     1.052 -87.74   0
       188    813.3168    553.5316 300.2484838 +22.7806489     761.7239     72.71573      1.332     2.83     4.808086     20.48404     103.0979        14     0.965     0.887  16.46   0
       189    448.7794    551.7493 300.1355138 +22.6709244     1335.793     72.60485      1.408     2.52     5.071454     20.48404     177.5626        18     0.992     0.972  56.52   0
       190    203.0371    551.0930 300.0592834 +22.5970686     771.1165     72.58636      1.553     3.13     4.948328     20.48404     88.76829        12     0.978     0.849  85.60   0
       191    890.3240    548.9884 300.2739695 +22.8024035     1640.788     72.62334      1.499     3.15     4.812728     20.48404     161.2394        21     1.206     0.958 -43.09   0
       192    587.1270    540.8815 300.1821161 +22.7092600     202115.1     72.73419      1.364     2.54     5.476541     20.48404     25502.37       196     1.429     1.376 -13.61   0
       193    770.5462    545.9633 300.2376103 +22.7656646      873.562     72.62334      1.344     2.66     4.924751     20.48404     113.4756        15     0.944     0.922  87.82   0
       194    273.1971    540.7139 300.0844708 +22.6151253     3627.882     72.53084      1.462     2.78     4.765812     20.48404     439.5971        29     1.174     1.103  39.94   0
       195    838.9108    536.9658 300.2618437 +22.7835527     557.2539     72.56786      1.467     4.06     4.806067     20.48404     60.73528        10     0.931     0.793  51.99   0
       196    618.5637    527.7628 300.1961679 +22.7149099     275.5226     72.67879      1.208     3.35     5.375721     20.48404     50.16216         6     0.906     0.580  23.54   0
       197    477.7897    521.4595 300.1543814 +22.6709201     2899.546     72.56786      1.472     2.63     5.343472     20.48404     357.6053        31     1.510     1.005 -86.93   0
       198    322.5853    523.4822 300.1054287 +22.6249842      380.697     72.58636      1.241     3.99     4.737594     20.48404     56.16753         6     0.987     0.462  33.93   0
       199    927.4994    521.0773 300.2946290 +22.8055113     143.9731     72.75265      1.292     4.22     4.808545     20.48404     38.10895         5     0.762     0.666 -17.03   0
       200    634.2153    518.3820 300.2040898 +22.7169039     455.8057     72.58636      3.146     4.59      5.36269     20.48404     25.22593         5     1.172     0.511 -58.27   0
       201    889.2133    517.8331 300.2837426 +22.7931158     371.6306     72.58636      1.273     4.04     4.809968     20.48404     45.18345         6     0.833     0.561 -50.28   0
       202    794.9391    509.9099 300.2569234 +22.7626092     388.2316     72.69726      1.350     2.19     4.791354     20.48404     60.31493         6     0.723     0.535  30.55   0
       203    874.7662    507.4723 300.2826025 +22.7858120      1766.48     72.60485      1.437     2.48     4.810447     20.48404     227.8234        22     1.099     1.038 -34.59   0
       204    761.6721    506.6119 300.2476255 +22.7516987     269.0878     72.62334      1.505     4.77     4.867801     20.48404     33.68264         6     0.975     0.661  69.76   0
       205    745.8998    505.0440 300.2432191 +22.7465246     2732.356     72.62334      1.390     2.60     4.900101     20.48404     346.7233        24     1.097     1.004  55.69   0
       206      4.8396    505.7893 300.0124019 +22.5246313     734.8044     71.58049      1.527     4.51     5.011206     20.48404     80.70332        13     1.328     0.838  20.85  16
       207    384.8071    504.2458 300.1310337 +22.6381112     232.1922     72.62334      1.440     3.97     4.978543     20.48404     33.36687         5     0.936     0.483 -46.32   0
       208    989.9609    502.2691 300.3202215 +22.8188029     382.1918     72.56786      1.453     4.27     4.791991     20.48404     46.79721         7     0.888     0.592  32.13   3
       209    988.7902    498.2939 300.3211473 +22.8173095     759.7652     72.54935      1.590     3.74      4.79057     20.48404     77.67124        13     1.105     0.932 -26.58   2
       210    955.2422    501.9217 300.3095037 +22.8083100     321.4092     72.58636      1.566     3.53     4.800663     20.48404      42.6755         7     0.885     0.703  82.67   0
       211    650.8549    501.9850 300.2145982 +22.7171777     501.6174     72.58636      1.254     2.16     5.344239     20.48404     90.68451         8     0.895     0.547 -28.07   0
       212    533.1674    501.1240 300.1782256 +22.6816730     770.2953     72.60485      1.310     3.11     5.478513     20.48404     89.39498        10     0.953     0.698 -72.95   0
       213   1003.2799    499.0984 300.3254066 +22.8218781     1424.761     72.73419      1.536     3.32     4.787276     20.48404     131.4175        21     1.158     1.025 -10.35   0
       214    874.9126    497.4299 300.2859096 +22.7829692      2381.45     72.60485      1.714     4.33     4.810335     20.48404     244.3684        30     1.601     0.992  74.82   0
       215    628.1225    495.3369 300.2096760 +22.7084581     780.3389     72.67879      1.763     3.76     5.364298     20.48404     68.85648        12     1.065     0.821  69.61   2
       216    414.1228    495.2974 300.1430618 +22.6443276     319.5658     72.73419      1.350     4.86     5.219007     20.48404     36.37392         9     0.973     0.686 -64.81   0
       217    913.2378    492.6638 300.2994090 +22.7930735     4320.708     72.58636      1.443     2.60     4.807596     20.48404     553.3456        32     1.183     1.123 -77.40   0
       218    467.0144    494.3027 300.1598464 +22.6598920     327.3682      72.4938      1.153     2.70     5.347158     20.48404     59.41588         7     0.724     0.654 -29.16   0
       219    554.3687    492.1692 300.1877350 +22.6854530     236.8178     72.60485      1.057     3.42     5.457203     20.48404     35.68394         5     0.733     0.462  75.98   0
       220    650.8641    489.4608 300.2186683 +22.7135821     170.1958     72.64183      1.283     3.66     5.340471     20.48404     43.59039         5     1.032     0.628 -68.15   0
       221    573.1680    488.1004 300.1949104 +22.6899163     538.2055     72.58636      1.866     5.27     5.422871     20.48404     52.17541         9     1.370     0.573  36.74   0
       222   1004.8425    483.1680 300.3310676 +22.8177653     670.8042     72.64183      1.403     3.03     4.778594     20.48404     88.12139        15     1.052     0.941  39.74   0
       223    145.1139    482.7758 300.0634625 +22.5600939     1038.859     72.56786      1.607     3.50     4.967184     20.48404     109.2211        16     1.142     0.927  24.27   0
       224    774.9948    480.6590 300.2602059 +22.7482300     157.3192     72.56786      1.135     4.47     4.785727     20.48404     29.95258         6     0.871     0.653  34.50   0
       225    806.2667    476.8470 300.2711915 +22.7564988     279.2928     72.58636      1.142     2.66     4.761629     20.48404     50.04436         5     0.820     0.435 -41.08   0
       226   1001.7061    472.1532 300.3336660 +22.8136593     323.2182     72.62334      1.286     4.91     4.780993     20.48404     39.78105         8     1.031     0.823  63.17   0
       227    137.5442    472.6307 300.0644037 +22.5549126     466.2771     72.62334      1.577     3.90      4.98003     20.48404     52.39795         9     1.056     0.830  63.89   0
       228    745.7105    467.3641 300.2553961 +22.7356396     401.5631     72.58636      1.312     2.21     4.913008     20.48404     51.78025         5     0.693     0.453 -18.00   0
       229    634.3854    464.9524 300.2214933 +22.7016044     239.4052     72.62334      1.097     3.89     5.341162     20.48404     46.99163         6     1.005     0.538 -39.41   0
       230    686.6342    463.0494 300.2383884 +22.7167071     667.6838     72.64183      1.243     2.27     5.234476     20.48404     117.5058        14     1.004     0.799   4.54   0
       231   1001.0709    455.6265 300.3388343 +22.8087169     458.1814     72.60485      1.346     2.96     4.785981     20.48404     69.13888         9     0.975     0.779  32.92   0
       232    747.4079    455.1577 300.2598885 +22.7326398     799.9039     72.62334      1.274     2.77     4.985809     20.48404     103.9911        15     1.000     0.864  67.73   0
       233    904.6315    451.7701 300.3100042 +22.7787406        941.8     72.60485      1.332     2.78     4.857328     20.48404     130.8428        16     0.986     0.932  55.76   0
       234    889.0294    447.7537 300.3064427 +22.7729151     621.9929     72.64183      1.501     5.22     4.864837     20.48404     65.19225        11     1.054     0.903 -59.16   0
       235    869.2230    448.3704 300.3000662 +22.7671629     252.1482     72.60485      1.011     2.90     4.865654     20.48404     34.80003         5     0.722     0.456  16.41   0
       236    633.1846    445.7400 300.2273573 +22.6957245     3298.971     72.56786      1.354     2.51     5.324008     20.48404     461.6666        28     1.131     1.017  69.88   0
       237    779.5444    445.3121 300.2731013 +22.7394333     171.2582     72.64183      1.331     5.30     4.895985     20.48404     37.77171         6     1.471     0.540  59.70   0
       238    993.7337    444.6075 300.3401230 +22.8033522     456.1187     72.60485      1.224     3.63     4.796751     20.48404     66.40846        10     1.120     0.628  48.11   0
       239    109.1186    437.0532 300.0671194 +22.5361787     433.7127     72.64183      1.624     3.94     5.046607     20.48404     46.07392         7     1.083     0.601 -31.49   0
       240    472.9785    433.1065 300.1815726 +22.6441024     375.3404     72.53084      1.556     3.04     5.415567     20.48404     45.17884         6     0.740     0.682 -76.30   0
       241    916.1146    424.6584 300.3223880 +22.7743831     446.3054     72.71573      1.418     2.84     4.903486     20.48404     84.05646        11     0.918     0.875 -35.52   0
       242   1002.7484    423.7720 300.3497003 +22.8000586      1027.35     72.62334      1.523     2.98      4.79179     20.48404     125.4032        15     1.080     0.884  45.43   0
       243    652.9285    422.0716 300.2411919 +22.6948370     245.2856     72.66031      1.171     2.32     5.299706     20.48404     56.80068         8     0.801     0.632  54.60   0
       244    743.8841    419.8629 300.2702494 +22.7214406     1074.406     72.69726      1.297     2.39     5.226516     20.48404     181.1594        16     0.959     0.906  35.20   0
       245    539.7753    420.1532 300.2065733 +22.6603929     541.8248     72.62334      1.280     2.45     5.427781     20.48404       68.383         7     0.779     0.637 -34.15   0
       246    247.8688    417.8434 300.1164898 +22.5722594     643.9351     72.56786      1.382     2.84     5.030018     20.48404     81.66896        12     1.002     0.754 -52.53   0
       247    310.0534    413.5843 300.1372129 +22.5896743     3768.874     72.58636      1.395     2.61     5.157108     20.48404     448.3324        28     1.159     1.060  88.66   0
       248    257.2757    408.3385 300.1225006 +22.5723500     7708.307     72.66031      1.437     2.61     5.092407     20.48404     893.2979        42     1.271     1.137  61.88   0
       249   1022.9230    403.3346 300.3626300 +22.8002187     1611.373     60.69914      1.326     3.00     4.873182     20.48404      234.497        18     1.102     0.913  72.43  24
       250    398.0977    402.6138 300.1681662 +22.6129079     4830.615      72.4938      1.355     2.43     5.437392     20.48404     671.8893        27     1.109     1.003  72.27   0
       251    642.2953    399.3583 300.2452528 +22.6851255     18861.38     72.62334      1.295     2.34     5.274693     20.48404      2396.23        55     1.270     1.155  41.38   0
       252    659.7576    399.4604 300.2506596 +22.6903845     718.7119     72.58636      1.810     4.80     5.264763     20.48404     75.41595        15     1.491     0.740 -41.21   0
       253    270.2156    397.6570 300.1299920 +22.5731614     222.9512     72.58636      0.993     3.42     5.177623     20.48404     30.53829         5     0.750     0.450 -14.55   0
       254    839.3260    389.9674 300.3097048 +22.7414224     462.2239     72.58636      1.377     3.93     4.945159     20.48404     58.10774         9     1.031     0.666 -44.64   0
       255    262.2197    386.3732 300.1311678 +22.5675250     304.9564     72.60485      1.310     3.07     5.249716     20.48404     42.99799         6     0.705     0.643 -69.14   0
       256    975.9101    381.8885 300.3549240 +22.7799815     806.4384      72.7711      1.537     3.48     5.068218     20.48404     74.84506        15     1.068     0.943  46.75   0
       257    685.6766    380.8599 300.2647724 +22.6928006     272.0096     72.66031      1.428     4.17     5.215907     20.48404     35.03575         6     0.948     0.586 -21.88   0
       258    196.9420    379.3161 300.1131601 +22.5459333      2073.92     72.71573      1.494     2.98     5.189453     20.48404     209.6693        24     1.181     1.059   3.51   0
       259    582.9842    368.7591 300.2367112 +22.6585690     6595.516     72.62334      1.324     2.40     5.300023     20.48404     987.4065        35     1.178     1.059  71.24   0
       260    996.6502    369.1989 300.3655135 +22.7825387     1400.415     72.58636      1.647     3.03     5.151096     20.48404     145.5394        20     1.257     0.950 -89.79   0
       261    297.6768    368.1899 300.1480973 +22.5729298      701.768     72.58636      1.342     3.65     5.488528     20.48404     96.73466        12     1.051     0.871 -30.51   0
       262    843.1322    361.1439 300.3202473 +22.7342748     468.0587     72.64183      1.476     2.08     5.011383     20.48404     60.81012         6     0.724     0.530  38.03   0
       263    155.6097    361.3516 300.1061410 +22.5283865      524.978     72.62334      1.453     2.65     5.273553     20.48404     66.55807         9     0.944     0.631   6.52   0
       264      2.7253    358.9354 300.0594166 +22.4818583     1244.137     63.93119      1.554     3.53     6.178496     20.48404     127.2672        19     1.195     1.039  63.18  24
       265    696.9482    359.0810 300.2753533 +22.6899162      586.306     72.62334      1.355     2.47     5.162964     20.48404     72.97749         9     0.785     0.714  34.06   0
       266    787.0759    357.8438 300.3038430 +22.7165451     1222.197     72.58636      1.385     2.91      5.04295     20.48404     145.6107        16     1.122     0.886  44.27   0
       267    489.6211    355.0339 300.2120954 +22.6266603     6296.006     72.62334      1.328     2.36     5.415314     20.48404     887.2358        34     1.163     1.058  68.13   0
       268    881.6810    349.5139 300.3360420 +22.7424695     1409.765     72.75265      1.380     2.41     5.097721     20.48404     185.2612        19     1.055     0.956  82.13   0
       269    979.0629    349.9062 300.3662884 +22.7717269     559.2336     72.69726      1.302     3.01     5.289828     20.48404     84.74847        12     1.017     0.805   3.08   0
       270    474.3853    343.7810 300.2110045 +22.6188634     500.8788     72.58636      1.383     2.47      5.48252     20.48404       73.302         9     0.810     0.741  60.63   0
       271    556.8569    341.8232 300.2373168 +22.6430036     469.5349     72.60485      1.176     2.45     5.331638     20.48404      62.4736         6     0.843     0.450 -38.65   0
       272      1.7517    340.3164 300.0651561 +22.4762228     779.9474     58.88011      1.196     2.86     6.148475     20.48404     121.6751        14     1.160     0.700  88.51  24
       273    835.1666    340.2945 300.3245306 +22.7258957     303.3311     72.58636      1.300     3.50      5.10842     20.48404     48.80392         5     0.771     0.665 -61.12   0
       274    537.4310    339.6899 300.2319601 +22.6365724     232.6769     72.54935      1.114     2.86     5.368337     20.48404      38.9342         5     0.706     0.461 -70.26   0
       275    592.8952    339.0968 300.2494247 +22.6530134     1213.115     72.78955      0.431     1.92     5.310308     20.48404     785.8604         5     0.384     0.300 -75.34   0
       276    854.4438    337.2679 300.3315232 +22.7307957     630.2974     72.58636      1.173     2.63     5.117398     20.48404      74.5347         9     0.905     0.649 -24.57   0
       277    377.1202    334.1482 300.1838596 +22.5869573     2626.577     72.60485      1.355     2.60     5.618746     20.48404     302.3038        24     1.097     0.994  64.51   0
       278     95.7175    331.6091 300.0971775 +22.5018946     1142.276     72.54935      1.704     4.01     5.604599     20.48404     122.4187        19     1.274     1.029  59.67   0
       279    724.7139    329.4286 300.2936287 +22.6897061     228.9338     72.60485      0.976     2.68     5.259155     20.48404     40.35523         5     0.703     0.459 -20.20   0
       280    346.4998    323.6250 300.1777473 +22.5747604     29972.12     72.53084      1.399     2.37     5.655374     20.48404     4298.093        65     1.290     1.181  71.49   0
       281    881.3425    321.3643 300.3450719 +22.7342735     1433.448     72.60485      1.437     2.44     5.221405     20.48404     194.4726        21     1.111     1.058 -10.29   0
       282     42.8096    311.3314 300.0873166 +22.4802130     5051.103     72.58636      1.640     3.28     5.919814     20.48404     503.6469        38     1.371     1.268  58.10   0
       283    796.2955    310.2428 300.3221648 +22.7056195     571.9218     72.62334      1.249     3.51     5.339936     20.48404     77.69984        11     1.028     0.739  27.10   0
       284    220.7312    310.1414 300.1430048 +22.5332011     492.3695     72.62334      1.424     4.08     5.713101     20.48404     53.85116         8     1.027     0.543 -36.20   0
       285    445.1222    308.8115 300.2132435 +22.6000508     519.6854     72.58636      1.265     3.08     5.632629     20.48404     83.88034        10     0.920     0.757 -65.42   0
       286    756.9915    303.3715 300.3121436 +22.6918783     1900.495     72.60485      1.382     2.33     5.403337     20.48404     304.9866        21     1.076     0.986  64.31   0
       287    565.2112    298.2357 300.2540624 +22.6329800     388.5449     72.60485      1.348     3.53     5.494585     20.48404     48.08368         8     0.904     0.635 -10.97   0
       288    972.0529    296.5545 300.3814154 +22.7542839     575.6483     72.64183      1.263     3.16     5.756084     20.48404     89.01947        11     0.913     0.901  44.59   0
       289    826.1978    289.6105 300.3381816 +22.7086374     238.5085     72.41969      1.052     3.36     5.432022     20.48404      41.9926         5     0.752     0.435 -21.05   0
       290    418.7352    287.9943 300.2117854 +22.5861657     2214.622     72.56786      1.533     3.15     5.695563     20.48404     228.9859        24     1.282     0.950  62.61   0
       291    630.9000    286.9140 300.2781951 +22.6493964     379.4534      72.7711      1.295     2.78     5.354057     20.48404     43.98833         6     0.750     0.555  50.13   0
       292    857.8380    280.9444 300.3508585 +22.7156151     647.5287     72.60485      1.378     3.71     5.372871     20.48404     82.89622        13     1.142     0.813 -53.44   0
       293    740.5033    278.5708 300.3150519 +22.6798121     469.4815     72.53084      1.442     4.07     5.520366     20.48404     65.92918         9     1.017     0.830   2.32   0
       294    494.6711    267.2917 300.2421384 +22.6029618     1200.749     72.75265      1.322     2.50     5.691984     20.48404     179.7851        18     1.106     0.936  87.58   0
       295    302.0060    267.7924 300.1820210 +22.5453923     300.6607     72.45676      1.188     2.48     5.810747     20.48404      47.6278         5     0.768     0.459  68.48   0
       296   1006.4260    263.7047 300.4027979 +22.7551187     378.1099     72.54935      1.313     3.88     6.195926     20.48404     65.35556         9     1.227     0.748 -17.05   0
       297    739.5472    259.4613 300.3209538 +22.6740317     2297.135     72.66031      1.335     2.30     5.588378     20.48404     292.7609        20     1.010     0.956 -76.15   0
       298   1000.8450    253.8006 300.4042699 +22.7505997     3117.496     72.60485      1.467     2.84     6.141732     20.48404     374.4294        27     1.187     1.079  89.80   0
       299    547.2023    252.7538 300.2632105 +22.6145157     249.2349     72.60485      1.197     3.68     5.718563     20.48404       35.623         5     0.867     0.454 -46.27   0
       300    447.9428    243.2099 300.2354047 +22.5820466     627.1135     72.56786      1.466     2.56     5.695563     20.48404     74.03207         8     0.801     0.679 -22.54   0
       301    153.7024    237.4875 300.1457355 +22.4922503     598.7488      72.7711      1.329     3.27     5.906146     20.48404     76.90195         9     0.893     0.743  83.57   0
       302    122.6632    237.0488 300.1362297 +22.4828222     1517.216     72.66031      1.915     3.98     5.945075     20.48404     122.8367        25     1.378     1.169 -58.31   0
       303   1016.5930    234.5988 300.4154128 +22.7497867     457.5336     72.41969      1.367     3.80     6.315152     20.48404     50.78484        11     1.037     0.807   6.23   0
       304    859.9619    230.8598 300.3677694 +22.7018466     271.4986     72.62334      1.426     4.89     5.359283     20.48404     32.80244         6     1.180     0.574  19.22   0
       305    206.8298    229.6932 300.1647806 +22.5059321     277.0751     72.54935      1.307     3.54     5.993702     20.48404     49.17451        10     0.973     0.758  32.65   0
       306   1001.9542    227.1307 300.4132679 +22.7432587     248.5387     72.58636      1.301     3.15     6.152571     20.48404     39.34493         6     0.904     0.451  33.84   0
       307     62.7586    226.5345 300.1210233 +22.4618492     224.3169     72.58636      1.215     2.14     5.966235     20.48404     51.77604         5     0.675     0.497   5.54   0
       308    882.7935    223.6469 300.3772288 +22.7066041     428.2061     72.62334      1.874     3.45     5.362014     20.48404     41.92732         5     1.130     0.305 -35.83   0
       309    811.0493    220.7716 300.3557918 +22.6843074     629.1966     72.62334      1.327     2.67      5.32619     20.48404     91.46181        10     0.942     0.671  63.60   0
       310    401.5200    220.5524 300.2283062 +22.5616319     429.9586     72.62334      1.123     2.53     5.725111     20.48404     65.94621         8     0.773     0.731 -28.82   0
       311    902.0710    214.1705 300.3863145 +22.7096466     268.5947     72.60485      1.169     3.66     5.368732     20.48404     44.59992         7     0.954     0.613  -2.75   0
       312    909.3057    209.9971 300.3899246 +22.7106108     2125.136     72.51233      1.401     2.52     5.371419     20.48404     270.8736        23     1.132     1.010  72.78   0
       313    327.8673    207.1259 300.2097444 +22.5357125     2098.547     72.67879      1.350     2.31     5.878832     20.48404     297.8009        24     1.140     1.031  69.69   0
       314    405.7191    202.2081 300.2355628 +22.5576186     1162.585     72.54935      1.612     3.36     5.749838     20.48404     115.3149        17     1.211     0.880 -17.77   0
       315    807.7446    201.4460 300.3610301 +22.6777605     579.4476     72.64183      1.450     3.83     5.325558     20.48404     76.77191        10     1.036     0.816 -32.52   0
       316    157.3567    202.3784 300.1582588 +22.4832628     338.0711     72.66031      1.489     4.76     6.007196     20.48404     43.73927         6     1.118     0.599  26.19   0
       317    914.4489    198.5896 300.3952287 +22.7088681     400.6479     72.62334      1.216     4.74     5.378809     20.48404     46.45404         8     1.161     0.589  33.53   0
       318    452.8256    198.7142 300.2513571 +22.5707226     191.6198     72.56786      1.209     5.10     5.731757     20.48404     32.76406         5     0.990     0.744  81.90   0
       319    222.5040    194.1826 300.1811717 +22.5004291     869.5205     72.51233      1.482     2.96     6.016388     20.48404     106.6727        14     0.977     0.885  46.36   0
       320    760.4624    191.2436 300.3496007 +22.6606760     1529.071     72.60485      1.290     2.43     5.650404     20.48404     215.0548        20     1.129     0.882 -85.31   0
       321    340.2779    193.6899 300.2179630 +22.5355698      224.028     72.73419      0.992     2.94     5.897873     20.48404     43.56606         5     0.739     0.442 -13.43   0
       322    825.0531    191.1178 300.3697760 +22.6799697     601.2423     72.64183      1.238     2.98     5.343558     20.48404     95.43148         8     0.866     0.674  58.20   0
       323    333.5561    191.5881 300.2165534 +22.5329525     1999.665     72.60485      0.821     2.82     5.902421     20.48404     931.7997         6     0.727     0.323 -42.06   0
       324    191.8098    189.8536 300.1730318 +22.4899892      262.255     72.60485      1.201     3.59      6.01683     20.48404     42.28304         5     1.239     0.300  59.99   0
       325    243.7125    187.5124 300.1899300 +22.5048673      627.962      72.7711      1.462     4.08     5.980305     20.48404     74.10079        10     1.085     0.730   1.12   0
       326    486.8443    187.3588 300.2656295 +22.5776465     145.3423     72.67879      1.028     2.20     5.749482     20.48404     47.75077         5     0.725     0.424 -22.43   0
       327    533.8858    183.6649 300.2814735 +22.5906706     242.9921     72.69726      1.107     3.08     5.727693     20.48404     45.62209         7     0.744     0.649  14.51   0
       328    764.4276    182.5811 300.3536460 +22.6593715     805.0591     72.60485      1.463     2.90     5.633738     20.48404     107.5539        13     0.984     0.823  45.99   0
       329    684.7918    182.0754 300.3289928 +22.6353909      1396.25     72.58636      1.331     2.49     5.541853     20.48404     187.9066        15     0.958     0.824 -81.55   0
       330    345.1367    180.6512 300.2237032 +22.5332790     749.8672     72.66031      0.672     1.48     5.933899     20.48404     363.8566         5     0.568     0.343 -88.79   0
       331    506.3303    178.1498 300.2746825 +22.5808346     412.5274     72.60485      1.425     2.24     5.743782     20.48404     55.07227         5     0.729     0.426  70.23   0
       332    880.4363    173.6864 300.3926982 +22.6915277     1517.854     72.58636      1.443     2.50     5.395604     20.48404     180.7243        17     1.017     0.917 -79.51   0
       333    611.2361    173.7314 300.3087841 +22.6109732     905.2686     72.60485      1.273     2.36     5.932774     20.48404     135.1053        14     0.913     0.848  68.18   0
       334    892.4174    172.6481 300.3967713 +22.6948138     946.7742     72.64183      1.495     3.09     5.396276     20.48404     112.5439        16     1.152     0.868  77.73   0
       335    939.4868    171.3682 300.4118670 +22.7085278     283.9424     72.56786      1.475     5.44     5.498913     20.48404     39.02312         7     1.238     0.675 -71.47   0
       336   1009.2087    163.0527 300.4363150 +22.7269918     1033.679     72.60485      1.431     3.48     6.204933     20.48404      124.138        15     1.102     0.932  54.82   0
       337     32.8916    159.5805 300.1334561 +22.4336735     444.5872     72.53084      1.464     3.83     6.086023     20.48404     49.80326         9     1.065     0.736 -16.64   0
       338    243.3540    155.9988 300.2000377 +22.4957072     758.3537     72.60485      1.432     2.80     5.970614     20.48404     92.64063        13     1.032     0.787  11.64   0
       339    105.0881    150.4266 300.1588591 +22.4526804     2159.881     72.56786      1.589     2.85     6.055758     20.48404     225.6539        27     1.236     1.165  46.05   0
       340    928.2562    147.7977 300.4160078 +22.6983866     848.4002     72.56786      1.390     2.94     5.409683     20.48404     123.4738        14     1.149     0.877  40.41   0
       341     54.6348    147.4854 300.1441338 +22.4367166      379.127     72.56786      1.523     3.33     6.078767     20.48404     58.27553        10     0.952     0.765  -2.78   0
       342    262.4521    143.8569 300.2099142 +22.4979401     5434.256     72.66031      1.454     2.61     5.922297     20.48404     747.2676        36     1.244     1.129  60.69   0
       343    244.5564    144.2383 300.2042250 +22.4926888      350.984     72.69726      1.626     3.50     5.962339     20.48404     32.82211         5     0.762     0.464 -72.86   0
       344     46.5131    138.1083 300.1446505 +22.4315900       1309.5      72.7711      1.660     3.57     6.084906     20.48404      136.596        21     1.326     1.003  69.82   0
       345      8.5963    139.6697 300.1323638 +22.4206750     289.3361     72.54935      1.758     3.63     6.097294     20.48404     38.65219         5     0.959     0.413  15.10   0
       346    246.0193    134.6493 300.2077890 +22.4903723     569.2385     72.60485      1.427     3.03     5.957485     20.48404     73.22466         9     0.947     0.700 -57.24   0
       347    906.6199    125.6834 300.4164304 +22.6855515     3510.065     72.54935      1.438     2.39      5.41873     20.48404     476.9482        29     1.186     1.062  61.65   0
       348   1010.2783    124.4773 300.4491579 +22.7162111     2575.703     72.71573      1.481     2.69     6.210132     20.48404      329.711        26     1.175     1.097  31.48   0
       349    209.2932    121.6012 300.2005990 +22.4756219      377.145     72.51233      1.336     2.71     6.005999     20.48404     46.63419         6     0.817     0.495  44.97   0
       350    455.9476    120.7010 300.2776266 +22.5492362      581.174     72.69726      1.416     3.83     5.657061     20.48404     84.32489        12     1.104     0.854 -42.90   0
       351    380.1202    112.7204 300.2566149 +22.5242362     873.6639     72.73419      2.540     3.37     5.705791     20.48404     68.48351         9     0.906     0.720 -30.05   2
       352    146.2572    109.9637 300.1847742 +22.4533942     686.3694     72.60485      1.401     3.75     6.034969     20.48404     97.26698        11     1.135     0.669 -36.75   0
       353    507.3209    108.0377 300.2977251 +22.5609776     1766.343     72.56786      1.330     2.50     5.726587     20.48404      217.003        19     1.049     0.930  32.38   0
       354    435.3720    108.5482 300.2751623 +22.5395822      561.012     72.62334      1.673     3.20     5.550506     20.48404     65.57768         9     0.894     0.810  43.03   0
       355     44.4323    108.8164 300.1535005 +22.4225547     221.3857     72.58636      1.299     3.42     6.093847     20.48404     31.78833         5     0.736     0.460 -71.41   0
       356    569.0195    107.4586 300.3171249 +22.5792818     289.3288     72.58636      1.173     2.51     5.832992     20.48404     44.86282         6     0.754     0.498  -1.61   0
       357    251.2094    103.6255 300.2194613 +22.4830138     406.5117     72.60485      1.391     3.34     5.938392     20.48404     55.00986         7     0.889     0.613  71.48   0
       358    796.2385     97.3148 300.3912105 +22.6443662     399.8267     72.58636      1.379     4.15     5.426073     20.48404     53.16078         7     0.956     0.616 -41.44   0
       359    942.0204     91.9232 300.4384180 +22.6864271     386.4845     72.60485      1.601     3.25      5.59993     20.48404      42.7935         6     0.761     0.558 -34.76   0
       360    281.4864     87.7488 300.2340249 +22.4875207     6147.361     72.62334      1.495     2.64     5.891642     20.48404     749.3026        36     1.294     1.114  67.47   0
       361    132.5825     87.3142 300.1878659 +22.4427913     790.2923     72.54935      1.601     3.23     6.074424     20.48404     87.43424        12     0.992     0.847 -32.99   0
       362    910.6168     85.2645 300.4307816 +22.6751176     358.9466     72.58636      1.496     4.17      5.56283     20.48404     42.67882         6     0.761     0.654  51.69   0
       363    253.4575     82.0263 300.2271624 +22.4774813      293.177     72.60485      1.268     2.87     5.948792     20.48404     49.01905         7     0.836     0.661  21.63   0
       364    296.9807     78.9585 300.2416938 +22.4896354      543.054     72.62334      1.491     3.94      5.86992     20.48404     68.46355         9     0.983     0.788  18.77   0
       365     43.4326     77.9116 300.1632080 +22.4133797     320.6974     72.56786      1.430     4.45      6.10129     20.48404     47.31313         8     1.112     0.562 -52.87   0
       366    527.5728     73.2000 300.3153245 +22.5570250     6247.086     72.54935      1.369     2.40     5.733611     20.48404      746.515        33     1.222     1.036  71.26   0
       367    413.1393     72.9250 300.2797911 +22.5226860      729.041     72.66031      1.513     3.06     5.409722     20.48404     88.65324        12     0.946     0.830 -38.86   0
       368    779.8140     63.6667 300.3969987 +22.6297726     963.8755     72.56786      1.979     5.42     5.592004     20.48404     105.1729        18     1.989     0.786 -72.47   0
       369    548.1998     67.4250 300.3236195 +22.5615392     262.9955     72.54935      1.170     3.08     5.790832     20.48404     41.46179         5     0.718     0.478  13.68   0
       370    721.4791     64.0275 300.3787003 +22.6124219     223.3115     72.62334      1.232     4.15     5.703283     20.48404      41.7057         5     1.138     0.431  76.13   0
       371    872.9404     61.8029 300.4266374 +22.6570966     444.5199     72.58636      1.347     2.91     5.816167     20.48404     56.70078        10     0.905     0.732 -55.22   0
       372    895.9072     57.6051 300.4351605 +22.6627588     234.8857      72.4938      1.453     3.87     5.860226     20.48404     29.28896         5     0.880     0.488   2.37   0
       373    220.8329     57.3232 300.2250241 +22.4606117     428.7104     72.60485      1.333     2.44     6.010827     20.48404      53.3649         7     0.728     0.627 -17.73   0
       374    578.9250     55.7823 300.3369619 +22.5673883     505.5403     72.60485      1.507     2.42     5.815839     20.48404      61.5708         7     0.816     0.565 -17.63   0
       375    655.9222     53.2672 300.3617613 +22.5897093      6373.05     72.71573      1.389     2.54     5.783737     20.48404     871.7263        34     1.246     1.052  82.64   0
       376    430.8490     52.2275 300.2920118 +22.5220390     1508.611     72.62334      1.316     2.53     5.395053     20.48404     185.9581        18     1.057     0.903 -81.51   0
       377    696.9836     50.7515 300.3753704 +22.6012734     882.8826     72.64183      1.357     2.59     5.734392     20.48404     126.0548        12     0.919     0.796  59.85   0
       378    767.0038     48.6802 300.3978635 +22.6216287     510.7438     72.51233      2.306     4.45     5.649941     20.48404      34.5638         6     0.911     0.619 -41.59   0
       379    712.5728     46.5233 300.3815987 +22.6047220     695.0115     72.60485      1.804     4.54     5.713653     20.48404     95.45948        10     1.330     0.705  35.46   0
       380    983.0333     44.4468 300.4666028 +22.6850305     571.9962     72.64183      1.634     4.74     6.073052     20.48404     58.11901        12     1.272     0.845 -22.88   0
       381    179.7835     44.5933 300.2163865 +22.4446585     482.2314     72.53084      1.271     2.69     6.115811     20.48404     75.45203        10     0.969     0.689 -79.83   0
       382     27.0186     44.8334 300.1688293 +22.3989613     316.9739     72.58636      1.429     4.93     6.087812     20.48404     42.75314         7     1.009     0.682 -86.19   0
       383    751.3553     42.1468 300.3951038 +22.6150673     481.3923     72.62334      1.174     2.74     5.673985     20.48404      67.0053         6     0.832     0.480  53.47   0
       384    700.1288     38.2095 300.3804157 +22.5986071     2756.843     72.58636      1.380     2.54     5.730503     20.48404     375.1005        26     1.167     1.009  76.68   0
       385    340.6317     39.0526 300.2682080 +22.4912392     487.5103     72.62334      1.706     4.58     5.560802     20.48404     58.98832         9     1.140     0.663  62.10   0
       386    715.1989     37.1716 300.3854482 +22.6028178     896.5637     72.56786      1.806     3.84      5.71106     20.48404     113.1676        16     1.396     0.921  70.94   0
       387    786.4694     29.6875 300.4100872 +22.6219886     1653.632     72.75265      1.477     2.79     5.692528     20.48404      228.558        19     1.215     0.880  73.59   0
       388    530.2338     22.4731 300.3325950 +22.5432364      1205.38     72.60485      1.505     2.66     5.693586     20.48404     134.5106        15     1.042     0.798 -59.95   0
       389    724.6225     22.9955 300.3929795 +22.6015597     853.1104     72.56786      1.369     2.56     5.698098     20.48404     109.3658        10     0.936     0.661  57.16   0
       390    103.2709     21.9787 300.1999315 +22.4152418     588.6863     72.62334      1.692     4.52     6.213909     20.48404     62.97471        12     1.206     0.806  71.22   0
       391    433.9320     20.5100 300.3032512 +22.5138442     851.3713     72.75265      1.425     3.21     5.338419     20.48404     94.45796        14     1.093     0.829  62.03   0
       392    816.5618     19.3852 300.4228073 +22.6280268     344.6736     72.62334      1.111     2.43         5.88     20.48404     66.95918         5     0.699     0.458 -18.30   0
       393    329.2697   1018.8926 299.9464512 +22.7691343     847.8245     72.73419      1.865     5.35     13.25277     20.48404     70.71397        22     1.326     1.246 -14.79  16
       394    164.3334   1014.0153 299.8967544 +22.7182364     1183.006     72.58636      2.634     7.50     96.11219     20.48404      52.5269        15     1.797     0.986   3.26  18
       395    205.7315   1004.5934 299.9126889 +22.7279608     2835.518     72.56786      4.977    26.05     80.62017     20.48404     70.05547       166     5.935     3.174  30.20  19
       396    206.6991   1014.6617 299.9097133 +22.7311377     374.8317     72.67879      3.336     4.91     88.53592     20.48404      42.5259         5     1.345     0.508  63.06   1
       397    521.0161   1007.8457 300.0097133 +22.8234907     212.6006     72.62334      1.505     4.97     3.749321     20.48404     31.41604         6     0.990     0.707 -51.96   0
       398    389.9567   1004.7029 299.9699478 +22.7832737     498.8194     72.60485      1.738     4.96     4.263919     20.48404     42.60846         9     1.117     0.721  72.72   2
