#   1 NUMBER                 Running object number                                     
#   2 X_IMAGE                Object position along x                                    [pixel]
#   3 Y_IMAGE                Object position along y                                    [pixel]
#   4 ALPHA_J2000            Right ascension of barycenter (J2000)                      [deg]
#   5 DELTA_J2000            Declination of barycenter (J2000)                          [deg]
#   6 FLUX_APER              Flux vector within fixed circular aperture(s)              [count]
#   7 FLUXERR_APER           RMS error vector for aperture flux(es)                     [count]
#   8 FLUX_RADIUS            Fraction-of-light radii                                    [pixel]
#   9 FWHM_IMAGE             FWHM assuming a gaussian core                              [pixel]
#  10 BACKGROUND             Background at centroid position                            [count]
#  11 THRESHOLD              Detection threshold above background                       [count]
#  12 FLUX_MAX               Peak flux above background                                 [count]
#  13 ISOAREA_IMAGE          Isophotal area above Analysis threshold                    [pixel**2]
#  14 A_IMAGE                Profile RMS along major axis                               [pixel]
#  15 B_IMAGE                Profile RMS along minor axis                               [pixel]
#  16 THETA_IMAGE            Position angle (CCW/x)                                     [deg]
#  17 FLAGS                  Extraction flags                                          
         1    478.1658     16.5183 300.3326214 +22.5432089     1079.066     72.30849      1.493     3.35     7.061236     20.41082     115.1065        16     1.096     1.009  46.65   0
         2     51.1528     16.1368 300.1998452 +22.4152569     584.0409     72.36378      2.141     5.12     7.179918     20.41082     45.31914        11     1.230     0.937 -28.47   0
         3    381.9694     14.5084 300.3033117 +22.5138402     825.0148     72.29005      1.567     3.92     6.706741     20.41082     105.4778        15     1.177     1.092 -76.97   0
         4   1023.5554     11.7489 300.5042674 +22.7049589     845.8102     57.03355      1.422     3.79     8.350662     20.41082      136.537        14     1.375     0.620  87.75  24
         5    153.2829      4.3613 300.2354235 +22.4424582     3871.798     69.98502      1.880     3.46     6.816796     20.41082     363.7056        40     1.472     1.378  53.65  24
         6    721.4842      5.4496 300.4120460 +22.6128210     524.0881     72.32692      1.531     3.01      6.89088     20.41082     51.54719        11     0.936     0.785  10.34  16
         7    479.6327      1.7820 300.3378524 +22.5394088     168.4925     58.80584      1.054     4.16     7.166837     20.41082     29.39885         5     0.919     0.538 -37.54  24
         8    182.3101    987.2090 299.9254125 +22.7333796     4141.462     72.27161      8.024    23.63     67.75211     20.41082     141.3374       280     4.819     4.778 -18.21   3
         9     68.2642   1010.6531 299.8823206 +22.7058791     5489.842     72.38219     15.577    71.88     74.55713     20.41082     171.8629      1853    15.472    10.628  38.91  27
        10     60.9282    954.7598 299.8982196 +22.6876495     5716.891     72.32692     23.716   110.49     36.69923     20.41082     457.2451      3766    21.260    15.934 -28.37  19
        11    145.7103    968.1605 299.9202244 +22.7169341     1164.442     72.34535     13.481    11.72     55.34812     20.41082      51.4271        24     2.746     1.394  54.36   3
        12    148.8155    975.5612 299.9187831 +22.7199885     1942.655     72.36378      4.724    12.01     62.54374     20.41082     53.62902        29     2.479     1.619 -64.95   2
        13     58.7478    917.5748 299.9096342 +22.6763309      3590.25     72.36378     12.608    47.07     19.25708     20.41082     89.37224       713    10.047     6.120 -42.07  19
        14    219.6286    973.8445 299.9413687 +22.7407428     7335.618     72.38219      7.737    30.27     48.47536     20.41082      152.786       688    10.038     4.877  62.64  18
        15    154.2412    998.9600 299.9128596 +22.7283276     2837.392     72.43742      6.509    29.29     83.31711     20.41082     59.01955       188     5.437     4.379  52.38  18
        16    909.3276    972.5172 300.1566998 +22.9471398     394.5863     72.47423      1.741     4.66     5.216393     20.41082     34.81565         7     0.912     0.676  75.63   2
        17    906.3650    971.3456 300.1561564 +22.9459157     471.6006     72.36378      1.556     4.31     5.218701     20.41082     38.50089         7     1.044     0.507 -41.47   2
        18    527.0000    993.0355 300.0308175 +22.8384401     1163.501     72.29005      1.688     6.01     5.281939     20.41082     100.7845        15     1.725     0.815  85.30   3
        19    715.9465    988.9597 300.0910307 +22.8939135     653.5079     72.30849      2.262     7.16     5.125518     20.41082       39.328        13     1.399     1.071   1.76   0
        20    672.0763   1005.7372 300.0718956 +22.8855812     1715.609     72.40061      0.574     0.85     5.009348     20.41082     1084.048         8     0.517     0.387 -82.43   0
        21    126.5638    956.1384 299.9181800 +22.7077408     1959.159     72.36378     11.078    16.28       44.774     20.41082     52.13528        64     3.152     2.338 -16.33   3
        22    633.3589    954.6311 300.0764519 +22.8593012     6827.509     72.36378      2.104     4.87     5.385145     20.41082     359.0079        52     1.674     1.533  46.34   0
        23    513.8121    949.9612 300.0407202 +22.8221213     478.7381     72.34535      1.977     4.66     5.281939     20.41082     33.05246         7     0.873     0.706  38.96   0
        24    616.0000    988.0508 300.0601708 +22.8636929     9859.117     72.29005      2.588     6.76     5.272964     20.41082     440.0797        54     1.966     1.661  32.35   3
        25    142.9735    947.1512 299.9262062 +22.7100868      1033.01     72.36378      6.212     7.81     36.46107     20.41082     37.91288        12     1.777     0.961  32.22   0
        26    541.9001    945.3292 300.0509772 +22.8292128     1507.483     72.47423      2.010     5.04     5.281939     20.41082     91.49059        28     1.523     1.259 -10.83   0
        27    435.7360    941.8624 300.0190364 +22.7963857     998.6624     72.38219      1.982     5.89       5.4211     20.41082     52.41912        23     1.421     1.277 -17.84   0
        28    366.2585    939.6529 299.9981223 +22.7749160     6648.907     72.40061      2.105     4.82     5.665014     20.41082     388.1449        52     1.603     1.594 -72.25   0
        29    621.5711    985.3348 300.0627906 +22.8645832     9194.852     72.36378      2.294     8.15      5.27187     20.41082     455.3125        54     1.857     1.635  18.10   3
        30    212.2478   1001.0723 299.9302160 +22.7463387     1217.723     72.32692      2.538     9.96     72.79803     20.41082     53.85913        29     1.946     1.542  56.20   1
        31    912.6939    918.8836 300.1751955 +22.9327386     2283.328     72.52939      2.224     5.64     5.413957     20.41082     109.8127        38     1.754     1.409  -7.34   0
        32    199.7690    986.0449 299.9312221 +22.7382841     4729.533     72.40061      9.277    31.03     62.87106     20.41082      92.6972       446     7.316     5.059 -57.19  19
        33    100.9619    913.0472 299.9242317 +22.6876993     761.0359     72.38219      2.429     3.61      18.7859     20.41082     37.66761         5     1.051     0.358 -54.03   1
        34    701.9214    907.7079 300.1130857 +22.8663757     760.6901     72.49261      2.150     6.64     5.586646     20.41082     46.76231        14     1.421     0.870  60.59   0
        35    736.4679    901.8813 300.1257520 +22.8750548     1064.306     72.45583      2.058     5.72     5.329673     20.41082      57.6281        27     1.615     1.254 -10.92   0
        36    337.1956    999.4952 299.9696108 +22.7833707     650.1164     72.25315      3.229     5.96     5.782382     20.41082       38.285         8     1.135     0.882 -20.38   0
        37    196.3748    899.1022 299.9584413 +22.7123244     710.8209     72.29005      4.546     4.82     11.82655     20.41082      31.4985         5     1.368     0.482  87.91   0
        38    758.5319    895.4633 300.1347196 +22.8798228     11308.04     72.40061      2.011     4.44     5.353999     20.41082     639.8202        54     1.587     1.527 -23.60   0
        39    804.3864    895.5812 300.1489826 +22.8935959     511.7013     72.30849      2.065     6.49     5.324067     20.41082     30.73899         8     1.506     0.785  37.53   0
        40    105.1883    895.5313 299.9312414 +22.6839431     702.0616     72.36378      3.116     3.74     16.14825     20.41082     31.36097         5     1.058     0.380  84.78   0
        41    529.4719    992.5051 300.0317601 +22.8390291     1714.108     72.45583      1.779     4.71     5.281939     20.41082     126.0101        22     1.512     0.953  80.29   3
        42     70.6709    886.6083 299.9234099 +22.6710270     798.6282     72.32692      2.614     5.07     13.99875     20.41082     53.53733        13     1.519     0.711  68.56   0
        43    810.0665    883.4318 300.1547052 +22.8918074     444.3579     72.34535      1.874     6.84     5.386023     20.41082       35.045         9     1.227     1.070 -14.65   0
        44    464.1434    883.3690 300.0469050 +22.7881129     428.6014     72.36378      1.653     4.97     5.383108     20.41082     41.14725         7     1.133     0.617  59.45   0
        45    767.0491    877.5666 300.1431954 +22.8772338     1529.199     72.38219      2.019     5.14     5.445998     20.41082      89.0567        26     1.365     1.291 -71.23   0
        46    619.5291    874.2647 300.0982771 +22.8320780     545.4708     72.38219      2.838     6.08     5.555172     20.41082     31.02343         8     1.377     0.756 -14.80   0
        47    805.0037    871.1226 300.1571285 +22.8867542     924.6192     72.25315      2.384     7.21     5.443213     20.41082     47.25921        22     1.497     1.273  -9.56   0
        48    914.4347    868.5805 300.1920970 +22.9188054     347.1397     72.36378      1.600     3.48     5.520772     20.41082     32.80637         5     1.171     0.299  69.55   0
        49    853.3335    862.5947 300.1749780 +22.8987827      637.139     72.34535      1.990     6.32     5.473705     20.41082     41.82161        11     1.147     0.977 -78.14   0
        50    704.9175    861.4003 300.1290776 +22.8539728     763.6261     72.21624      1.973     5.68     5.690993     20.41082     48.76207        17     1.318     1.072  48.78   0
        51    417.4919    857.4598 300.0408006 +22.7666880     4170.295     72.41902      1.896     4.18     5.419696     20.41082     280.4577        39     1.501     1.379 -21.47   0
        52    716.3306    858.6658 300.1335252 +22.8566072      554.873     72.40061      1.658     5.48     5.642688     20.41082     44.40643        12     1.142     0.803  -5.60   0
        53    143.4408    842.8463 299.9602659 +22.6803052     647.4748     72.40061      1.788     4.45     9.318254     20.41082     52.35375         7     0.995     0.567  68.75   0
        54    120.1132    839.9175 299.9539631 +22.6724670     1375.966     72.45583      1.904     4.58     9.386637     20.41082     123.1262        28     1.543     1.269 -38.87   0
        55     52.0008    840.5563 299.9325768 +22.6522157     323.5483     72.34535      1.610     4.21     8.044349     20.41082     33.04673         6     1.293     0.391  73.66   0
        56    991.8297    829.5998 300.2289279 +22.9307814     2135.062     72.30849      2.197     5.57     5.659308     20.41082     105.0896        38     1.681     1.507 -46.13   0
        57    945.8997    827.9714 300.2151204 +22.9165587     2259.934     72.25315      2.020     4.96      5.62491     20.41082     117.4441        34     1.467     1.437 -28.78   0
        58    651.4031    828.9396 300.1229481 +22.8286127     546.5439     72.32692      2.214     6.01     5.631118     20.41082     32.37301         8     1.486     0.683  -6.74   0
        59    729.1566    821.6011 300.1495746 +22.8498028     569.2545     72.34535      1.730     6.55     5.555576     20.41082     49.14689        16     1.305     1.068 -78.56   0
        60    152.4774    821.9214 299.9698784 +22.6770123     473.5829     72.45583      1.898     4.13     7.873826     20.41082      38.6167         5     0.764     0.638 -13.84   0
        61    597.5110    815.5698 300.1104974 +22.8086223     4742.432     72.32692      1.862     4.10     5.546353     20.41082     362.7992        41     1.429     1.416   6.39   0
        62    400.5044    812.8591 300.0500100 +22.7487912     507.1726     72.41902      1.380     3.69     5.445683     20.41082     57.19688         7     0.930     0.457  75.55   0
        63    147.7854    809.2027 299.9725531 +22.6719556     1223.978     72.17931      1.913     4.70     7.058746     20.41082     95.39648        24     1.449     1.285  13.74   0
        64    618.2961    808.2756 300.1193463 +22.8127562     802.9846     72.49261      1.901     5.98     5.540048     20.41082     56.53765        20     1.518     1.047 -56.66   0
        65    535.1566    799.0179 300.0964483 +22.7851808     288.2336     72.36378      1.649     4.76      5.63672     20.41082     29.63891         5     0.975     0.659 -57.89   0
        66    990.6333    795.7855 300.2395470 +22.9207031      1086.09     72.32692      2.040     5.50     5.661559     20.41082     61.89343        24     1.417     1.250  14.03   0
        67    773.6514    795.4215 300.1719605 +22.8556115     4172.375     72.34535      1.910     4.15     5.503108     20.41082     286.5927        41     1.471     1.415 -29.01   0
        68    182.0989    789.6697 299.9895748 +22.6766427     427.3346     72.47423      1.567     6.87     6.307432     20.41082     41.91952        11     1.423     0.929  32.05   0
        69    490.6736    788.1378 300.0861271 +22.7687235      620.819     72.38219      1.779     6.23     5.486297     20.41082     41.82961        14     1.331     0.820 -17.74   0
        70    137.0268    785.8066 299.9768111 +22.6620154     1027.576     72.34535      2.061     4.96     6.348713     20.41082     83.67433        21     1.494     1.227  -4.59   0
        71    286.6544    777.7323 300.0259864 +22.7045718      53485.7     72.38219      1.895     3.81     5.417371     20.41082     3855.723       106     1.636     1.605   8.88   0
        72    552.7288    781.0300 300.1077698 +22.7852814     495.1674     72.34535      1.584     4.67     5.733931     20.41082     41.79486        11     1.150     0.683 -15.64   0
        73    958.5002    777.5225 300.2354529 +22.9058312     648.2786     72.49261      1.823     3.66     5.717098     20.41082     54.22499         9     0.934     0.798 -34.08   3
        74    956.4972    775.5199 300.2354786 +22.9046558      607.929     72.47423      1.703     4.12     5.727182     20.41082     50.13123         7     1.368     0.354 -74.53   2
        75    544.5260    776.8624 300.1065686 +22.7816261     1648.706     72.38219      1.775     3.79      5.78038     20.41082     122.5999        25     1.274     1.175  24.33   0
        76    216.0642    775.8389 300.0046363 +22.6828601     374.2897     72.32692      1.782     4.82     6.020172     20.41082     36.11324         7     1.022     0.645  88.29   0
        77    573.5447    773.0084 300.1168631 +22.7892158     915.6939     72.34535      1.846     5.76     5.686334     20.41082     67.88081        17     1.239     1.180 -33.98   0
        78    584.2781    771.0691 300.1208381 +22.7918753        576.5     72.45583      1.629     4.80     5.651794     20.41082       55.917        14     1.083     0.961  81.56   0
        79    689.6170    767.9130 300.1546976 +22.8225322     301.9893     72.29005      1.721     5.08     5.562372     20.41082     36.34212         7     1.148     0.636   4.72   0
        80    727.4869    757.8976 300.1697603 +22.8310002       855.41       72.511      1.959     5.87     5.554994     20.41082     66.49428        18     1.435     1.040  70.47   0
        81    336.4213    755.0115 300.0488603 +22.7129713     31746.64     72.32692      1.851     3.73     5.378981     20.41082     2440.985        83     1.565     1.533 -32.29   0
        82    350.6482    755.6466 300.0530827 +22.7174189     1962.688     72.36378      1.905     4.04     5.403719     20.41082     145.3977        29     1.388     1.217 -49.62   0
        83    859.5844    751.1952 300.2131412 +22.8686417     2918.965     72.25315      1.914     4.26     5.835231     20.41082     182.5468        36     1.453     1.383 -59.71   0
        84    347.6683    749.2832 300.0542229 +22.7146987     648.4066     72.45583      2.086     3.69     5.392818     20.41082      62.9954        11     1.179     0.856  50.73   1
        85    617.6097    747.1229 300.1390081 +22.7949848     898.0588     72.30849      1.696     3.49     5.566895     20.41082     87.79962        17     1.154     0.980  40.53   0
        86    453.8738    746.9625 300.0880468 +22.7458694     498.8215     72.29005      2.363     5.92     5.451177     20.41082     34.10296        10     1.143     0.863 -23.51   0
        87    219.4785    746.7996 300.0151355 +22.6755496      802.923     72.21624      2.020     4.98     5.587935     20.41082     55.06864        14     1.250     0.954 -51.97   0
        88    464.6021    742.0048 300.0929993 +22.7476613     892.8271     72.16084      1.570     3.27     5.457957     20.41082     88.06014        16     1.088     0.946 -24.03   0
        89     24.9202    742.3236 299.9560836 +22.6159111     324.2049     72.45583      1.420     4.72     6.136174     20.41082     39.06535         8     0.999     0.633 -61.55   0
        90    865.7361    739.2023 300.2189582 +22.8670371      520.703     72.36378      1.859     6.39     5.935358     20.41082     35.93841        12     1.275     0.899  52.43   0
        91    613.1610    740.2387 300.1398588 +22.7916742      336.605     72.41902      1.794     3.39     5.570812     20.41082     31.27905         5     0.961     0.345 -43.42   0
        92    366.4062    738.3441 300.0636111 +22.7171755     399.5493     72.32692      1.813     5.29     5.403561     20.41082     28.26051         6     1.345     0.587 -21.36   0
        93    322.7286    736.8512 300.0504994 +22.7036526     383.9216     72.34535      1.810     7.08     5.317805     20.41082     48.77822         8     1.553     0.915 -80.70   0
        94    410.6081    737.3512 300.0776964 +22.7301408     397.3653     72.34535      1.728     2.99     5.431184     20.41082     51.42742         5     0.928     0.474  -3.90   0
        95     52.8237    736.0233 299.9668054 +22.6224739     530.7696     72.30849      1.467     4.22     6.140097     20.41082     56.74446         6     1.074     0.474 -65.07   0
        96    216.7617    731.0508 300.0194077 +22.6702147     475.6794     72.34535      1.677     6.55     5.449185     20.41082      38.7716        12     1.343     0.897 -28.62   0
        97    249.6137    724.9761 300.0316033 +22.6783219     248.4943     72.34535      1.549     4.53     5.361863     20.41082     30.66921         5     1.011     0.577 -17.08   0
        98    509.4904    720.2319 300.1140568 +22.7548615     576.7744     72.29005      1.677     4.58     5.793263     20.41082     68.24902        14     1.201     0.943 -35.13   0
        99    539.7779    721.3685 300.1231234 +22.7642644      397.666     72.34535      1.522     3.46     5.969573     20.41082     48.79195         5     1.258     0.275  35.03   0
       100    925.9491    716.5734 300.2451014 +22.8785633     4600.833     72.36378      1.896     4.05     6.025218     20.41082     288.5972        45     1.479     1.468 -21.61   0
       101    419.6413    719.1837 300.0864126 +22.7276316      354.087     72.36378      1.651     4.24     5.589148     20.41082     33.27455         5     1.069     0.480 -32.44   0
       102    531.4557    717.3339 300.1218415 +22.7606116     1397.152     72.40061      1.710     3.91     5.929929     20.41082     127.4577        22     1.293     1.102  48.73   0
       103    449.8362    716.6272 300.0966467 +22.7359478     282.0278     72.34535      1.773     3.35     5.633076     20.41082     39.79677         5     1.112     0.292 -55.59   0
       104    914.4717    707.9965 300.2443065 +22.8726610     1824.024     72.29005      1.905     4.15     6.037419     20.41082     120.6779        28     1.339     1.263 -23.20   0
       105    277.5129    701.6061 300.0478784 +22.6799781     965.0116     72.25315      1.864     4.31     5.295643     20.41082     94.50118        19     1.331     0.980 -39.22   0
       106    143.0267    702.2857 300.0058166 +22.6398472     359.3066     72.34535      1.727     3.88     5.908706     20.41082      30.7598         5     1.019     0.498 -36.04   0
       107    740.9502    699.2297 300.1930233 +22.8181749     2552.719     72.36378      1.860     3.84     5.729936     20.41082     182.1222        32     1.460     1.257   7.64   0
       108    945.4513    698.1378 300.2571787 +22.8791025     1579.012     72.40061      1.834     4.34     6.066229     20.41082     99.87518        27     1.373     1.250  -1.98   0
       109    980.1636    693.9191 300.2693847 +22.8882822     1565.072     72.30849      0.511     2.27     6.009808     20.41082     1101.232         7     0.405     0.387 -11.11   0
       110    823.4716    685.2772 300.2232949 +22.8388802     635.2933     72.45583      2.193     5.14     5.875435     20.41082     46.02748        11     1.176     0.932  10.03   0
       111    126.6354    685.3104 300.0062335 +22.6300597     592.3763     72.32692      1.801     3.97     6.069656     20.41082      52.9478        10     0.980     0.870 -60.85   0
       112    859.2989    676.1535 300.2374366 +22.8469864     148201.1     72.36378      1.798     3.66     5.943702     20.41082     10926.06       157     1.633     1.567 -55.31   0
       113   1006.0338    678.1277 300.2825919 +22.8914862     1075.456     72.34535      1.773     4.45     6.080482     20.41082     72.39614        20     1.299     1.124 -76.94   0
       114    621.3370    679.7248 300.1620696 +22.7767388     438.5669     72.40061      1.554     3.84     5.952031     20.41082     50.97718        10     1.063     0.702 -72.22   0
       115    711.7919    676.5386 300.1913034 +22.8029203      817.526     72.32692      1.732     3.34     5.823628     20.41082     87.35945        14     1.106     0.861 -23.13   0
       116    892.4736    668.8121 300.2501732 +22.8548094      460.567     72.36378      1.791     4.23     6.054757     20.41082     40.70295         8     0.955     0.784 -52.46   0
       117    545.5037    664.8263 300.1432779 +22.7497382      1596.72     72.30849      1.605     3.40     6.101978     20.41082      156.315        21     1.177     1.039  89.79   0
       118    726.7780    662.2366 300.2006227 +22.8032989     9456.584     72.36378      1.682     3.29     5.845065     20.41082     826.6439        48     1.376     1.343 -20.37   0
       119    228.2225    656.9678 300.0470416 +22.6523854     5056.324     72.34535      1.819     3.47     5.584041     20.41082     418.6174        46     1.492     1.427  48.04   0
       120    310.3746    655.3110 300.0731457 +22.6765380     1193.191     72.29005      1.762     4.60     5.573293     20.41082     98.94031        23     1.387     1.132 -64.43   0
       121    186.5022    652.9875 300.0353547 +22.6387341     472.7053      72.2347      1.685     4.61     5.916075     20.41082     46.53431         9     1.000     0.749 -34.24   2
       122    518.5607    650.6544 300.1394873 +22.7375940      702.533     72.34535      1.642     3.51     6.160638     20.41082      76.5376        15     1.027     0.996  32.86   0
       123    510.2007    642.9571 300.1393832 +22.7328779     3323.179     72.34535      1.640     3.31     6.193741     20.41082     290.5677        33     1.291     1.270 -21.60   0
       124    500.3987    636.5525 300.1384100 +22.7281010     1440.829     72.34535      1.648     3.45     6.220436     20.41082     138.4279        19     1.130     1.053  46.43   0
       125    894.1514    635.0254 300.2616729 +22.8455981     537.5881     72.36378      1.859     5.96     6.045347     20.41082     35.55224        10     1.106     0.904  56.07   0
       126    411.4452    633.9876 300.1115379 +22.7007081     191.2028     72.34535      1.344     4.21     6.028914     20.41082     25.96951         5     1.123     0.450 -27.01   0
       127    163.7934    632.4152 300.0349726 +22.6260197     635.6309     72.25315      1.762     3.91     6.100013     20.41082     67.95686        12     1.239     0.911 -89.57   0
       128    209.7454    631.3409 300.0496168 +22.6394888     637.3905     72.40061      0.696     1.14     5.904024     20.41082     323.1952         5     0.613     0.414  49.93   0
       129    177.8855    631.4618 300.0396659 +22.6299713       486.45     72.47423      1.517     4.26     6.040713     20.41082     44.17577         7     0.956     0.682  -1.11   0
       130    946.9114    628.3926 300.2802933 +22.8594861     463.6923     72.25315      1.560     4.34     6.148739     20.41082     45.65495         7     0.852     0.629  15.97   0
       131    524.0497    627.4148 300.1487462 +22.7325625     394.2433     72.38219      1.456     4.22     6.248037     20.41082     50.06876         8     0.902     0.688  38.21   0
       132    235.1821    628.0711 300.0585931 +22.6461759     380.7748     72.36378      1.660     3.84     5.840876     20.41082     37.08125         5     0.818     0.518 -40.40   0
       133    203.9055    628.1088 300.0488496 +22.6368100     437.5099       72.511      1.398     3.62     5.948983     20.41082     60.80815         9     0.882     0.835  56.99   0
       134    425.2076    626.2447 300.1183386 +22.7026086     1692.735     72.36378      1.596     3.24     6.084785     20.41082     162.2349        25     1.308     1.139  20.36   0
       135   1000.9411    624.2686 300.2984991 +22.8744735     772.1871     72.36378      1.741     5.44     6.132053     20.41082     57.09808        18     1.383     1.061  65.22   0
       136     79.1397    621.0735 300.0123289 +22.5973803     19711.45     72.38219      1.965     3.80     6.105923     20.41082     1586.158        72     1.619     1.551  16.45   0
       137    510.1451    621.7542 300.1462529 +22.7267702     1130.145     72.38219      1.655     3.35     6.273386     20.41082     98.78902        16     1.066     0.971 -46.89   0
       138      1.1935    622.9464 299.9874880 +22.5745415      363.803     55.44535      1.229     3.00     6.063365     20.41082     66.87149         5     0.851     0.395  89.41  24
       139    545.3206    620.7794 300.1575287 +22.7370292     363.0683     72.34535      1.390     3.75      6.25991     20.41082     49.86797         7     0.992     0.543  64.97   0
       140    264.0251    613.4550 300.0723155 +22.6506259     385.9013     72.38219      1.442     4.05     5.896704     20.41082     34.02195         5     1.059     0.443 -62.96   0
       141    928.1000    608.3868 300.2809203 +22.8481021     1004.137     72.25315      1.596     3.93     6.129263     20.41082     78.71184        18     1.181     1.028   3.25   0
       142     25.4135    605.1658 300.0007913 +22.5767029     1378.349     72.32692      2.064     5.86     6.059519     20.41082     97.56175        29     1.738     1.282  56.08   0
       143    794.8795    606.1365 300.2400848 +22.8075690      520.259     72.45583      1.584     5.82     5.836646     20.41082     43.89384        11     1.203     0.802  30.22   0
       144    868.8403    600.8074 300.2648894 +22.8281819      991.574     72.38219      2.624     5.15     5.952875     20.41082     58.18196        18     1.256     1.240 -48.22   2
       145    473.7917    602.1957 300.1412809 +22.7102591      499.884     72.17931      1.371     2.98      6.31176     20.41082     60.06263         6     0.857     0.496 -59.98   0
       146    265.7000    601.3745 300.0767600 +22.6476592     366.3284     72.29005      1.962     3.87     5.935611     20.41082     34.25105         5     1.103     0.388 -16.24   0
       147    613.0609    599.6971 300.1854857 +22.7512648     372.6996     72.41902      1.552     3.87     6.245078     20.41082     35.69438         5     0.850     0.505 -54.05   0
       148    430.3771    594.8641 300.1301403 +22.6951441     758.9116     72.32692      1.623     3.41     6.120091     20.41082     74.25843        11     1.052     0.734  -8.51   0
       149    577.9083    593.1719 300.1766496 +22.7388596     392.1059     72.32692      1.469     4.27     6.290715     20.41082     47.18895         7     1.118     0.465  33.88   0
       150    625.1908    591.7990 300.1918315 +22.7526285     375.7052     72.16084      1.349     3.63      6.20143     20.41082     56.69568         7     1.156     0.561   8.74   0
       151    595.8458    591.0201 300.1829384 +22.7436146     536.7867     72.40061      1.554     4.35     6.278932     20.41082     45.73644         9     0.992     0.658  56.88   0
       152    474.7159    590.1509 300.1454805 +22.7070758     907.4915     72.32692      1.682     3.57     6.316302     20.41082     74.21054        18     1.193     0.970  86.36   0
       153    908.2905    586.2286 300.2819347 +22.8358003     3348.629     72.32692      1.763     3.49     6.037747     20.41082      250.693        35     1.385     1.264 -37.51   0
       154    440.0809    585.9042 300.1360721 +22.6954780     1685.035     72.47423      1.539     3.07     6.154067     20.41082     181.9107        24     1.212     1.073 -62.84   0
       155   1006.4974    584.3323 300.3132052 +22.8646509     736.5784     72.43742      1.804     5.96     6.143778     20.41082     55.96041        14     1.274     0.979 -25.50   0
       156    805.4288    583.6954 300.2506639 +22.8042764     281.1481     72.27161      1.616     4.56     5.814065     20.41082     32.13345         7     1.150     0.667 -12.31   0
       157    415.7859    581.1237 300.1300586 +22.6868249     177.6444     72.36378      1.193     3.61     6.036547     20.41082     37.89548         5     1.110     0.337  77.26   0
       158      2.5297    579.2339 300.0020985 +22.5623979     3941.035     62.69014      1.658     3.57     6.053444     20.41082     404.7449        30     1.467     1.066  81.50  24
       159    469.0232    576.9861 300.1479825 +22.7015881      200.766     72.32692      1.396     4.69      6.28721     20.41082      36.9773         6     1.112     0.562  -0.84   0
       160    948.2188    576.1564 300.2976676 +22.8448561     372.9456     72.36378      1.571     5.01     6.089699     20.41082     39.67332         7     1.063     0.668 -72.07   0
       161    303.4369    572.4924 300.0978839 +22.6506765     9329.567     72.32692      1.741     3.30     5.916051     20.41082     911.9897        46     1.400     1.331  13.42   0
       162    425.9110    569.6316 300.1369435 +22.6865577     8903.667     72.30849      1.630     3.26     6.065038     20.41082     808.0118        43     1.306     1.289 -47.93   0
       163     64.7633    571.6185 300.0239187 +22.5788746     347.5963     72.34535      1.907     4.12     6.074638     20.41082     28.63141         5     1.200     0.405 -13.77   0
       164    922.3101    561.3046 300.2944043 +22.8328297     12831.53     72.52939      1.749     3.41     6.028016     20.41082     1052.047        57     1.476     1.379 -55.15   0
       165    837.6735    563.7393 300.2672037 +22.8081931     1999.938     72.38219      1.749     3.49     5.857054     20.41082     173.6025        25     1.297     1.128  87.26   0
       166    486.5116    559.2599 300.1591862 +22.7017352     11640.83     72.41902      1.620     3.02     6.349525     20.41082     1105.154        50     1.339     1.308  61.13   0
       167    656.1750    555.3891 300.2133135 +22.7514448     559.1013     72.34535      1.524     4.40     6.080346     20.41082     50.76851        10     1.089     0.643  40.93   0
       168    213.8771    554.5219 300.0758487 +22.6186717     1317.553     72.45583      1.685     4.04     6.063199     20.41082          117        23     1.343     1.099  26.84   0
       169    371.8544    553.6141 300.1253123 +22.6657585     325.4786     72.34535      1.582     4.52     5.907728     20.41082     39.05143         7     1.065     0.546  77.35   0
       170    461.1554    552.1977 300.1535812 +22.6921094       404.05     72.32692      1.516     3.59     6.237688     20.41082     44.91774         8     0.827     0.695 -61.40   0
       171    418.1324    547.4285 300.1417307 +22.6778487     4554.241     72.34535      1.651     3.00     5.983509     20.41082      422.582        39     1.355     1.252  22.86   0
       172    761.1084    547.6942 300.2485310 +22.7806560     824.5719       72.511      1.510     3.13     5.756902     20.41082     75.95833        12     0.916     0.870  71.53   0
       173    396.4987    546.0588 300.1354387 +22.6709730     1259.933     72.43742      1.564     2.81     5.937696     20.41082     146.6588        22     1.344     0.978 -66.89   0
       174    150.5531    544.9460 300.0592584 +22.5969395     843.0225     72.38219      1.870     6.20     6.117418     20.41082     63.03161        15     1.341     1.018  44.25   0
       175    838.0840    543.1243 300.2740260 +22.8023885     1679.829     72.45583      1.700     3.54     5.838325     20.41082     141.3133        26     1.455     1.094 -27.22   0
       176    358.2835    541.1363 300.1251385 +22.6581077     315.6935     72.43742      1.667     4.27     5.858277     20.41082     41.04845         7     1.104     0.472  57.37   0
       177    718.6396    540.0506 300.2377691 +22.7657420     971.9474     72.36378      1.650     3.75     5.813058     20.41082     89.98808        17     1.184     0.969  63.61   0
       178    534.8686    535.0186 300.1821223 +22.7092565     206857.3     72.34535      1.579     3.01     6.416922     20.41082     19119.51       196     1.581     1.489 -28.32   0
       179    220.8931    534.7896 300.0844383 +22.6151087     3499.793     72.29005      1.678     3.28     6.053144     20.41082     324.6916        35     1.352     1.269 -47.26   0
       180    786.5992    531.6368 300.2616954 +22.7836717     620.5639     72.34535      1.821     3.56     5.749928     20.41082     50.08389        10     1.126     0.591 -79.31   0
       181    566.5150    522.0090 300.1962070 +22.7149973     245.1179     72.29005      1.021     2.72     6.491662     20.41082     33.12031         6     0.766     0.500  89.16   0
       182    425.3982    515.5635 300.1543391 +22.6708714     2837.692     72.36378      1.793     3.12     6.055109     20.41082     243.6444        38     1.721     1.192 -88.39   0
       183    270.0436    517.8322 300.1052381 +22.6249704     399.1842     72.40061      1.338     4.28     5.956888     20.41082     48.18181         7     0.881     0.644 -49.35   0
       184    837.1636    511.8959 300.2838784 +22.7931333     405.2425     72.34535      1.515     3.21      5.84392     20.41082     52.84222         8     0.966     0.663  62.84   0
       185    822.3240    501.7843 300.2825317 +22.7857833     1784.906     72.34535      1.710     3.29     5.807432     20.41082     153.1615        26     1.308     1.130  77.76   0
       186    693.7241    499.2798 300.2432375 +22.7465610     2557.581     72.45583      1.559     2.89     5.775874     20.41082     242.0138        29     1.254     1.114 -48.53   0
       187    936.6152    492.9788 300.3210540 +22.8174605     929.3123     72.32692      2.680     3.59     6.008892     20.41082     63.54173        14     1.102     0.859  36.46   2
       188    598.6993    496.1120 300.2146443 +22.7171940     385.6626       72.511      1.376     3.23     6.539019     20.41082     48.86329         7     0.747     0.644 -66.65   0
       189    480.8775    495.2369 300.1782175 +22.6816519     654.2656     72.30849      1.478     4.06     6.191474     20.41082     69.15701        14     1.171     0.805  57.15   0
       190    950.9702    493.5049 300.3253638 +22.8219079     1266.886     72.27161      1.641     3.75      6.05279     20.41082     120.6992        23     1.269     1.123  17.14   0
       191    822.7659    491.6855 300.2859481 +22.7830116     2270.814     72.30849      2.049     4.26     5.811593     20.41082     191.2485        34     1.750     1.223  83.53   0
       192    576.3530    489.6319 300.2097839 +22.7086389     698.4789     72.38219      1.590     2.80     6.666076     20.41082     70.04278        12     0.982     0.770 -51.71   0
       193    860.9985    486.8588 300.2994432 +22.7930680     4464.933     72.30849      1.643     3.16     5.915309     20.41082     388.1134        37     1.332     1.285 -65.76   0
       194    414.6465    488.6491 300.1597281 +22.6599176     463.1865     72.36378      1.659     4.83     6.063037     20.41082     52.73919        10     1.286     0.809 -22.55   0
       195    598.6366    483.6003 300.2186864 +22.7135791     370.9231     72.34535      1.680     4.35     6.593583     20.41082     27.52008         5     1.021     0.528 -44.47   0
       196    521.7966    482.7079 300.1950321 +22.6903086     315.4503      72.2347      1.167     2.02     6.604162     20.41082       59.939         5     0.697     0.437  13.33   0
       197    952.6343    477.5248 300.3310710 +22.8178093     730.4632     72.34535      1.625     3.74     6.067029     20.41082     70.44926        13     1.002     0.866 -13.30   0
       198     93.0478    477.1027 300.0633975 +22.5602219     1057.122     72.38219      1.828     4.35     6.077855     20.41082     82.23726        21     1.446     1.073   1.01   0
       199    359.6378    470.8361 300.1483820 +22.6383190     307.1266     72.41902      1.549     4.60     5.788186     20.41082     29.67968         6     0.970     0.618 -24.33   0
       200     85.5924    467.1852 300.0642981 +22.5551395     235.5551     72.25315      1.210     3.44     6.115707     20.41082     41.69368         5     0.728     0.469 -74.66   0
       201    693.3486    461.4149 300.2554120 +22.7355628     410.5704     72.34535      1.551     4.56     5.837316     20.41082     41.59252         8     0.963     0.640  -3.07   0
       202    634.3351    456.9739 300.2384560 +22.7166158     791.5592     72.32692      1.472     3.64       6.3043     20.41082     71.78326        16     1.059     1.023 -80.57   0
       203    949.2227    449.8899 300.3389766 +22.8088389     631.2246     72.27161      2.098     5.29     6.129264     20.41082     47.28271        11     1.086     0.846 -27.40   0
       204    695.0305    449.3617 300.2598487 +22.7326010      903.438     72.34535      1.636     3.44     5.901506     20.41082     87.49806        14     1.108     0.910 -60.08   0
       205    852.3945    446.1922 300.3099593 +22.7787971       1077.8     72.19778      1.691     3.24     5.923537     20.41082     108.1926        18     1.150     0.963  63.86   0
       206    836.6058    442.0575 300.3063754 +22.7728822     608.9295     72.30849      1.408     3.99     5.895989     20.41082      71.9078        11     1.168     0.609 -25.11   0
       207    580.9670    439.9025 300.2273634 +22.6957272     3278.079     72.32692      1.526     3.08     6.506783     20.41082      340.394        28     1.251     1.111 -85.63   0
       208    941.3950    439.2260 300.3399946 +22.8034288     554.9427     72.30849      1.514     3.14     6.143694     20.41082     71.92464        11     1.060     0.732  -0.94   0
       209     56.9397    431.2890 300.0670385 +22.5362437     366.3736     72.41902      1.712     4.04     6.391803     20.41082     43.68573         6     1.093     0.426   8.78   0
       210    420.7653    426.6772 300.1817480 +22.6439443     444.1286     72.30849      1.554     5.21     6.066468     20.41082     44.43225         8     0.982     0.780 -46.33   0
       211    992.4128    419.2570 300.3624017 +22.8129496     1208.783     72.32692      1.575     3.49     6.263606     20.41082     133.5373        20     1.200     1.049  -8.74   0
       212    864.4606    419.3419 300.3224387 +22.7746856     518.4557     72.41902      1.474     4.43     5.967009     20.41082     58.41048        12     1.191     0.833 -65.79   0
       213    950.6085    418.1680 300.3497050 +22.8001279     1081.012     72.34535      1.695     4.05     6.217802     20.41082     93.35088        18     1.294     0.963 -18.73   0
       214    691.6289    413.9459 300.2702824 +22.7213999     1075.413     72.34535      1.573     3.11     6.113042     20.41082     125.6274        20     1.184     1.113 -16.48   0
       215    600.9682    415.5016 300.2415160 +22.6947024     335.1408     72.32692      1.510     2.53         6.51     20.41082      54.6283         5     0.773     0.553 -86.88   0
       216    487.4887    414.9678 300.2063301 +22.6605650     407.6203     72.30849      1.276     3.36     6.111822     20.41082     48.72356         7     0.923     0.579 -27.83   0
       217    195.3227    412.2066 300.1162707 +22.5722407     725.8896     72.27161      1.851     4.67     6.114217     20.41082     58.08134        15     1.254     0.868 -14.25   0
       218    991.0526    406.5723 300.3660937 +22.8088930     4328.116     72.36378      1.709     3.40     6.263683     20.41082     356.5198        36     1.341     1.313  86.72   0
       219    257.8557    407.6598 300.1372038 +22.5896733     3839.828     72.41902      1.683     3.06     6.199788     20.41082     370.2704        32     1.274     1.232  74.41   0
       220    205.0746    402.3401 300.1225063 +22.5723292     7800.159     72.40061      1.727     3.29     6.132682     20.41082     726.5736        49     1.445     1.368  44.46   0
       221    807.0272    403.3996 300.3096940 +22.7529108     169.6548     72.30849      1.583     4.85     5.896065     20.41082     27.11537         5     1.360     0.490   0.55   0
       222    971.0521    397.5963 300.3627628 +22.8003263     1825.977     72.34535      1.669     3.76     6.219536     20.41082     158.4423        24     1.237     1.176 -49.03   0
       223    345.9221    396.6519 300.1681873 +22.6128963     4798.027     72.34535      1.615     3.12     6.180933     20.41082     467.2166        36     1.348     1.208  78.66   0
       224    590.1156    393.5437 300.2452592 +22.6851404     18681.29     72.43742      1.553     2.80     6.397387     20.41082     2057.299        57     1.347     1.291  71.40   0
       225    607.6082    393.7319 300.2506499 +22.6904322      712.927     72.32692      1.964     6.92      6.47589     20.41082     47.13073        17     1.734     0.774 -33.73   0
       226    217.1732    392.0042 300.1296244 +22.5729858     259.1623     72.30849      1.205     3.35     6.154946     20.41082     33.92051         5     0.801     0.496 -33.77   0
       227    834.0023    390.0207 300.3224510 +22.7571362     385.7347      72.2716      1.919     3.69     5.940733     20.41082      27.7263         5     0.641     0.612 -89.92   0
       228    787.5940    384.1642 300.3098741 +22.7415621     288.8723     72.36378      1.339     5.46     5.962485     20.41082     44.37809        10     1.130     0.891  -5.46   0
       229    923.6475    376.4786 300.3548187 +22.7800667     756.2326     72.34535      1.632     4.87     6.044855     20.41082     69.03997        14     1.264     0.803 -46.22   0
       230    461.4210    375.9006 300.2108870 +22.6415295     383.7898     72.27161      1.795     3.87     6.181673     20.41082     35.93547         5     0.872     0.492 -86.94   0
       231    144.7774    373.4186 300.1131325 +22.5459527     2054.389     72.34535      1.709     3.39     6.296214     20.41082     189.3075        32     1.381     1.269  38.09   0
       232    530.7803    362.9649 300.2366914 +22.6585825     6676.855     72.36378      1.543     2.88     6.201417     20.41082      700.002        35     1.272     1.167  69.51   0
       233    944.4537    363.4025 300.3655557 +22.7825299     1192.061     72.30849      1.715     3.51     6.066624     20.41082     119.2365        19     1.218     0.990  78.14   0
       234    245.6903    362.2092 300.1481650 +22.5729715      526.391     72.27161      1.543     3.60      6.29232     20.41082     69.17276        12     1.076     0.935 -42.22   0
       235    103.2250    355.1052 300.1061502 +22.5282402     634.2281     72.27161      1.874     4.98     6.461742     20.41082      46.9841        12     1.075     0.994  39.38   0
       236    644.4548    353.0107 300.2753479 +22.6897560      630.043     72.34535      1.801     4.73     6.367388     20.41082      57.4479        13     1.034     1.004  86.04   0
       237    734.8998    352.2903 300.3037815 +22.7166231     1207.495       72.511      1.576     3.00     6.382005     20.41082     119.5151        19     1.147     0.995 -28.62   0
       238    437.4121    349.1998 300.2120721 +22.6266648     6286.188     72.16084      1.608     2.91     6.269446     20.41082     613.4821        39     1.311     1.232  80.82   0
       239    927.0323    344.2416 300.3663349 +22.7718045     585.3478     72.40061      1.484     4.06     6.023928     20.41082     59.27162        10     1.002     0.875 -66.98   0
       240    829.3886    343.8330 300.3359981 +22.7424696     1333.902     72.32692      1.560     3.02       6.0278     20.41082     131.7296        22     1.196     1.047  86.08   0
       241    421.9780    337.9615 300.2109112 +22.6188123     379.5282     72.36378      1.417     3.19     6.291081     20.41082     50.37735         7     0.935     0.634 -57.49   0
       242    505.1849    336.0320 300.2374548 +22.6431758     522.5342     72.32692      1.914     3.51     6.205982     20.41082     60.03481         9     1.000     0.742 -40.17   0
       243    783.1700    334.9993 300.3244461 +22.7260970     290.4716     72.30849      1.333     2.89     6.171314     20.41082     51.53056         5     1.096     0.449 -18.85   0
       244    802.2780    331.7266 300.3314682 +22.7308740     470.3691     72.45583      1.334     2.64      6.10492     20.41082     70.72038         9     0.835     0.731 -68.80   0
       245    325.0291    328.3440 300.1838449 +22.5870099     2463.799     72.34535      1.522     2.83      6.37368     20.41082      257.101        25     1.204     1.104 -55.09   0
       246     43.3450    325.5444 300.0971197 +22.5018043     1033.988     72.38219      1.984     4.41     6.632553     20.41082     87.22722        22     1.335     1.232   2.31   0
       247    294.3428    317.7600 300.1777262 +22.5747764      30377.2     72.32692      1.649     2.98     6.336854     20.41082     3228.353        74     1.467     1.372  66.38   0
       248    829.0856    315.6875 300.3450345 +22.7342823     1415.917     72.47423      1.516     2.90     6.207748     20.41082     163.3897        20     1.100     1.051  26.50   0
       249    744.2533    304.5818 300.3221758 +22.7057008     451.5775     72.32692      1.462     3.19     6.391367     20.41082     64.49519        11     0.909     0.882  82.16   0
       250    393.0271    302.9843 300.2132417 +22.6000888     544.7941     72.36378      1.500     5.81     6.332322     20.41082     48.20687        11     1.223     0.777  85.14   0
       251    168.3295    304.1658 300.1429241 +22.5331179     422.3113     72.34535      1.444     5.42     6.437808     20.41082     47.32394         9     1.159     0.716  -1.84   0
       252    759.9669    302.9334 300.3276112 +22.7099294      243.749     72.34535      1.318     3.72     6.364928     20.41082     29.39738         5     0.634     0.628 -71.60   0
       253    704.7502    297.7778 300.3120641 +22.6919209      1940.02     72.34535      1.526     2.82      6.42064     20.41082     216.2579        25     1.231     1.065  52.99   0
       254    513.2129    292.6439 300.2540302 +22.6331064     309.1227     72.34535      1.427     4.01     6.205982     20.41082      32.4886         6     0.731     0.650  60.29   0
       255    919.8285    290.7826 300.3814289 +22.7542670     690.5136     72.34535      1.725     4.79     6.344753     20.41082     57.13531        11     1.097     1.041 -39.63   0
       256    366.6478    282.2510 300.2117526 +22.5862293     2177.764     72.38219      1.735     3.55     6.361939     20.41082     185.6406        26     1.323     1.103  69.06   0
       257    665.3336    281.1529 300.3051669 +22.6753418     197.1241     72.36378      1.001     3.43     6.430449     20.41082     28.73224         5     0.781     0.435  73.64   0
       258    578.9790    281.2231 300.2782272 +22.6495125     305.6387     72.34535      1.549     3.57     6.310918     20.41082     45.74673         7     0.859     0.593  20.84   0
       259    806.2340    275.2511 300.3510219 +22.7158114     614.1329     72.36378      1.558     4.70     6.395899     20.41082     58.26844         8     1.070     0.586 -31.24   0
       260    704.8168    273.1809 300.3200630 +22.6848662     210.7793     72.32692      1.483     3.44     6.420085     20.41082     25.58513         5     1.005     0.340  45.03   0
       261    688.2498    272.8631 300.3150003 +22.6798164     452.5737     72.40061      1.651     3.97     6.427011     20.41082     49.27716         7     1.146     0.630  47.22   0
       262    656.2118    272.3970 300.3051630 +22.6700933     167.9128     72.16084      1.208     3.45      6.42097     20.41082     29.18416         5     0.756     0.456  17.21   0
       263    442.4615    261.8102 300.2419909 +22.6030574     1144.054     72.29005      1.499     3.33     6.294779     20.41082     129.2513        20     1.217     1.018 -40.31   0
       264    527.6140    259.6897 300.2692051 +22.6279434     318.8511     72.29005      1.712     4.10     6.272065     20.41082     32.27126         6     1.069     0.450  -6.42   0
       265    825.7503    255.0278 300.3636693 +22.7158326     180.7854     72.36378      1.375     5.71     6.434625     20.41082     23.67637         8     1.087     0.845 -48.55   0
       266    687.3754    253.5193 300.3210013 +22.6739910     2222.437     72.32692      1.525     2.96     6.419661     20.41082       232.81        24     1.182     1.064  82.07   0
       267    948.7034    248.0943 300.4042871 +22.7506201     2947.495     72.52939      1.617     3.24     6.481643     20.41082     271.1475        31     1.323     1.227 -52.63   0
       268   1009.9042    242.8942 300.4250797 +22.7674285     417.8009     72.52939      1.668     5.02     6.490918     20.41082     34.85936         8     1.041     0.684 -73.09   0
       269    396.0689    237.1093 300.2355532 +22.5820648     641.7117     72.49261      1.462     5.58     6.333333     20.41082     82.64429        13     1.508     0.720 -40.45   0
       270   1018.0568    236.0874 300.4298327 +22.7679074     1581.278     72.41902      1.722     3.48     6.528628     20.41082     152.3881        26     1.340     1.182 -37.59  16
       271     70.5202    231.3291 300.1361241 +22.4828878     1474.611     72.45583      2.055     4.44     6.679814     20.41082     111.7138        23     1.320     1.289 -68.07   0
       272    101.5435    231.2826 300.1457867 +22.4921699     572.1698     72.41902      1.728     4.32     6.610155     20.41082     54.61016         9     1.144     0.721 -15.02   0
       273    964.3917    228.9215 300.4154020 +22.7497944      448.665     72.29005      1.624     3.66     6.556771     20.41082     52.68689        10     1.066     0.735 -37.47   0
       274    807.8093    225.3149 300.3677081 +22.7019156     289.4944     72.29005      1.300     3.92       6.4515     20.41082     42.98847         7     0.863     0.589  31.08   0
       275    154.1351    223.5107 300.1646645 +22.5056935     522.0433     72.47423      1.706     5.71     6.539673     20.41082     62.83844         9     1.353     0.677 -23.17   0
       276    949.2876    221.5607 300.4130741 +22.7431582     193.5777     72.32692      0.918     2.93     6.573011     20.41082     45.83503         5     0.744     0.413 -26.39   0
       277    759.0242    215.1714 300.3557800 +22.6844005      570.147     72.34535      1.351     3.48     6.387826     20.41082     71.28676        11     1.099     0.687 -64.54   0
       278    349.1837    214.4311 300.2283081 +22.5615059     441.6139     72.32692      1.391     4.23     6.386848     20.41082     60.11642         7     1.061     0.533 -24.22   0
       279     82.5638    209.9388 300.1468046 +22.4803516     1059.078     72.36378      0.641     0.80     6.772795     20.41082     495.1814         5     0.502     0.354 -12.43   0
       280    849.8047    208.2843 300.3863324 +22.7095791     403.5389     72.27161      1.873     4.26     6.481401     20.41082     39.73731         7     1.160     0.446  -3.74   0
       281    857.1349    204.1643 300.3899555 +22.7105864     2122.761     72.34535      1.625     3.06     6.480515     20.41082     219.5528        24     1.222     1.125  72.53   0
       282    275.6745    201.1727 300.2097245 +22.5356805     2138.275     72.34535      1.605     3.04     6.603384     20.41082     233.2205        29     1.279     1.226  -1.04   0
       283    353.8264    196.4378 300.2355875 +22.5577239     978.4003     72.36378      1.583     3.56     6.388737     20.41082     103.8227        19     1.165     1.057 -45.26   0
       284    755.5217    195.9066 300.3609341 +22.6778099     625.2529     72.47423      1.720     5.23     6.349667     20.41082     56.40085        11     1.048     0.893  41.56   0
       285    862.4691    193.3072 300.3951402 +22.7090577     423.6169     72.47423      1.357     3.88     6.457678     20.41082     38.62791         6     0.934     0.461  -0.25   0
       286    289.2185    188.3992 300.2180812 +22.5360655     365.6044     72.27161      2.028     3.77     6.704518     20.41082     25.28826         5     1.016     0.402 -84.22   0
       287    170.6769    188.4588 300.1811747 +22.5005774     777.3929     72.38219      1.690     4.15     6.803286     20.41082     82.04185        15     1.190     1.018 -61.98   0
       288    708.2747    185.5517 300.3495572 +22.6606936     1664.224     72.34535      1.498     2.82     6.311849     20.41082     195.4288        21     1.192     0.987 -76.38   0
       289    773.2183    185.0086 300.3699871 +22.6799691      545.678     72.29005      1.467     5.28      6.35042     20.41082     51.11462        10     1.039     0.757 -45.93   0
       290    191.8851    181.9718 300.1898758 +22.5050661     471.4671     72.34535      1.256     3.71       6.8515     20.41082     54.83175         8     0.926     0.661 -30.34   0
       291    979.6721    178.3755 300.4365619 +22.7398151     817.0803     72.38219      1.473     3.89     6.740863     20.41082     92.99066        15     1.207     0.929  64.89   0
       292    712.3626    176.6544 300.3537165 +22.6593572      855.333     72.34535      2.197     4.87     6.291187     20.41082     78.80586        17     1.462     0.872 -70.24   0
       293    481.4824    177.5372 300.2814710 +22.5905108     367.0165     72.43743      1.999     5.30      6.38985     20.41082     28.51311         6     1.121     0.709  45.76   0
       294    632.7439    176.2254 300.3290324 +22.6354083      1268.71     72.34535      1.498     3.02     6.314145     20.41082      144.107        19     1.173     0.957  67.05   0
       295    453.9569    172.5436 300.2745158 +22.5808347     436.5797     72.32692      1.418     2.37     6.380863     20.41082      39.7864         6     0.750     0.496  -5.08   0
       296    828.2894    167.7547 300.3927603 +22.6914796     1451.257     72.34535      1.642     3.54     6.375349     20.41082     121.6834        20     1.204     1.027  54.88   0
       297    559.0707    167.8517 300.3087851 +22.6109503     839.4099     72.34535      1.467     3.40     6.339544     20.41082     85.29574        16     1.160     0.879 -25.58   0
       298    840.4622    166.9839 300.3968080 +22.6948992      900.459     72.30849      1.529     3.42     6.378949     20.41082     78.64661        14     1.032     0.880 -32.06   0
       299    886.2106    165.8981 300.4114352 +22.7082710     290.2324      72.2347      1.175     3.72     6.445218     20.41082      42.4734         5     0.841     0.473 -36.00   0
       300   1001.3036    158.0508 300.4499047 +22.7404329     1582.648     72.41902      1.673     3.44      6.90255     20.41082     131.6701        24     1.282     1.131 -30.88   0
       301    957.0927    157.2990 300.4363461 +22.7269954     1151.684     72.52939      1.711     3.99     6.712027     20.41082     102.5635        24     1.399     1.092 -63.89   0
       302    190.9943    150.1055 300.1999285 +22.4956417     781.2631      72.2347      1.640     5.53     7.019166     20.41082     70.17722        13     1.252     0.950  34.44   0
       303     52.7727    144.5535 300.1587369 +22.4526415      2404.75     72.38219      1.998     4.22     7.145261     20.41082     184.8829        36     1.565     1.343  52.54   0
       304    876.0798    142.2523 300.4159392 +22.6984352     710.8931     72.36378      1.515     3.62     6.580173     20.41082     62.84871        12     1.057     0.790 -38.18   0
       305      2.7423    141.8509 300.1440583 +22.4368757     401.1515     63.74453      1.655     3.51     7.138638     20.41082     54.58055         6     1.131     0.589 -52.75  24
       306    210.3919    137.9801 300.2098941 +22.4979666     5576.627     72.30849      1.713     3.26     7.012222     20.41082     516.6285        41     1.413     1.301  74.65   0
       307   1009.3315    125.8852 300.4628383 +22.7335728      18468.4     72.43742      1.776     3.50     6.978428     20.41082     1622.271        65     1.604     1.408 -78.00   0
       308    194.0953    129.0564 300.2077159 +22.4905211     517.6569     72.40061      1.360     3.06     7.039124     20.41082     53.12994         9     0.778     0.774 -82.97   0
       309    958.2257    118.7803 300.4491861 +22.7162457     2737.616     72.34535      1.693     3.43     6.895866     20.41082     236.2389        33     1.364     1.261 -83.91   0
       310    854.4831    119.9148 300.4164409 +22.6855464     3472.736     72.47423      1.607     3.18     6.738756     20.41082     308.5865        32     1.301     1.208 -82.46   0
       311    404.0786    114.9991 300.2776340 +22.5493563     631.1719      72.2347      1.711     4.32     6.396699     20.41082     63.62173        13     1.138     0.920 -49.04   0
       312    518.2446    113.2879 300.3137505 +22.5830378     229.5837     72.32692      0.977     3.41     6.447174     20.41082     46.07852         5     0.777     0.433  11.74   0
       313    371.9194    107.4427 300.2700689 +22.5375559      728.431     72.32692      0.665     0.54     6.400689     20.41082      382.136         5     0.498     0.371 -84.52   0
       314    328.2910    106.9385 300.2566489 +22.5243488     616.1234     72.43742      1.801     5.04     6.626323     20.41082     64.23557        11     1.241     0.854  77.02   2
       315    332.3555    105.6687 300.2583258 +22.5252007     450.1602     72.30849      1.445     4.06     6.590388     20.41082     49.05104         7     0.953     0.590 -22.46   3
       316    863.2128    104.8047 300.4240623 +22.6838083     206.0589     72.21624      1.362     3.74     6.906624     20.41082     29.93237         5     0.936     0.428 -44.57   0
       317     94.6295    103.8673 300.1849394 +22.4534902     603.1777     72.32692      1.735     3.99     7.169178     20.41082     47.53852         9     0.919     0.685 -24.93   0
       318    455.2971    102.1409 300.2977534 +22.5609909     1614.959     72.41902      1.537     3.14     6.440276     20.41082     154.8065        21     1.151     1.066 -78.80   0
       319    383.5871    102.7816 300.2752126 +22.5397087     583.0446     72.30849      1.825     5.09     6.400711     20.41082     44.89779         9     1.231     0.697 -27.03   0
       320    517.1412    101.6637 300.3171741 +22.5793642     395.4588     72.38219      1.287     4.02     6.465767     20.41082     40.76123         7     0.836     0.631  24.73   0
       321    199.2997     97.6487 300.2195141 +22.4830528     426.1732     72.38219      1.694     3.90       7.0558     20.41082     38.96906         6     0.872     0.499  44.40   0
       322    671.1374     96.1229 300.3669664 +22.6238526     193.4479     72.41902      1.178     3.32     6.265731     20.41082     83.70374         5     1.282     0.271   8.48   0
       323    743.7828     92.0096 300.3909522 +22.6444024     397.0421     72.29005      1.542     4.90     6.439227     20.41082      41.0531         6     0.918     0.741 -29.99   0
       324    591.3751     89.0555 300.3443930 +22.5979531     287.7639     72.36378      1.244     4.28     6.447891     20.41082     59.77337         6     0.934     0.558  37.14   0
       325   1019.7540     83.3609 300.4798754 +22.7244449     3654.377     72.17931      1.820     3.15     7.228638     20.41082     343.8325        42     1.657     1.423 -29.78  24
       326    229.3667     81.8056 300.2340039 +22.4875030     5958.768     72.34535      1.738     3.28     6.822775     20.41082     563.7963        43     1.473     1.321  78.50   0
       327     80.3934     81.1672 300.1878683 +22.4427029     717.1903     72.34535      1.817     6.72     7.167434     20.41082     66.57564        15     1.502     1.015  43.85   0
       328    200.7773     75.5964 300.2271200 +22.4771569     362.2307     72.30849      1.627     3.95     6.881249     20.41082     49.52476        10     1.287     0.859  54.28   0
       329    705.1729     73.5851 300.3848826 +22.6275502     343.1409     72.36378      1.509     4.46     6.462133     20.41082     31.49946         7     1.247     0.453   9.62   0
       330    245.4422     72.9832 300.2418653 +22.4897805     386.9205     72.36378      1.686     4.74     6.730427     20.41082     26.09438         7     1.151     0.552 -62.67   0
       331    475.4321     67.3517 300.3152994 +22.5570122     6441.402     72.38219      1.637     2.98     6.692278     20.41082     673.1155        41     1.379     1.246  82.73   0
       332    360.9494     67.4476 300.2796142 +22.5227717      630.359     72.38219      1.643     3.37     6.404768     20.41082      56.9208        10     0.939     0.830  48.92   0
       333    532.4307     61.7879 300.3348604 +22.5724701      326.902     72.34535      1.375     3.50     6.728398     20.41082     39.54901         5     0.744     0.475 -75.89   0
       334    727.9149     57.5348 300.3971756 +22.6297346     779.3199     72.43742      1.524     4.99      6.58123     20.41082     75.52248        11     1.211     0.691 -58.87   0
       335    820.0814     56.0678 300.4263994 +22.6568800      422.685     72.45583      1.408     4.28     6.924084     20.41082     51.30898         9     1.021     0.871  35.98   0
       336    168.6346     51.2837 300.2249977 +22.4605429     530.2495     72.30849      1.906     3.47     6.913359     20.41082     42.45954         8     0.914     0.636 -75.96   0
       337    527.0394     50.1193 300.3369615 +22.5675001     349.2832     72.30849      1.301     2.70     6.815575     20.41082     56.53849         8     0.833     0.705  -4.24   0
       338    603.8787     47.4328 300.3617779 +22.5897198     6199.356     72.32692      1.613     3.00     6.779768     20.41082     676.1741        42     1.358     1.268  89.14   0
       339    378.7653     46.5170 300.2919436 +22.5220862     1537.998     72.30849      1.681     3.41     6.561867     20.41082     143.0439        25     1.290     1.096 -12.24   0
       340    645.1290     44.9145 300.3754523 +22.6013370     767.4812     72.45583      1.472     2.88     6.704633     20.41082     92.63326        14     0.993     0.873  16.92   0
       341    713.7910     42.5803 300.3976168 +22.6212060     344.3253     72.32692      1.800     4.42     6.663201     20.41082     34.00154         7     0.988     0.563  54.70   0
       342    661.1136     40.8884 300.3817401 +22.6049607     539.1916       72.511      1.540     4.10      6.69604     20.41082     50.27407        13     1.138     0.932  18.66   0
       343    127.6947     38.8986 300.2162751 +22.4447227     658.9957     72.52939      1.707     4.99     7.050497     20.41082      56.0643        12     1.339     0.828 -53.03   0
       344    930.8802     38.5645 300.4666464 +22.6849744     581.2438     72.29005      1.738     4.59     7.041728     20.41082     50.88863        10     1.225     0.614  33.80   0
       345    699.4788     36.8376 300.3950146 +22.6152720      494.768     72.32692      1.359     3.50     6.698308     20.41082       57.209         7     0.865     0.582  -3.23   0
       346    663.1730     31.3011 300.3854886 +22.6028179     940.1472     72.29005      2.066     6.16     6.766265     20.41082     70.33428        22     1.738     1.081  45.76   0
       347    648.1639     32.4329 300.3804426 +22.5986534     2699.947     72.36378      1.634     3.07     6.798941     20.41082     283.1497        29     1.321     1.145 -80.51   0
       348    288.8618     33.6376 300.2681274 +22.4914691     438.1759     72.36378      1.521     3.80     6.330254     20.41082       41.043         6     1.018     0.406 -15.97   0
       349    734.6923     24.2213 300.4100834 +22.6221744      1477.85     72.27161      1.584     3.61     6.774403     20.41082     128.2405        20     1.188     1.077  46.91   0
       350    672.3965     17.5239 300.3928279 +22.6016126     829.5746     72.25315      1.613     3.56     6.837505     20.41082     73.89511        13     1.220     0.767  10.28   0
       351    277.3332   1012.8707 299.9466288 +22.7692502     509.0367     72.38219      1.691     7.46      19.7946     20.41082     45.92965        19     1.575     1.375   5.02   0
       352    671.6135   1013.2644 300.0693025 +22.8876037     1753.537     72.30849      0.773     1.14     4.934749     20.41082       643.74         6     0.557     0.481 -34.66   0
       353    114.6390   1010.0490 299.8969365 +22.7196237     896.1531     72.36378      2.979     9.27     93.03435     20.41082     48.71318        14     2.863     0.837 -35.11  19
       354    764.2542     13.7923 300.4226822 +22.6280146     367.3235     72.34535      1.383     3.79     6.930546     20.41082      52.7947         8     1.071     0.581  -1.54   0
       355    113.6252   1007.0632 299.8975925 +22.7184632     1234.457     72.32692      2.539     7.78     90.35696     20.41082     64.20219        19     2.067     0.818 -46.45   3
       356   1016.5601   1011.1396 300.1776051 +22.9903610     580.2493     72.34535      3.560     7.33     4.468913     20.41082     33.40357         9     1.437     1.047  68.18  18
       357    181.0746   1003.8721 299.9196079 +22.7377882     2087.656     72.40061      4.319    22.35     82.94511     20.41082     51.13258       100     4.908     2.826  21.45  19
