#   1 NUMBER                 Running object number                                     
#   2 X_IMAGE                Object position along x                                    [pixel]
#   3 Y_IMAGE                Object position along y                                    [pixel]
#   4 ALPHA_J2000            Right ascension of barycenter (J2000)                      [deg]
#   5 DELTA_J2000            Declination of barycenter (J2000)                          [deg]
#   6 FLUX_APER              Flux vector within fixed circular aperture(s)              [count]
#   7 FLUXERR_APER           RMS error vector for aperture flux(es)                     [count]
#   8 FLUX_RADIUS            Fraction-of-light radii                                    [pixel]
#   9 FWHM_IMAGE             FWHM assuming a gaussian core                              [pixel]
#  10 BACKGROUND             Background at centroid position                            [count]
#  11 THRESHOLD              Detection threshold above background                       [count]
#  12 FLUX_MAX               Peak flux above background                                 [count]
#  13 ISOAREA_IMAGE          Isophotal area above Analysis threshold                    [pixel**2]
#  14 A_IMAGE                Profile RMS along major axis                               [pixel]
#  15 B_IMAGE                Profile RMS along minor axis                               [pixel]
#  16 THETA_IMAGE            Position angle (CCW/x)                                     [deg]
#  17 FLAGS                  Extraction flags                                          
         1    216.3940     15.0488 300.2354959 +22.4424597       3763.1     72.51677      1.492     2.85     5.054795      20.4644     426.9327        33     1.305     1.140  56.96   0
         2    542.0708     12.3705 300.3377032 +22.5391915     318.2239     72.53525      1.352     3.15     4.464891      20.4644     47.41229         7     0.734     0.668 -17.81   0
         3    777.7997      7.8522 300.4126075 +22.6084249     884.7189      72.4798      1.275     3.04     4.840685      20.4644     148.1144        13     1.088     0.743  72.54   0
         4    332.3611      7.3475 300.2740601 +22.4749722     1145.635     72.53525      1.428     2.77     4.595669      20.4644     123.4471        17     1.075     0.893  83.71  16
         5    815.7994      3.0203 300.4260190 +22.6184015     662.7957     65.09608      1.541     3.51     4.827261      20.4644     87.75629        16     1.170     0.920  69.05  24
         6    739.0703      2.8649 300.4021526 +22.5954045     520.5278     64.47552      1.315     2.22     4.906206      20.4644      76.7366         8     0.786     0.618  18.94  16
         7    193.8503   1019.0230 299.9024483 +22.7238086     197.4062     72.53525      1.396     4.64     88.60235      20.4644     36.59917         5     1.219     0.502  22.29  16
         8    340.5958   1023.1923 299.9467220 +22.7690394     556.2739     59.05104      1.494     5.22     13.17482      20.4644     65.13505        14     1.350     0.823   5.38  24
         9    176.0493   1018.8800 299.8969616 +22.7184250     1628.853     72.57219      3.498    12.63     88.60235      20.4644     56.03207        43     2.582     1.720 -44.25  18
        10    123.8794    963.0089 299.8989273 +22.6867533       5364.6      72.4798     22.301    79.50     35.06536      20.4644     104.2325      3109    19.000    14.642 -14.20  19
        11    778.6674    998.4688 300.0911627 +22.8933245     769.2488     72.59065      1.997     7.60     3.005547      20.4644     44.93964        17     1.358     1.190  49.80   0
        12      5.4424    993.8127 299.8521094 +22.6600292     1693.982     72.53525     16.159    20.50    -15.64742      20.4644     39.90447        72     4.027     2.899  77.33  27
        13    212.9883    991.3640 299.9173981 +22.7216237     803.1477     72.51677      2.462     3.83     65.68362      20.4644      48.9104         5     1.463     0.288 -29.56   3
        14    212.3467    987.1907 299.9185566 +22.7202349     1716.637     72.53525      4.366    15.78     62.40952      20.4644       51.857        52     3.534     1.958  66.41   3
        15    217.3417   1010.2135 299.9126178 +22.7283335     2784.859     72.49828      5.034    19.53     81.23562      20.4644     72.64838       108     4.961     2.135   4.19  19
        16    400.5707   1010.0273 299.9696642 +22.7832579      678.048     72.51677      2.989     8.63     3.730404      20.4644     36.36032        16     1.809     1.151 -21.03   0
        17    121.4866    930.2725 299.9088336 +22.6766519     4216.666     72.66446     18.591    67.72     10.65706      20.4644     84.01064      1283    15.859     8.023 -22.51  19
        18    678.5370    998.3365 300.0600066 +22.8632686      8425.93     72.57219      1.867     4.30     3.032507      20.4644     516.0002        45     1.501     1.367  55.31   3
        19    684.1463    995.9437 300.0625327 +22.8642637     9419.081     72.59065      1.941     4.58     3.042023      20.4644     579.9944        50     1.528     1.465   8.80   3
        20     26.9343    985.2758 299.8615627 +22.6640351     802.9594     72.62756      3.469     6.10    0.5754048      20.4644     41.64385        10     1.227     0.852  -9.36   0
        21    971.6204    981.7001 300.1567797 +22.9463374     702.8256      72.4613      1.867     7.69     3.067703      20.4644     57.43225        20     1.360     1.217 -46.52   0
        22     15.9703   1003.5157 299.8522222 +22.6659700     1358.657     72.53525     12.631    14.68     -9.52571      20.4644     50.20399        35     3.974     1.509 -83.07  19
        23    190.0366    968.7029 299.9176365 +22.7082400     1567.519     72.53525      5.221    13.31     47.67606      20.4644     53.91422        29     2.803     1.760  26.66   2
        24      1.9531    969.2637 299.8590129 +22.6519475     850.2438      59.9296      8.136     8.28    -9.871816      20.4644     49.34266        10     1.836     1.043 -84.71  24
        25    696.8605    965.2692 300.0764754 +22.8592730     6939.671     72.57219      1.856     4.12      3.18952      20.4644     415.2021        47     1.496     1.390 -11.42   0
        26    848.1249    958.8255 300.1257132 +22.9027633     398.1348     72.55372      1.950     5.82     3.338591      20.4644     43.88917         8     1.371     0.696  76.61   0
        27    576.4210    959.6061 300.0408058 +22.8215375     464.0045     72.51677      1.805     5.92     3.294995      20.4644     36.35281        11     1.190     0.828  54.77   0
        28    222.8875   1017.8058 299.9118712 +22.7321742     1267.754     72.44281      2.237    13.70     87.78382      20.4644     45.66396        39     3.111     1.677   6.66  19
        29    216.4152   1004.1411 299.9143058 +22.7263148      1970.97     72.49828      4.931    15.95     76.32446      20.4644     75.81021        50     3.962     1.784 -37.90  19
        30    605.3074    956.1618 300.0509217 +22.8292108     1427.009     72.53525      1.682     3.98     3.264837      20.4644     112.4487        20     1.191     1.096  21.48   0
        31    144.8990   1021.6769 299.8863698 +22.7098770     3698.949     66.54171      6.736    28.77     85.42036      20.4644     98.24191       207     6.607     3.479   5.55  27
        32    429.8113    950.4420 299.9981510 +22.7749405      6569.28     72.53525      1.767     3.84     3.649895      20.4644     544.5115        40     1.408     1.321  26.38   0
        33    499.1668    952.2111 300.0191606 +22.7962491     1115.178     72.51677      1.929     4.57     3.407082      20.4644     71.68736        22     1.296     1.122  36.21   0
        34    171.9964    936.0176 299.9226627 +22.6934566     1316.938      72.4613     10.398    11.87     20.66471      20.4644       32.699        22     2.269     1.728  50.45   3
        35    977.3885    929.7778 300.1754740 +22.9331556     1468.526     72.51677      1.701     4.58     3.354568      20.4644     106.4049        17     1.387     0.906 -81.07   3
        36    975.0000    929.0772 300.1749570 +22.9322388     1375.658      72.4058      1.656     4.34     3.369421      20.4644     125.3572        14     1.457     0.771 -72.91   3
        37    626.5507    926.4547 300.0672028 +22.8270557     350.5388     72.57219      1.581     5.38     3.367457      20.4644     39.21962         5     1.301     0.627  47.37   0
        38    474.9773    925.8860 300.0201960 +22.7814429     260.6387      72.4798      1.318     3.93     3.561246      20.4644     34.82874         6     0.930     0.476 -34.90   0
        39    764.9163    917.5278 300.1132140 +22.8659702     689.3205     72.66446      1.728     5.84     3.466158      20.4644     47.98061        14     1.207     0.898 -18.29   0
        40    799.7461    912.4072 300.1257351 +22.8749389     973.4056     72.53525      1.634     4.59     3.587769      20.4644     79.93852        16     1.124     1.005  64.04   0
        41    577.1179    912.9558 300.0562001 +22.8083613     455.0829     72.49828      1.905     5.61     3.488006      20.4644     42.21233         9     1.126     0.824  17.32   0
        42    126.4650   1013.0480 299.8834491 +22.7018709     4647.605     72.55372     11.034    46.29     72.12919      20.4644       87.241       715     9.417     6.623  62.24  27
        43     10.0682    909.9059 299.8808428 +22.6373737     350.6211      72.6829      1.321     2.56     3.433145      20.4644     45.90895         5     0.624     0.575  83.73   0
        44    822.0398    906.0566 300.1347500 +22.8797967     11094.54     72.51677      1.734     3.78     3.602567      20.4644     733.1851        44     1.395     1.331 -16.18   0
        45     11.3290   1004.2230 299.8505505 +22.6647793      1085.59     72.57219      8.106     9.81    -13.60698      20.4644       38.312        23     3.769     0.712 -69.03  19
        46   1012.2845    905.5963 300.1942272 +22.9366647     351.9476      72.4613      1.646     5.11      3.25696      20.4644     40.78923         7     0.937     0.787 -69.93   0
        47    867.7436    906.0971 300.1489850 +22.8935040     427.8224     72.62756      1.590     4.40      3.61806      20.4644     53.29247         7     0.991     0.849  85.06   0
        48    462.4189    937.4901 300.0125123 +22.7810053     523.6833      72.4613      1.671     4.16     3.560729      20.4644     47.91039         9     1.006     0.904  21.52   0
        49      2.6884   1019.6133 299.8428587 +22.6665947     1928.586     63.51221      9.664    24.84    -25.03797      20.4644      58.0331       121     4.609     3.717  70.03  27
        50    133.3556    897.9665 299.9230305 +22.6709530     1097.607     72.57219      6.002     5.49     8.677914      20.4644     68.62354        21     1.635     1.097 -35.59   0
        51    527.0438    893.9034 300.0468071 +22.7878806     571.1819     72.55372      1.921     5.24     3.575958      20.4644     64.57156         9     1.311     0.779  19.60   0
        52      3.7116   1003.8270 299.8483134 +22.6623789     1781.813     67.99602     13.701    29.72    -19.32075      20.4644     48.21242       125    10.982     2.233  54.16  27
        53    830.6792    888.2051 300.1432503 +22.8772604      1354.94      72.4613      1.710     4.03     3.612395      20.4644     98.52568        23     1.296     1.147 -23.75   0
        54   1013.7953    887.4369 300.2006060 +22.9319014     546.0429     72.57219      1.878     5.08     3.298316      20.4644     48.74808         8     1.061     0.689  39.37   0
        55    682.9222    885.6268 300.0980434 +22.8322372     392.4132     72.53525      1.561     4.55     3.402489      20.4644     45.21754         9     0.889     0.804 -89.76   0
        56    868.5709    881.4849 300.1572493 +22.8866848     826.1442     72.53525      1.989     7.07     3.621389      20.4644     50.09577        20     1.627     1.028  89.28   0
        57    916.9924    873.1352 300.1750639 +22.8987948     523.5394     72.51677      1.894     3.94     3.605016      20.4644     51.73328         8     1.007     0.722   9.22   0
        58    768.2932    871.5980 300.1292072 +22.8537972     775.5309     72.44281      1.702     6.96     3.511211      20.4644     59.67738        15     1.462     0.971  49.90   0
        59    779.9266    868.5639 300.1338197 +22.8564125     623.8653      72.4798      1.611     6.55     3.550075      20.4644     45.04885        15     1.366     0.891  63.26   0
        60    481.0371    868.1701 300.0408560 +22.7667021     4211.873     72.55372      1.607     3.27     3.545755      20.4644     370.9615        30     1.279     1.164  24.17   0
        61    592.0257   1003.0082 300.0315418 +22.8386688     2401.539     72.53525      1.837     3.87     3.069987      20.4644     186.9575        30     1.426     1.235   5.74   0
        62    524.6214    856.1796 300.0583229 +22.7763300     353.4165     72.53525      1.651     5.05     3.586681      20.4644     34.04046         7     0.979     0.736 -36.97   0
        63    259.2472    856.1806 299.9757558 +22.6967436       391.99     72.57219      1.597     4.45     5.284604      20.4644     52.84461         8     1.286     0.770   7.62   0
        64    206.4561    853.7358 299.9601373 +22.6802053     588.2057     72.59065      1.486     3.68     6.437618      20.4644     87.52605        14     1.135     0.936  37.98   0
        65    183.3208    850.6894 299.9539361 +22.6723907      1488.64     72.66446      1.783     3.87      6.30139      20.4644     146.8588        25     1.323     1.179  54.05   0
        66    115.2201    852.4642 299.9321932 +22.6524663     452.6762     72.51677      2.084     3.49     4.782142      20.4644     35.15601         5     0.770     0.456  19.08   0
        67     58.0264    841.1557 299.9180995 +22.6320618     392.2954     72.55372      1.522     4.98     4.143062      20.4644     44.93101         7     1.270     0.553 -43.29   0
        68   1009.3999    838.4819 300.2151582 +22.9165228     2174.786      72.4058      1.888     4.75     3.367751      20.4644     133.0356        29     1.381     1.293  83.01   0
        69    715.4061    838.4427 300.1235104 +22.8284292     459.2821     72.55372      1.965     3.50     3.453604      20.4644     47.53373         5     0.949     0.488 -46.27   0
        70    486.1617    837.9238 300.0522879 +22.7595603     244.6544     72.51677      1.340     4.35     3.554153      20.4644     28.47807         5     1.057     0.510  50.47   0
        71    792.9303    832.1989 300.1496999 +22.8498683     638.0533      72.4798      1.534     4.11     3.827992      20.4644     58.22408        13     1.104     0.884  74.19   0
        72    215.4319    832.3371 299.9698864 +22.6767618     372.6894     72.53525      1.660     4.28     5.438617      20.4644     42.74178         7     1.001     0.905 -36.97   0
        73    601.7111    830.8909 300.0905504 +22.7921837     554.2453     72.70134      0.683     0.59     3.539375      20.4644     312.5782         5     0.557     0.427  10.83   0
        74    540.4310    830.1561 300.0717080 +22.7736022     263.0442     72.57219      1.561     4.57     3.580425      20.4644      25.7459         5     0.838     0.708 -37.26   0
        75    661.0698    826.2944 300.1105332 +22.8086567     4801.089     72.66446      1.542     3.12     3.443676      20.4644     403.4615        31     1.229     1.168 -34.10   0
        76    150.7619    827.2351 299.9514428 +22.6558971     284.7585     72.60911      1.733     3.82     5.038165      20.4644     30.37647         5     1.336     0.312 -30.03   0
        77    463.2736    823.5559 300.0498363 +22.7485750     629.2716     72.51677      1.599     3.73     3.615016      20.4644      66.7039        15     1.063     0.949   5.01   0
        78    211.2384    820.1278 299.9725528 +22.6720025     1371.233     72.49828      1.753     3.64     4.893707      20.4644     142.5495        23     1.279     1.159   7.91   0
        79    681.6619    818.6859 300.1194222 +22.8126443     684.5527     72.66446      1.594     4.09     3.434075      20.4644     59.56788        16     1.139     0.988  23.44   0
        80    230.4873    817.3268 299.9794480 +22.6769736     376.4612      72.6829      1.508     4.21     4.701057      20.4644       51.263         8     1.040     0.630  32.48   0
        81    837.0207    806.0744 300.1719390 +22.8555772     4193.586     72.53525      1.586     3.32     4.084065      20.4644     320.8976        30     1.239     1.189  23.34   0
        82    245.3674    800.6382 299.9895009 +22.6766509     431.0028     72.57219      1.559     3.62     4.012825      20.4644     60.88221         7     0.926     0.552 -54.42   0
        83    554.2340    798.5535 300.0862818 +22.7686706     621.0883     72.57219      1.548     3.69     3.557848      20.4644     68.80588        14     1.080     0.915 -23.03   0
        84    200.3762    796.3390 299.9769106 +22.6619219     966.5757     72.53525      1.626     3.85     4.014052      20.4644     94.99533        18     1.177     1.051 -22.09   0
        85    350.0941    788.5460 300.0260033 +22.7045921     53755.05     72.59065      1.579     3.05     3.789646      20.4644     5895.889        91     1.422     1.344  36.53   0
        86    615.7775    792.0143 300.1075728 +22.7852414     507.5249     72.53525      1.498     4.01     3.527595      20.4644     50.94357        11     0.953     0.877 -51.33   0
        87   1020.9003    787.1296 300.2354459 +22.9052147     897.7602     69.49705      1.780     5.62     3.449537      20.4644     59.31287        21     1.486     0.992 -29.43  16
        88    607.8842    787.6417 300.1065362 +22.7816204     1560.286     72.49828      1.491     3.07     3.534652      20.4644      160.044        18     1.089     0.974  38.46   0
        89    278.7519    786.2793 300.0045505 +22.6825458     553.5119     72.53525      1.739     3.52     3.954973      20.4644     70.05262         9     1.169     0.513  51.86   0
        90    637.0162    783.8643 300.1168377 +22.7892676     975.8657     72.51677      1.503     3.72     3.529183      20.4644     95.75082        15     1.235     0.826  62.42   0
        91     36.0327    782.9888 299.9301790 +22.6087869     880.3304     72.51677      1.916     5.39     4.126739      20.4644     81.27199        20     1.427     1.341 -59.07   0
        92      3.3714    783.6124 299.9198308 +22.5991647     719.7802     66.58198      1.825     4.80     4.212495      20.4644     69.76763        15     1.204     1.105  49.87  24
        93    647.7391    782.0789 300.1207582 +22.7919687     572.7888     72.60911      1.405     5.11     3.534498      20.4644      60.4861         9     1.116     0.661  46.80   0
        94    753.5820    778.0341 300.1550497 +22.8225254     322.5896     72.53525      1.423     5.29     3.805671      20.4644     39.52096         8     1.156     0.682  17.10   0
        95    548.1898    775.9579 300.0917466 +22.7603737     275.6239     72.53525      1.362     4.44     3.595394      20.4644     36.52423         6     0.850     0.660  80.62   0
        96    790.7498    768.5073 300.1697308 +22.8309260     677.0767     72.59065      1.492     3.88     4.078325      20.4644     76.91636        14     1.140     0.923  63.68   0
        97    414.1143    766.4308 300.0531115 +22.7174442     2153.836     72.51677      1.556     3.07     3.801669      20.4644     186.2439        25     1.217     1.094  14.34   0
        98    399.8163    765.8101 300.0488643 +22.7129790     31773.88      72.4613      1.520     3.12     3.801669      20.4644     3354.945        68     1.323     1.283  33.98   0
        99    922.9969    761.8931 300.2131124 +22.8686428     2842.223     72.44281      1.577     3.35     3.821423      20.4644      241.076        28     1.265     1.146  19.13   0
       100    410.5969    760.0988 300.0540755 +22.7145727     583.3312     72.42431      1.706     5.60     3.806921      20.4644     57.16153        11     1.077     0.839  39.12   0
       101    680.7548    757.7850 300.1389413 +22.7948885     853.3417     72.55372      1.421     3.13     3.694187      20.4644     94.41772        13     0.960     0.884  20.48   0
       102    517.0747    757.9833 300.0879032 +22.7458876     535.4005     72.53525      1.693     3.39      3.62893      20.4644     63.99365        11     1.058     0.680  -2.55   0
       103    282.4989    757.4252 300.0150962 +22.6753929     692.2933      72.4798      1.334     3.07     3.903472      20.4644     108.7424        14     1.337     0.729  57.48   0
       104    575.6873    755.0872 300.1070938 +22.7626255      329.245     72.70134      1.510     3.95     3.584445      20.4644     49.96994         7     1.187     0.661 -55.63   0
       105     86.9498    753.2260 299.9556735 +22.6155309     439.5515     72.55372      1.548     4.73     3.899892      20.4644     51.51768        10     1.034     0.833 -37.62   0
       106    527.9770    752.5472 300.0930645 +22.7475955     801.1741     72.55372      1.377     2.91     3.636311      20.4644     95.82357        13     0.950     0.858  79.13   0
       107    449.7985    752.9862 300.0685870 +22.7242851     141.8664     72.36877      1.179     3.82     3.723681      20.4644     27.20722         5     0.827     0.505  29.73   0
       108    929.3780    749.4752 300.2191397 +22.8669868     535.4492     72.53525      1.591     5.51     3.842417      20.4644     43.76707        13     1.166     0.858  28.86   0
       109    429.7987    748.8884 300.0636950 +22.7171130      352.192      72.4613      1.520     5.64     3.782007      20.4644     43.11301         7     1.119     0.802  54.83   0
       110    385.7419    748.1919 300.0502126 +22.7037037     333.4423     72.51677      1.524     4.42     3.817425      20.4644     33.78835         7     1.085     0.511  22.27   0
       111    115.7290    747.1252 299.9665996 +22.6224155     677.3936     72.60911      1.867     5.11     3.838248      20.4644     58.98774        10     1.228     0.938 -28.87   0
       112    682.4017    747.0472 300.1429452 +22.7922991     245.9987     72.53525      1.255     4.47     3.762406      20.4644     36.67757         7     0.891     0.637  14.74   0
       113    473.6546    747.2821 300.0778661 +22.7298001     366.3413     72.59065      1.553     3.86     3.668297      20.4644     56.35105         7     0.972     0.620  44.71   0
       114    906.7702    744.8193 300.2136030 +22.8588780     408.2124     72.53525      1.469     2.28     3.959886      20.4644     53.60334         5     0.797     0.645  30.35   0
       115    280.2746    741.8218 300.0194767 +22.6702497     507.2432     72.53525      1.329     3.21     3.876259      20.4644     66.93387        11     0.991     0.784  21.59   0
       116    603.0617    732.3766 300.1230012 +22.7643106     376.3337     72.51677      1.319     3.74     3.590853      20.4644     48.73204         9     0.835     0.816 -78.28   0
       117    572.9676    730.6489 300.1141912 +22.7547952     615.9163     72.57219      1.482     3.71     3.656901      20.4644     58.12485        11     1.010     0.739  72.60   0
       118    594.9957    728.2631 300.1218264 +22.7607124     1442.492     72.49828      1.381     2.84     3.641786      20.4644     163.7177        20     1.085     0.990  49.83   0
       119    481.8145    729.9122 300.0860523 +22.7272612     389.2585      72.4798      1.544     4.23     3.691861      20.4644     54.21116         5     0.881     0.579   9.47   0
       120    989.4458    727.1763 300.2451250 +22.8785698     4546.585     72.55372      1.658     3.37      3.97725      20.4644     379.9405        34     1.324     1.221 -31.42   0
       121    514.1109    727.7165 300.0968195 +22.7363122      371.094     72.64602      1.378     4.21     3.717272      20.4644     41.77984         8     1.125     0.614  -7.02   0
       122    795.1362    724.2256 300.1854938 +22.8195230      103.378     72.51677      1.161     4.36     4.141592      20.4644     28.54217         5     0.756     0.717 -24.07   0
       123    676.2566    723.2797 300.1487570 +22.7836335     421.9507     72.57219      1.673     4.27     3.896318      20.4644     49.10905         8     0.971     0.685 -55.56   0
       124    977.8505    718.6451 300.2442811 +22.8726463     1716.351     72.55372      1.574     3.25     4.045012      20.4644     146.5995        25     1.209     1.128  63.36   0
       125    357.1834    712.7210 300.0528575 +22.6849631     359.4615     72.53525      1.640     5.19     3.851486      20.4644     30.84501         6     1.106     0.688 -23.37   0
       126    340.5758    712.3969 300.0477965 +22.6798905     917.9925     72.49828      1.678     3.73     3.863861      20.4644     80.96076        15     1.151     0.837 -26.82   0
       127    207.2632    713.0861 300.0061147 +22.6401098     340.3306     72.62756      1.546     3.75     3.881641      20.4644     39.76561         6     1.009     0.617 -37.40   0
       128    804.4080    709.8861 300.1930449 +22.8181821     2639.179     72.44281      1.543     3.02     4.160814      20.4644     285.1441        29     1.497     1.033   8.78   0
       129   1009.0746    708.7932 300.2572244 +22.8791655     1525.366      72.4798      1.565     3.19     4.129715      20.4644     149.6381        21     1.203     0.977 -12.13   0
       130     26.5240    699.9978 299.9542006 +22.5821394      864.274     72.44281      1.595     3.45     3.810967      20.4644     100.0483        16     1.147     0.983  19.25   0
       131    886.7145    695.9626 300.2232306 +22.8388361     661.6142     72.51677      1.767     3.47     4.279301      20.4644     57.12878        12     1.063     0.769  29.78   0
       132    189.6685    696.1661 300.0061439 +22.6299794     622.3759     72.53525      1.474     2.37     3.935325      20.4644     92.95824         9     0.869     0.654  25.45   0
       133    922.6611    686.7503 300.2374345 +22.8469551     149400.3     72.59065      1.583     3.18     4.317508      20.4644     13945.03       165     1.477     1.450  33.33   0
       134    684.6680    690.5387 300.1620195 +22.7767526     360.5903     72.59065      1.331     3.68     4.099425      20.4644     46.27093         8     0.921     0.679  38.62   0
       135    775.0837    687.1615 300.1912911 +22.8028707      798.412     72.49828      1.412     3.38     4.138789      20.4644     92.53674        13     1.106     0.765 -10.94   0
       136    955.2260    679.4677 300.2499582 +22.8546146     376.8966     72.51677      1.485     3.31     4.383822      20.4644      52.1789         7     0.869     0.584  74.74   0
       137    608.9133    675.4999 300.1433101 +22.7497351     1699.382     72.70134      1.435     2.78     4.097209      20.4644     205.0778        18     1.022     0.974  21.67   0
       138    790.1204    672.8885 300.2006165 +22.8032756     9416.074      72.6829      1.422     2.84     4.156382      20.4644     1047.759        42     1.216     1.156  37.76   0
       139    271.2197    673.4612 300.0388787 +22.6479225     256.9375      72.4798      1.959     5.16     3.972983      20.4644     27.62625         5     1.066     0.705  79.60   0
       140    291.5393    667.8832 300.0470106 +22.6524150     4860.776     72.64602      1.486     2.90     3.964301      20.4644     599.0627        32     1.216     1.115  40.93   0
       141      5.2876    666.2129 299.9585826 +22.5660806      1647.98     72.27612      1.834     3.51     3.491041      20.4644     155.9518        25     1.320     1.195  41.90  16
       142    373.6619    665.8726 300.0732094 +22.6764601     1134.024     72.57219      1.403     2.72     3.901979      20.4644     162.5851        14     0.949     0.883  46.89   0
       143    249.2034    663.9143 300.0351347 +22.6385816     485.0247      72.4613      1.486     3.58     3.963013      20.4644      50.6982         8     0.768     0.728  24.22   0
       144    581.9739    661.5995 300.1394378 +22.7376713     700.4125     72.49828      1.366     3.25     4.254575      20.4644     100.5919        11     0.988     0.770  55.17   0
       145    573.5762    653.6163 300.1394171 +22.7328627      3270.85     72.53525      1.369     2.52     4.334381      20.4644     447.6175        27     1.110     1.038  52.48   0
       146    563.7756    647.4416 300.1383718 +22.7281530     1436.892     72.59065      1.278     2.64     4.398048      20.4644     174.7905        16     0.949     0.906 -14.97   0
       147    957.5533    645.7142 300.2616537 +22.8456126      455.994     72.51677      1.418     3.06     4.431727      20.4644     51.59405         7     0.871     0.745 -55.57   0
       148    760.1334    646.4123 300.1998746 +22.7866881     332.5712     72.51677      1.512     3.46     4.257044      20.4644     34.65017         5     0.760     0.454  18.18   0
       149    227.0697    643.2844 300.0349559 +22.6260257     696.7443     72.64602      1.492     4.00      3.93975      20.4644     84.33076        14     1.221     0.767  67.57   0
       150    241.2570    641.6725 300.0398910 +22.6298174      703.218     72.57219      1.747     3.39     3.938643      20.4644     73.33955        13     0.994     0.918  30.20   0
       151   1010.9632    638.8853 300.2805342 +22.8596416     612.8431     72.51677      1.516     2.85     4.430971      20.4644     75.08143        11     0.989     0.715  -9.96   0
       152    298.2284    638.5276 300.0586298 +22.6459975     410.2702     72.53525      1.438     5.04     3.937066      20.4644     43.49963         9     1.255     0.572  67.24   0
       153    267.1599    638.8165 300.0488737 +22.6367650     569.2945     72.55372      1.448     3.16     3.935319      20.4644     67.96304         8     0.869     0.686  18.88   0
       154    587.6290    637.8293 300.1489231 +22.7325410     459.0716     72.49828      1.291     3.00     4.494391      20.4644     76.06431         9     0.897     0.737  50.90   0
       155    488.5149    637.0399 300.1183207 +22.7026119     1819.208     72.51677      1.404     2.66     3.993442      20.4644     242.0742        23     1.174     1.012  55.12   0
       156    522.5884    636.3195 300.1291620 +22.7126169     348.3189     72.51677      1.235     2.82     4.289927      20.4644     45.58768         5     0.694     0.483 -79.33   0
       157    142.5009    631.9189 300.0123592 +22.5974038     20089.21     72.66446      1.599     3.24     3.964569      20.4644     2280.295        64     1.427     1.306  45.63   0
       158     63.6877    633.6271 299.9873128 +22.5742550     762.6638     72.51677      2.045     2.76     3.922678      20.4644     100.2164        10     1.015     0.696  31.67   0
       159    573.6938    632.3618 300.1463602 +22.7267954     1037.158     72.53525      1.368     2.49     4.541179      20.4644     138.9524        16     1.070     0.842 -15.33   0
       160    608.8567    631.5976 300.1575589 +22.7371123     393.4841     72.49828      1.421     4.56     4.576253      20.4644     45.19473         9     0.981     0.745 -54.36   0
       161    945.5890    628.1849 300.2636181 +22.8369930     291.6297      72.4613      1.553     4.40     4.429782      20.4644     32.47287         6     0.910     0.651  -6.26   0
       162    326.9916    623.7065 300.0723918 +22.6503679     309.6559     72.44281      1.321     4.29      3.95049      20.4644     35.40318         6     0.936     0.561 -89.75   0
       163    991.5453    618.8373 300.2809908 +22.8480664     999.7368     72.53525      1.471     3.04      4.42881      20.4644     122.6818        16     1.127     0.897  20.63   0
       164     88.5349    616.1306 300.0007176 +22.5766895     1436.287     72.59065      1.929     4.85     3.990357      20.4644     105.6638        27     1.612     1.118  78.26   0
       165    858.1969    616.8679 300.2400428 +22.8075719     436.3009     72.51677      1.270     2.95     4.496123      20.4644     66.19088         9     0.995     0.667  -9.75   0
       166    154.4516    616.6421 300.0210370 +22.5966055     378.4949     72.53525      1.450     4.33     3.926785      20.4644     46.63495         8     0.983     0.748 -18.48   0
       167    536.6717    613.0323 300.1411130 +22.7101515     424.1818     72.53525      1.507     4.70     4.572369      20.4644     52.38196        11     1.080     0.951   4.72   0
       168    931.7405    611.5170 300.2647148 +22.8280568     775.1105     72.62756      1.815     3.09     4.428054      20.4644     75.95866        14     1.043     0.910  33.24   2
       169    329.5494    612.0836 300.0769637 +22.6477991     339.5409     72.53525      1.214     3.56     3.960779      20.4644     46.34209         7     0.962     0.608 -14.63   0
       170    493.6474    605.3723 300.1302074 +22.6950590       856.07     72.55372      1.506     3.16     4.131851      20.4644     100.0879        14     1.020     0.890  31.08   0
       171    641.7051    603.8932 300.1767915 +22.7389984     470.7489     72.70134      1.317     3.33     4.738581      20.4644     65.92974         9     1.008     0.801  30.31   0
       172    688.8071    602.4559 300.1919318 +22.7526964       302.95     72.51677      1.114     3.24     4.561826      20.4644     60.30472         8     0.927     0.606 -16.60   0
       173    659.1561    602.2601 300.1827582 +22.7437575     595.7115     72.55372      1.422     2.42     4.685673      20.4644     75.97007         7     0.716     0.643  13.65   0
       174    538.0080    601.0951 300.1454073 +22.7071246     1006.166     72.42431      1.417     2.59     4.638899      20.4644     135.8701        15     1.075     0.799  -0.84   0
       175    971.7223    596.8629 300.2819469 +22.8358162     3323.769     72.60911      1.505     2.99     4.426401      20.4644     341.9829        27     1.182     1.096   2.70   0
       176    503.4275    596.6046 300.1361004 +22.6954727     1664.892     72.49828      1.270     2.30     4.286873      20.4644     256.5329        18     0.985     0.941  15.79   0
       177    868.4649    594.1505 300.2506253 +22.8041195     281.2486     72.57219      1.109     2.75     4.373319      20.4644     48.64305         7     0.845     0.583   5.83   0
       178     65.2894    590.0771 300.0019584 +22.5622445     5230.575     72.66446      1.639     3.01     3.957976      20.4644     604.2626        40     1.336     1.275  29.77   0
       179   1010.7808    586.8375 300.2973890 +22.8446279     225.6272     72.55372      1.027     2.48     4.429817      20.4644     45.93653         6     0.729     0.552  45.00   0
       180    532.2486    587.0459 300.1481784 +22.7013649     150.4789     72.55372      1.234     3.71     4.629152      20.4644     36.70142         5     0.831     0.477  41.98   0
       181    366.7968    583.3400 300.0978888 +22.6507152     9000.777     72.51677      1.377     2.48     4.160679      20.4644     1081.905        42     1.217     1.130  49.47   0
       182    489.2209    580.3959 300.1369436 +22.6865618     9103.751     72.49828      1.321     2.43     4.278637      20.4644     1151.034        41     1.187     1.091  53.09   0
       183    900.9591    574.5474 300.2671264 +22.8082164     1747.038     72.53525      1.342     2.55     4.315919      20.4644     250.3414        21     1.070     0.979  66.96   0
       184    985.6339    571.8680 300.2944070 +22.8327973     12506.23     72.53525      1.525     3.03     4.426364      20.4644     1212.015        47     1.288     1.239  77.82   0
       185    549.8534    569.9987 300.1591975 +22.7017451     11798.76     72.49828      1.335     2.54     4.804498      20.4644      1647.21        40     1.154     1.066  59.23   0
       186    719.2825    566.0785 300.2132452 +22.7513763     571.9711     72.64602      1.472     2.69     4.391262      20.4644      71.0668        10     0.885     0.728  19.44   0
       187    277.1746    565.4028 300.0758379 +22.6187011     1397.305      72.4798      1.526     2.97     3.902086      20.4644     155.4061        19     1.155     0.901  26.18   0
       188    435.1028    564.7333 300.1251873 +22.6658468     387.8461     72.62756      1.452     4.18      4.27611      20.4644     37.67749         8     0.924     0.716 -58.06   0
       189    524.2319    563.1642 300.1534404 +22.6921055     458.7442     72.55372      1.247     3.02     4.666678      20.4644     69.37445         8     0.855     0.682 -70.41   0
       190    481.5004    558.1412 300.1417695 +22.6778586     4476.848     72.62756      1.321     2.42     4.410545      20.4644     579.1942        26     1.110     0.991  62.07   0
       191    824.3898    558.1939 300.2485651 +22.7805896     780.8719     72.38729      1.295     2.81     4.022299      20.4644     92.15166        12     0.970     0.749   3.57   0
       192    459.7040    556.5515 300.1355016 +22.6708705     1256.753     72.57219      1.328     2.37     4.377416      20.4644     183.2315        15     0.958     0.857  36.90   0
       193    213.8978    555.9756 300.0592238 +22.5970251     653.9379     72.44281      1.475     3.70     3.902086      20.4644      85.5896        15     1.121     0.931   5.06   0
       194    901.3043    553.8253 300.2739656 +22.8023648     1673.129      72.4613      1.520     2.97      4.22297      20.4644     175.2811        20     1.193     0.941 -45.43   0
       195    781.8600    550.8849 300.2376823 +22.7657534     821.5843     72.64602      1.358     2.58     4.054352      20.4644     117.3128        13     0.945     0.805  75.75   0
       196    598.1426    545.7269 300.1821189 +22.7092426     201652.7     72.57219      1.324     2.36       4.9026      20.4644     28790.45       196     1.409     1.346   1.36   0
       197    422.1138    551.8358 300.1253345 +22.6582514     465.7327     72.51677      1.713     3.30     4.348333      20.4644     57.07947         8     0.928     0.714  10.96   0
       198    875.2691    549.1823 300.2673553 +22.7932353      296.744     72.55372      1.422     4.21     4.008953      20.4644     48.43561         6     0.763     0.662 -12.22   0
       199    284.2254    545.5837 300.0844681 +22.6151269     3494.829     72.55372      1.426     2.59     3.902086      20.4644     450.3015        28     1.151     1.095 -76.40   0
       200    850.1688    541.7715 300.2619365 +22.7835901     603.1503     72.53525      1.421     2.43     3.901149      20.4644     88.75233        10     0.971     0.627 -41.12   0
       201    463.8179    541.8359 300.1415617 +22.6678783     208.3208     72.53525      1.254     4.43     4.491484      20.4644     24.67698         6     1.165     0.478  63.18   0
       202    986.6022    547.6148 300.3025878 +22.8261160    -199.8077     72.36877      1.258     3.50       4.4258      20.4644     33.02102         5     1.034     0.342 -20.75   0
       203    488.6886    526.0347 300.1544353 +22.6707939     2692.148     72.51677      1.356     2.28     4.594972      20.4644     387.4485        23     1.046     0.979  78.91   2
       204    332.7143    528.3508 300.1051470 +22.6247154       365.06     72.51677      1.444     5.03     4.326728      20.4644     40.29056         9     0.957     0.832  39.89   0
       205    900.2208    522.8131 300.2837010 +22.7931278     414.8788     72.49828      1.408     1.90      4.17517      20.4644     60.80206         6     0.650     0.562 -36.83   0
       206    719.7357    521.5056 300.2278643 +22.7387073      242.667     72.64602      1.071     2.71     4.414742      20.4644     50.44903         5     0.717     0.469 -18.50   0
       207    806.3043    514.7424 300.2570408 +22.7626887     395.2073     72.60911      1.251     2.85     4.082497      20.4644     67.44749         7     0.889     0.530 -29.28   0
       208    885.8196    512.3316 300.2826145 +22.7858038     1695.238     72.51677      1.313     2.50      4.06367      20.4644     229.2809        20     1.032     0.938  23.35   0
       209    772.5823    512.2845 300.2473281 +22.7518844     321.3186     72.49828      1.270     4.54     4.237461      20.4644     41.10609         6     0.953     0.615 -28.48   0
       210     16.2304    510.7986 300.0124653 +22.5247902     888.1723     72.49828      1.911     4.46     3.857337      20.4644     92.59502        18     1.469     0.962 -11.46   0
       211    756.9646    509.9886 300.2432063 +22.7465478      2763.41     72.53525      1.352     2.59     4.313981      20.4644     394.1284        25     1.049     1.021  17.21   0
       212    967.1481    507.3521 300.3095966 +22.8087192     275.8023     72.57219      1.496     4.65     4.418957      20.4644     29.47917         6     1.353     0.453  -6.87   0
       213    661.8752    506.5458 300.2146958 +22.7170800     381.9897     72.57219      1.275     3.31     4.603053      20.4644     68.23921         9     0.922     0.765 -17.89   0
       214    543.9745    505.7796 300.1782253 +22.6815419       851.18     72.53525      1.399     2.49     4.744991      20.4644     114.2083        12     0.888     0.841  60.86   0
       215   1014.4332    503.9214 300.3254623 +22.8218864     1339.834     72.51677      1.480     3.04     4.434815      20.4644     135.2285        21     1.168     1.063  51.82   0
       216    886.0411    502.3167 300.2859362 +22.7829919     2133.839     72.49828      1.576     3.17      4.06367      20.4644     283.5502        26     1.598     0.959  72.89   0
       217   1000.1217    503.0696 300.3212739 +22.8173580     1003.086     72.64602      1.649     3.39     4.430091      20.4644     84.83459        11     0.964     0.735 -18.67   0
       218    639.0748    500.6002 300.2095241 +22.7085427     743.7698      72.4058      1.812     3.33     4.731647      20.4644     80.10426        11     1.068     0.695  72.69   2
       219    924.1559    497.5082 300.2993840 +22.7930202     4215.042     72.51677      1.370     2.46     4.366314      20.4644      589.561        25     1.070     1.053 -69.86   0
       220    477.8688    499.1235 300.1598069 +22.6598245     331.2403     72.62756      1.108     2.10     4.622849      20.4644     81.64683         8     0.789     0.614  41.05   0
       221    662.0574    493.9521 300.2188424 +22.7135168     186.5303     72.59065      1.155     3.94     4.581822      20.4644     44.81583         5     1.135     0.465 -18.77   0
       222    585.0103    493.1152 300.1951162 +22.6901979     455.1924     72.49828      1.456     3.02     4.835518      20.4644     42.57978         8     0.816     0.663 -46.87   0
       223   1016.1805    488.0154 300.3311732 +22.8178365     758.8964     72.51677      1.383     3.31      4.43549      20.4644     86.47925        10     0.964     0.722 -72.59   0
       224    156.1489    487.5898 300.0634798 +22.5600875     1056.437     72.55372      1.490     2.65     3.982818      20.4644     153.1572        19     1.181     0.988 -14.85   0
       225    816.9427    481.3452 300.2712031 +22.7562770     373.2603     72.59065      1.356     3.83     4.219374      20.4644     42.81677         6     0.764     0.622  67.91   0
       226    148.8713    477.8164 300.0643911 +22.5551010     435.8628     72.53525      1.528     3.99     4.006487      20.4644      54.0323        10     1.151     0.843 -81.85   0
       227   1012.1388    477.1608 300.3334372 +22.8135062      227.399     72.53525      1.253     4.48     4.441201      20.4644     35.47354         8     0.868     0.658 -40.78   0
       228    756.5346    471.6171 300.2555333 +22.7353937     278.1851     72.51677      1.165     3.60     4.425223      20.4644      56.4987         9     1.082     0.676 -37.73   0
       229    645.5593    469.6192 300.2216046 +22.7015853     204.3501     72.55372      1.159     4.70     4.666725      20.4644     41.26204         7     0.901     0.697  14.45   0
       230    365.7061    470.4505 300.1342128 +22.6179818     338.0565     72.60911      1.250     3.43     4.591225      20.4644     32.05492         5     0.741     0.460 -19.10   0
       231    697.6588    468.0645 300.2383403 +22.7167420     817.1999     72.57219      1.209     2.30      4.47675      20.4644     110.8226         9     0.813     0.667  21.91   0
       232   1011.9361    460.4409 300.3388034 +22.8086384     539.8965     72.49828      1.421     2.49     4.471208      20.4644     66.82748         9     0.864     0.630  59.73   0
       233    758.5812    460.1330 300.2599001 +22.7327066     871.9345     72.51677      1.273     2.93     4.405567      20.4644     116.2521        15     1.067     0.801 -28.56   0
       234    915.5820    456.3653 300.3100705 +22.7786273     895.7473     72.53525      1.326     3.18     4.372614      20.4644     116.2099        15     1.080     0.878  45.98   0
       235    874.0488    454.2472 300.2978065 +22.7655857     329.2729     72.57219      1.406     3.74     4.139231      20.4644     31.86313         5     0.821     0.489  54.81   0
       236    899.9983    452.6389 300.3064206 +22.7728914     689.3264     72.55372      1.277     2.65     4.291322      20.4644     106.3689        12     0.974     0.837 -31.79   0
       237    880.0702    453.1754 300.3000321 +22.7670801     347.7024     72.53525      1.359     2.90     4.179204      20.4644     43.57561         7     0.732     0.658  -8.39   0
       238    644.1972    450.6839 300.2273285 +22.6957375     3244.695      72.4613      1.237     2.08     4.679991      20.4644     533.2825        24     1.042     0.949  50.63   0
       239   1004.8482    449.7129 300.3400754 +22.8034328     522.1741     72.53525      1.504     3.70     4.486341      20.4644     57.46968         9     0.882     0.757  72.90   0
       240    120.6302    441.7495 300.0673233 +22.5362843     502.5013     72.55372      1.518     2.86     4.186501      20.4644     58.09859         9     0.861     0.732 -70.70   0
       241    649.2560    438.4042 300.2328913 +22.6937247     192.5205     72.49828      1.170     3.46     4.646824      20.4644     39.00809         5     0.738     0.468  14.83   0
       242    483.8897    437.6577 300.1816390 +22.6439770     440.7128     72.60911      1.282     4.03     4.838149      20.4644     50.36045         9     1.027     0.679 -36.55   0
       243    415.9372    438.2930 300.1602833 +22.6238004      289.335     72.64602      1.266     4.29      4.70364      20.4644     41.17048         7     0.857     0.613  25.28   0
       244    927.4318    429.7551 300.3224062 +22.7745247     549.7354     72.59065      1.261     2.53     4.485785      20.4644      81.7605        10     0.944     0.683  26.30   0
       245    210.1531    429.9015 300.0989979 +22.5597206     890.3043     72.57219      0.507    -1.45     4.288724      20.4644     605.3911         5     0.422     0.323 -53.96   0
       246   1013.9725    428.4744 300.3498180 +22.8000567     993.1778     72.53525      1.452     3.29     4.528442      20.4644     111.2972        17     1.054     1.010   8.47   0
       247    754.6963    424.5614 300.2702387 +22.7213213     1023.955     72.51677      1.294     2.29     4.362069      20.4644      182.029        16     1.031     0.893  65.81   0
       248    550.8041    425.2139 300.2065114 +22.6604479     360.2014     72.36877      1.148     2.39     4.890749      20.4644     56.79939         8     0.759     0.661  38.80   0
       249    258.5742    422.8360 300.1163479 +22.5722057      628.137     72.55372      1.259     2.96     4.547945      20.4644     103.8733        10     0.979     0.678   4.71   0
       250     98.3107    421.0862 300.0670948 +22.5236632     390.2406     72.70134      1.746     5.63      4.29723      20.4644     36.73481         9     1.198     0.746 -50.63   0
       251    321.0564    418.3712 300.1372306 +22.5896493      3812.97     72.53525      1.363     2.58     4.787091      20.4644     467.5895        29     1.213     1.000  53.20   0
       252    200.1108    419.0167 300.0994091 +22.5535863     1209.166      72.4613      0.423     2.32     4.305063      20.4644     1069.517         5     0.435     0.375  23.19   0
       253    268.2946    413.2332 300.1224881 +22.5723622     7696.987     72.51677      1.352     2.49     4.649164      20.4644     907.7769        37     1.195     1.075  52.43   0
       254    409.1191    407.4164 300.1681852 +22.6128910     4825.067     72.53525      1.291     2.38     4.806002      20.4644     706.0923        27     1.056     1.003  54.95   0
       255    653.3824    404.2003 300.2452808 +22.6851333     18624.44     72.44281      1.249     2.29     4.622091      20.4644     2407.365        54     1.187     1.103  66.64   0
       256    670.8708    404.3776 300.2506714 +22.6904213     1013.775     72.57219      1.952     5.47     4.502813      20.4644     81.59831        20     1.657     0.962 -49.14   0
       257    496.7540    403.9930 300.1965724 +22.6381619     411.5551     72.55372      1.638     2.26      4.91954      20.4644     56.64517         5     0.757     0.453  23.15   0
       258    280.2114    402.2278 300.1297666 +22.5727741     295.9536     72.53525      1.431     3.60      4.76671      20.4644     44.35474         6     0.795     0.512  44.15   0
       259    896.9434    400.7848 300.3223031 +22.7570709     211.6456     72.51677      1.268     3.35     4.456595      20.4644     41.75784         5     0.810     0.478  59.50   0
       260    273.3336    391.2851 300.1311795 +22.5675714     308.0402     72.62756      1.169     4.13     4.753902      20.4644     54.63886         6     0.723     0.674  12.36   0
       261     68.4365    390.1851 300.0678418 +22.5058393      140.966     72.53525      0.960     3.44      4.56633      20.4644     29.04375         5     1.177     0.290 -35.80   0
       262    987.0828    386.9132 300.3549214 +22.7800595     864.4775     72.64602      1.466     3.16     4.538604      20.4644     105.2963        13     0.974     0.947   2.40   0
       263    523.8206    386.0158 300.2108342 +22.6411058     371.9446     72.51677      1.421     3.11      4.91954      20.4644     62.71838         6     0.975     0.511  42.90   0
       264    207.9141    384.2008 300.1131362 +22.5459315     1871.368     72.44281      1.374     2.88     4.486251      20.4644     219.1266        22     1.153     0.969  43.84   0
       265    594.0042    373.6584 300.2366997 +22.6585760     6602.338     72.49828      1.268     2.14     4.917686      20.4644     1106.176        32     1.093     1.014  76.61   0
       266   1007.6951    374.2047 300.3654773 +22.7825730     1139.126     72.44281      1.321     2.66     4.541712      20.4644     140.0212        17     1.043     0.894   3.48   0
       267    308.9912    373.0603 300.1481851 +22.5730243     642.1498     72.49828      1.259     2.28     4.895597      20.4644     97.58899         9     0.760     0.725  10.41   0
       268    853.7412    365.7430 300.3202066 +22.7340661     383.0918     72.60912      1.552     3.90     4.497044      20.4644     49.98794         6     0.903     0.595 -16.75   0
       269    165.8260    365.9637 300.1059706 +22.5280818     426.9583     72.55372      1.537     5.84     4.558085      20.4644     49.72774        11     1.013     0.948  19.01   0
       270    707.8470    364.0172 300.2752928 +22.6898950     411.1108     72.57219      1.225     3.03      4.47832      20.4644      77.1973        11     0.988     0.736  65.31   0
       271     13.7753    363.6242 300.0594796 +22.4818295     1347.074     72.49828      1.606     3.59     4.951097      20.4644     141.0206        19     1.212     1.020  44.06   0
       272    798.1696    362.4034 300.3039659 +22.7164717     1227.858     72.49828      1.441     2.76     4.581953      20.4644      158.547        18     1.253     0.858  66.36   0
       273    500.6101    359.8609 300.2120974 +22.6266404     6062.095      72.4798      1.263     2.21      4.91954      20.4644     997.2898        29     1.105     0.965  55.59   0
       274    989.7098    354.8909 300.3661351 +22.7716374     604.7835     72.70134      1.363     2.64      4.53979      20.4644     76.69614        11     0.972     0.689  10.65   0
       275    892.6455    354.4512 300.3360026 +22.7424639     1404.479     72.55372      1.294     2.25     4.524412      20.4644      188.831        18     1.051     0.887  30.00   0
       276    485.3860    348.4772 300.2110526 +22.6188103     474.9711     72.55372      1.215     2.36      4.91954      20.4644     80.11028        10     0.830     0.774  45.27   0
       277    568.0918    346.5020 300.2374439 +22.6430136      346.422     72.71976      1.163     2.32     4.923265      20.4644     80.90472         7     0.918     0.456  47.20   0
       278     12.1482    345.2946 300.0649224 +22.4760820     986.0333     72.60911      1.473     3.13     5.051923      20.4644     102.8768        19     1.131     1.005 -13.26   0
       279    846.2593    345.3702 300.3244861 +22.7259699     281.6255     72.55372      1.481     4.36     4.616787      20.4644     40.70639         5     0.766     0.705  39.01   0
       280    548.2557    344.4174 300.2319436 +22.6364741     366.9313     72.51677      1.348     2.66     4.920269      20.4644     44.22088         5     0.710     0.454  20.56   0
       281    865.4313    342.1660 300.3315038 +22.7307870     592.5366     72.55372      1.315     2.93     4.617664      20.4644     78.61729        10     0.875     0.787 -76.93   0
       282    146.6528    341.1091 300.1080767 +22.5152006     295.0456     72.59065      1.377     3.39     4.647172      20.4644     32.33411         5     0.790     0.420 -70.40   0
       283    388.1270    338.9690 300.1838687 +22.5869448      2471.26     72.53525      1.307     2.63     4.928374      20.4644     333.5847        24     1.196     0.912  57.26   0
       284    106.6505    336.5071 300.0971371 +22.5018896     918.1176     72.60911      1.346     2.55     4.688919      20.4644     142.3765        15     0.992     0.882 -43.24   0
       285    357.5351    328.4953 300.1777492 +22.5747719     30490.98     72.64602      1.303     2.22      4.89051      20.4644     4621.646        66     1.269     1.132  64.89   0
       286    892.3013    326.1874 300.3450682 +22.7342346     1302.623     72.44281      1.244     2.59     4.670908      20.4644     161.9063        14     0.928     0.822  28.32   0
       287    847.5975    323.9978 300.3318394 +22.7202261     340.4259      72.3132      1.310     4.03     4.795475      20.4644      38.3063         5     0.786     0.591   0.28   0
       288     53.7693    316.3106 300.0872581 +22.4802415     5056.001     72.49828      1.580     3.12     4.969793      20.4644     537.5317        36     1.314     1.172  46.26   0
       289    231.8089    315.0836 300.1429960 +22.5332499     461.5109      72.4798      1.332     3.24      4.71222      20.4644     55.49615        11     0.886     0.837  48.60   0
       290    807.4633    314.9796 300.3222539 +22.7056211     577.7408     72.49828      1.356     2.71     4.883753      20.4644     76.19033        11     0.973     0.783 -18.18   0
       291    455.9937    313.9438 300.2131101 +22.6000865     520.1035     72.51677      1.250     2.35     4.928608      20.4644     71.49048         9     0.756     0.724  25.28   0
       292    767.9571    308.2526 300.3121226 +22.6918622     2129.661     72.57219      1.330     2.33     4.706805      20.4644     311.8247        24     1.084     1.063  44.67   0
       293    576.3364    302.9142 300.2541559 +22.6329587      302.207     72.62756      1.142     1.86     4.961367      20.4644     59.89585         5     0.685     0.436 -69.95   0
       294    983.1010    301.5564 300.3813821 +22.7543219      675.616     72.53525      1.392     2.31     4.385627      20.4644     87.54035        10     0.855     0.736 -30.18   2
       295    837.1259    294.6398 300.3381013 +22.7086515     183.3591     72.51677      0.964     3.41     5.040414      20.4644     34.35814         5     0.750     0.449 -16.34   0
       296    429.7980    292.9203 300.2117785 +22.5862011     2110.441     72.44281      1.436     2.90     4.938039      20.4644     270.2009        23     1.242     0.934  70.96   0
       297    642.1452    292.0015 300.2781938 +22.6495274     368.0826      72.4613      1.236     2.54      5.01468      20.4644     63.30086         7     0.732     0.602   1.24   0
       298    861.5759    286.8373 300.3482563 +22.7137253     197.9237     72.55372      0.983     3.00     5.107778      20.4644     33.57213         5     0.734     0.444  68.23   0
       299    869.2157    285.8370 300.3509630 +22.7157240     541.8549     72.53525      1.381     3.96     5.075411      20.4644     103.0604        11     1.144     0.765 -12.59   0
       300    751.2302    283.6580 300.3148898 +22.6797853     320.8793     72.55372      1.264     2.44     4.655325      20.4644     65.94978         5     0.719     0.444 -17.25   0
       301      2.6870    283.3430 300.0820843 +22.4554670     432.4348     63.70182      1.335     3.53     5.215446      20.4644     68.46028         7     1.062     0.600  10.74  24
       302    505.6510    272.2378 300.2420998 +22.6029772     1166.996     72.55372      1.245     2.32     4.895091      20.4644     156.3704        17     0.955     0.890  75.16   0
       303    312.5657    272.4750 300.1819361 +22.5452110     136.2057     72.53525      1.071     3.09     4.784379      20.4644     51.78172         6     0.810     0.562  42.67   0
       304     78.4954    272.4358 300.1091758 +22.4750598      174.293     72.53525      1.074     3.22     4.986688      20.4644     41.46413         5     0.912     0.511 -42.96   0
       305    590.7374    270.3354 300.2692113 +22.6279091     285.1058     72.57219      1.726     3.74     4.996106      20.4644     35.11998         5     0.941     0.427  82.75   0
       306   1016.8259    268.4531 300.4026452 +22.7548904     321.7265     72.55372      1.136     3.40     4.163231      20.4644     54.37155         5     0.744     0.449 -21.23   0
       307    750.5186    264.2252 300.3209730 +22.6739860     2284.885     72.51677      1.228     2.25     4.793344      20.4644     280.2136        20     1.068     0.881  74.99   0
       308   1011.7895    258.6854 300.4042429 +22.7505742     3150.091      72.4798      1.423     2.43     4.173126      20.4644     435.3858        27     1.111     1.108 -86.67   0
       309    458.7566    247.8603 300.2354103 +22.5819295     563.2332     72.53525      1.216     2.25     4.862492      20.4644      116.258        11     0.880     0.751  46.05   0
       310    164.4190    242.3876 300.1456285 +22.4921837     478.5216     72.49828      1.057     2.33     4.940484      20.4644     95.79813        10     0.874     0.714  28.57   0
       311    133.6846    242.0842 300.1361734 +22.4828866      1402.44     72.64602      1.704     3.86     4.958895      20.4644     110.9289        22     1.356     1.083 -27.63   0
       312    871.0454    235.9989 300.3677028 +22.7019404     305.6798     72.53525      1.377     3.76     5.074654      20.4644     38.25225         5     0.664     0.613  89.95   0
       313    217.8856    234.2511 300.1648904 +22.5058678     454.7829     72.53525      1.326     2.64     4.808443      20.4644     72.74732         9     0.864     0.691 -17.03   0
       314   1012.8429    231.8481 300.4132781 +22.7431695     401.2246     72.55372      1.246     3.06     4.100267      20.4644     59.97778         6     0.943     0.608   3.18   0
       315     73.4606    231.3069 300.1209527 +22.4617444     387.2937     72.62756      1.300     3.47     4.970317      20.4644      49.3688         5     1.028     0.338 -18.83   0
       316    893.5054    228.2826 300.3772098 +22.7064417     323.2954     72.70134      1.015     2.67     5.052296      20.4644     63.68483         5     0.850     0.500  88.47   0
       317    821.9249    225.6346 300.3557498 +22.6842614     659.7224     72.53525      1.367     1.97     5.069175      20.4644       125.22        11     0.896     0.717  53.35   0
       318    412.6794    225.2047 300.2284188 +22.5616211     422.4874     72.44281      1.217     2.50     4.799678      20.4644     57.08123         7     0.788     0.588  68.70   0
       319    912.8680    218.9679 300.3862698 +22.7095561     305.5348     72.53525      1.041     2.36     4.998487      20.4644     57.75143         5     0.756     0.463 -20.74   0
       320    920.3384    214.6854 300.3899888 +22.7105594     2103.457     72.66446      1.391     2.34     4.948802      20.4644     299.3584        20     1.078     0.937  75.22   0
       321    338.8718    211.9507 300.2097525 +22.5357072     2203.206     72.51677      1.334     2.22     4.752778      20.4644     328.8666        23     1.060     1.010  62.03   0
       322    818.6506    206.4645 300.3609473 +22.6777692     543.3964     72.59065      1.158     2.73     4.903558      20.4644     72.84154         8     0.911     0.588  50.54   0
       323    416.8013    207.2050 300.2355398 +22.5576843     1055.493     72.35026      1.394     3.43     4.782948      20.4644     132.0868        16     1.114     0.849   4.09   0
       324    233.5394    199.1759 300.1811343 +22.5004849     879.7801     72.53525      1.416     2.54     4.760552      20.4644     105.1763        12     0.943     0.759  -1.35   0
       325    771.3838    196.0582 300.3495887 +22.6606324     1627.976     72.51677      1.267     2.40     4.872352      20.4644     216.2665        19     1.115     0.847  74.02   0
       326    836.3177    195.6863 300.3699512 +22.6799563     601.4121     72.66446      1.373     2.99     4.907571      20.4644     94.96737        10     0.977     0.700 -35.58   0
       327    203.5814    195.2917 300.1730789 +22.4903942     356.4545      72.4613      1.966     3.90     4.853296      20.4644     34.47321         5     1.001     0.435 -74.99   0
       328    255.0009    192.3205 300.1900316 +22.5049454     691.4203     72.42431      1.612     3.23      4.74264      20.4644      70.0209        13     1.023     0.868 -75.00   0
       329    775.3353    187.5064 300.3535940 +22.6593560     799.6024     72.64602      1.321     2.98      4.79416      20.4644     103.2774        12     0.939     0.874  83.30   0
       330    544.8409    188.4999 300.2814644 +22.5906493     209.5776     72.51677      1.035     2.10     4.805212      20.4644      57.8381         5     0.695     0.440 -26.14   0
       331    695.9977    186.7047 300.3291293 +22.6353816     1086.963     72.44281      1.213     2.15     4.758644      20.4644     211.4825        15     0.953     0.867  56.97   0
       332    891.3936    178.3455 300.3927486 +22.6914478     1398.149     72.51677      1.262     2.31     4.835517      20.4644     207.8378        17     1.019     0.856 -88.38   0
       333    622.1210    178.5273 300.3087662 +22.6109180     981.1462     72.66446      1.186     2.34     4.948204      20.4644      164.131        14     0.981     0.784  73.93   0
       334    903.4370    177.3985 300.3968116 +22.6947784     765.0706     72.55372      1.345     3.31     4.729949      20.4644     103.9279        11     0.979     0.840  48.11   0
       335    949.7209    176.8099 300.4114383 +22.7084551      271.298     72.49828      1.331     4.19     4.445719      20.4644     32.25111         6     0.775     0.648  -3.75   0
       336   1020.1527    167.6821 300.4363717 +22.7268964     1072.853     71.56807      1.522     2.52     4.267171      20.4644     164.7014        18     1.104     0.954  56.62  16
       337     44.0428    164.7235 300.1334055 +22.4338134     403.4393     72.51677      1.337     3.92     5.100203      20.4644     57.03767         9     1.078     0.743  20.10   0
       338    254.1234    160.6259 300.2000369 +22.4955792     758.4874     72.55372      1.511     3.54     4.718602      20.4644     92.30193        15     1.082     0.983  49.50   0
       339    136.8596    159.6045 300.1639098 +22.4601557     304.0602     72.49828      1.387     3.42     5.068286      20.4644     32.92722         5     0.798     0.425  20.98   0
       340    116.0586    155.4249 300.1587998 +22.4527231      2242.58     72.53525      1.484     2.64     5.083665      20.4644      268.264        27     1.240     1.080  64.97   0
       341    938.9736    152.7122 300.4159011 +22.6983082     748.4557     72.49828      1.289     2.45     4.326018      20.4644     117.6181        11     0.932     0.705  61.20   0
       342     65.5295    152.2554 300.1441247 +22.4366725     533.8004     72.55372      1.624     3.34     5.096268      20.4644     67.80452        10     1.010     0.751   9.55   0
       343    273.4150    148.7388 300.2098912 +22.4979434     5567.496     72.49828      1.408     2.39     4.732053      20.4644      826.334        32     1.207     1.065  62.86   0
       344    255.1596    149.7551 300.2038842 +22.4927671     391.6924     72.60911      1.084     2.35     4.745506      20.4644        66.85         5     0.732     0.414 -11.17   0
       345     57.7123    143.0536 300.1446792 +22.4316880     1348.193     72.57219      1.544     2.94     5.089314      20.4644     157.1255        20     1.153     1.052  56.89   0
       346    257.0073    139.6407 300.2077383 +22.4904153     701.3563     72.57219      1.409     2.15     4.766943      20.4644     100.3479         8     0.747     0.656  43.64   0
       347    917.6638    130.3385 300.4165098 +22.6854977     3541.027     72.57219      1.398     2.40     4.378552      20.4644     503.5826        29     1.187     1.083 -60.64   0
       348   1021.3849    129.1581 300.4492490 +22.7161807     2798.042     67.69974      1.474     2.79     4.268878      20.4644     367.3503        28     1.217     1.127  80.52  24
       349    467.1641    125.5621 300.2776905 +22.5493053     589.0626     72.60911      1.198     2.46     4.780355      20.4644      87.1906        10     0.814     0.759 -17.32   0
       350    219.8305    126.4146 300.2004658 +22.4754804     300.8321     72.53525      1.154     4.08     4.898831      20.4644     46.22263         7     0.968     0.492   1.83   0
       351    581.1918    123.6551 300.3138120 +22.5828932     226.0896     72.53525      1.118     2.15     4.832303      20.4644      55.1221         5     0.719     0.429 -20.80   0
       352    390.9853    117.0848 300.2567301 +22.5240598     508.8519     72.49828      1.382     3.56     4.519838      20.4644     69.56683        10     0.940     0.790  46.71   0
       353    395.6316    115.9257 300.2585518 +22.5251180     415.2774     72.55372      1.387     3.15     4.517056      20.4644     54.24692         8     1.009     0.676  21.45   0
       354    157.0316    114.5823 300.1847777 +22.4532698     697.5311     72.51677      1.352     3.18     5.142079      20.4644     75.57114         9     0.830     0.724 -49.10   0
       355    518.3888    112.8910 300.2977457 +22.5609993     1712.219      72.4798      1.240     2.16     4.673744      20.4644     245.0246        19     1.035     0.899  75.94   0
       356    446.4492    113.5810 300.2751272 +22.5396601     546.9722     72.53525      1.304     2.88     4.662226      20.4644     64.29079         8     0.928     0.568 -50.67   0
       357    580.1008    112.3202 300.3171473 +22.5793082     391.0399     72.66446      1.114     2.71     4.788338      20.4644     52.94054         6     0.814     0.557 -84.71   0
       358     55.6769    113.2429 300.1537118 +22.4225188     321.9539     72.51677      1.564     3.97     5.060588      20.4644     39.98745         6     0.892     0.507  45.13   0
       359    262.0138    108.6280 300.2193503 +22.4830063      352.506     72.53525      1.269     2.69     4.819791      20.4644     55.37694         7     0.801     0.599  24.29   0
       360    807.0256    102.7116 300.3909691 +22.6444531     379.4394      72.4798      1.247     2.78     4.317664      20.4644     65.53506         7     0.855     0.624  -3.38   0
       361    654.2374     98.7987 300.3446234 +22.5976098     233.3123     72.55372      1.161     2.81     4.520719      20.4644     41.17218         5     0.888     0.350  43.58   0
       362    952.5732     96.9244 300.4382325 +22.6863265     345.5117     72.53525      1.320     2.28     4.273988      20.4644     53.40524         5     0.715     0.552  12.38   0
       363    292.4309     92.6161 300.2340015 +22.4875162     6047.875     72.51677      1.435     2.49     4.722161      20.4644     830.0867        35     1.241     1.094  76.70   0
       364    798.8456     93.5018 300.3914050 +22.6393569     373.4298     72.57219      1.226     3.61     4.343779      20.4644     48.04396         8     0.937     0.610  63.81   0
       365    703.6579     94.5565 300.3613965 +22.6111793     170.5924     72.51677      0.952     3.24      4.62087      20.4644     41.00004         5     0.714     0.478  14.80   0
       366    143.3587     91.9437 300.1878666 +22.4426719     804.9999     72.51677      1.552     4.30     5.170759      20.4644     103.5396        14     1.411     0.932  57.61   0
       367    921.8289     90.4958 300.4307271 +22.6752815     299.8777      72.4613      1.175     3.65     4.292611      20.4644     63.20107         6     0.808     0.474  14.14   0
       368    264.3152     86.6393 300.2271944 +22.4773787     367.1124     72.51677      1.222     3.88     4.862014      20.4644     40.45398         6     0.930     0.465 -89.48   0
       369    768.4771     84.4724 300.3848662 +22.6276741     173.5888     72.62756      1.388     3.77     4.653083      20.4644     24.77445         6     1.010     0.404  18.49   0
       370    307.7060     83.7921 300.2416135 +22.4895555     234.1318     72.42431      1.284     4.75       4.6656      20.4644     41.40985         8     0.981     0.869 -17.48   0
       371     54.1893     83.2465 300.1629736 +22.4134598     380.5104     72.55372      1.467     3.95     5.053631      20.4644      48.3064         9     0.987     0.622 -54.72   0
       372    538.5638     78.0097 300.3153358 +22.5570121     6332.647     72.53525      1.347     2.49     4.494823      20.4644     816.1849        33     1.198     1.010  68.52   0
       373    423.9143     77.8830 300.2796865 +22.5226540     741.0381     72.66446      1.444     2.97     4.447198      20.4644     87.30258        11     0.937     0.772  34.10   0
       374    595.5309     72.8130 300.3347609 +22.5725689     358.9453     72.55372      1.247     2.14     4.847852      20.4644     59.55724         6     0.679     0.606 -17.01   0
       375    558.8100     71.7984 300.3236538 +22.5612866     271.7381     72.35026      1.183     2.68     4.573933      20.4644     44.95284         6     0.760     0.528  48.30   0
       376    732.4722     69.5482 300.3784829 +22.6126094     329.8143     72.53525      1.058     2.78     4.882634      20.4644     60.39241         6     0.856     0.430  19.83   0
       377    790.8405     67.9206 300.3972026 +22.6296043     913.4456     72.51677      1.546     3.32     4.538342      20.4644     115.9253        10     0.984     0.688  46.35   0
       378    883.6039     66.7082 300.4265175 +22.6570047      525.233     72.44281      1.306     2.19     4.424911      20.4644     72.88967         8     0.811     0.597   0.35   0
       379    906.5740     62.9414 300.4349020 +22.6627914     313.3286     72.53525      2.544     4.27     4.351848      20.4644     30.66661         5     0.802     0.649   8.85   0
       380    231.5249     61.7165 300.2250758 +22.4603983     414.6128     72.62756      1.117     2.51     4.998668      20.4644     79.49889         7     0.810     0.610 -33.44   0
       381    589.7563     60.5293 300.3369442 +22.5673090     592.2098     72.49828      1.611     3.61     4.796003      20.4644     62.70646        10     0.945     0.817 -54.93   0
       382    666.8589     58.1069 300.3617469 +22.5896863     6191.079     72.59065      1.339     2.50     4.706775      20.4644     813.0091        31     1.200     1.006  77.58   0
       383    441.7554     56.9896 300.2920118 +22.5219906     1580.005     72.55372      1.444     2.51       4.4728      20.4644      202.071        21     1.279     0.907  66.60   0
       384    708.0192     55.5454 300.3754018 +22.6012659     835.1659     72.51677      1.442     2.68     4.814837      20.4644     131.2708        13     1.029     0.829 -88.52   0
       385    723.8914     51.4574 300.3816730 +22.6048392     692.5626     72.59065      1.551     2.73     4.875741      20.4644     81.20306         9     0.878     0.633  57.33   0
       386    993.9164     49.5647 300.4664832 +22.6850634     532.6093     72.49828      1.345     2.61     4.253055      20.4644      82.1216         9     0.903     0.669 -27.97   0
       387     37.5347     50.4526 300.1684283 +22.3990529     236.2956     72.57219      1.144     3.64     5.023925      20.4644     41.83558         6     0.974     0.392 -20.14   0
       388    190.7047     49.3187 300.2164018 +22.4446108     646.7187      72.6829      1.604     2.81      5.14061      20.4644     75.08459        10     0.977     0.714  -1.96   0
       389    762.5092     46.9820 300.3951591 +22.6151059     434.5983      72.4613      1.240     3.13     4.777675      20.4644     66.68697        11     0.956     0.800 -86.64   0
       390    711.1791     43.0035 300.3804518 +22.5986044     2700.179     72.49828      1.361     2.48     4.872084      20.4644     352.8558        24     1.116     0.991 -62.77   0
       391    351.7580     44.0244 300.2682082 +22.4913198     423.2238     72.59065      1.415     2.59     4.373473      20.4644      74.6028         9     0.886     0.654  14.20   0
       392    726.1930     41.7776 300.3855278 +22.6027440     819.9907     72.51677      1.611     5.26      4.89473      20.4644     82.13284        12     1.488     0.605  52.03   0
       393      4.8429     37.4220 300.1624948 +22.3855162     725.9724     71.56807      1.498     3.50     4.891931      20.4644     102.9098        15     1.179     0.931  11.92  16
       394    797.6382     34.6630 300.4101020 +22.6220717     1398.035     72.53525      1.287     2.45     4.664793      20.4644     198.3805        18     1.049     0.935  71.19   0
       395    958.1618     33.4843 300.4605412 +22.6697441     251.4488     72.51677      1.189     4.17     4.253193      20.4644     37.80565         6     1.015     0.490   6.43   0
       396    875.7290     29.0484 300.4362690 +22.6438147     184.1222     72.51677      1.239     4.76     4.609893      20.4644      35.8602         6     0.814     0.791 -71.33   0
       397    735.5219     27.8634 300.3929449 +22.6015332     849.0729     72.62756      1.556     2.64     4.909359      20.4644     107.8932        13     0.987     0.811 -48.96   0
       398    541.1034     26.9374 300.3326809 +22.5430900     1041.087     72.62756      1.342     2.76     4.468397      20.4644     130.4815        14     0.996     0.805  76.78   0
       399    114.0849     27.2620 300.1997325 +22.4153252     430.6713     72.66446      1.361     3.18     5.290704      20.4644     58.97784         7     0.872     0.562  27.65   0
       400    444.9601     25.2306 300.3033029 +22.5138216     804.6588     72.53525      1.430     2.79     4.379736      20.4644     111.2325        12     0.959     0.813  78.42   0
       401    826.9699     23.9620 300.4227144 +22.6277674     413.7216     72.55372      1.305     2.54     4.712237      20.4644     66.42883         8     0.814     0.635 -32.40   0
       402    784.3411     15.7493 300.4120871 +22.6126533     741.9633     72.59065      1.398     2.50     4.798152      20.4644     94.99035        12     0.952     0.771  41.37   0
       403    277.2138   1012.0095 299.9306490 +22.7468152     2507.365     72.44281      5.965    22.63     55.02281      20.4644     97.88364       114     5.656     2.516 -12.47  19
       404      8.5970     15.4553 300.1707799 +22.3803331     490.8271      72.4798      1.488     3.81     4.887417      20.4644      49.1073         8     1.046     0.498  -1.22   0
       405    291.5797   1007.2227 299.9366741 +22.7497536     2460.717     72.53525      4.637    19.79     44.14428      20.4644     63.10772       106     3.973     2.737 -66.48  19
       406    245.0759    997.9526 299.9252302 +22.7331416     4531.078     72.53525      8.224    33.68     62.12343      20.4644     108.5541       327     7.416     4.244 -83.29  19
       407    265.3334    996.0793 299.9321386 +22.7386833     5703.402     72.64602     11.748    46.97     51.60267      20.4644     107.3991       612    11.416     5.362 -54.88  19
       408    283.2717    985.3091 299.9412213 +22.7409780      8067.26     72.70134      8.903    29.42     37.65999      20.4644     164.6175       704    10.004     4.925  61.75  27
