#   1 NUMBER                 Running object number                                     
#   2 X_IMAGE                Object position along x                                    [pixel]
#   3 Y_IMAGE                Object position along y                                    [pixel]
#   4 ALPHA_J2000            Right ascension of barycenter (J2000)                      [deg]
#   5 DELTA_J2000            Declination of barycenter (J2000)                          [deg]
#   6 FLUX_APER              Flux vector within fixed circular aperture(s)              [count]
#   7 FLUXERR_APER           RMS error vector for aperture flux(es)                     [count]
#   8 FLUX_RADIUS            Fraction-of-light radii                                    [pixel]
#   9 FWHM_IMAGE             FWHM assuming a gaussian core                              [pixel]
#  10 BACKGROUND             Background at centroid position                            [count]
#  11 THRESHOLD              Detection threshold above background                       [count]
#  12 FLUX_MAX               Peak flux above background                                 [count]
#  13 ISOAREA_IMAGE          Isophotal area above Analysis threshold                    [pixel**2]
#  14 A_IMAGE                Profile RMS along major axis                               [pixel]
#  15 B_IMAGE                Profile RMS along minor axis                               [pixel]
#  16 THETA_IMAGE            Position angle (CCW/x)                                     [deg]
#  17 FLAGS                  Extraction flags                                          
         1    861.7831     19.1815 300.4335242 +22.6231912     2067.218     72.21671      1.461     2.72     4.826497     20.37972      234.718        26     1.208     1.120  82.37   0
         2    244.9996     14.5180 300.2430752 +22.4371703     1024.877      72.1062      1.500     4.29     5.117226     20.37972     106.2711        15     1.303     0.743  74.20   0
         3    810.0914     12.0531 300.4197274 +22.6056716     712.3632     72.29029      1.301     2.56     5.577753     20.37972     104.7896        11     0.924     0.727  -4.72   0
         4    517.3496      9.8103 300.3293012 +22.5173929     375.5902     72.25351      2.176     4.35     4.427715     20.37972     31.15457         5     1.141     0.472  86.09  16
         5    430.1878      6.0047 300.3034168 +22.4901969     243.4668      72.1062      1.473     4.19     4.192635     20.37972     29.34767         5     1.378     0.364  83.89  16
         6    568.0532      3.7692 300.3470391 +22.5308381     290.9754     67.93023      1.490     3.68      4.66784     20.37972     32.51991         5     0.796     0.507  57.16  16
         7    394.9667      1.4762 300.2939295 +22.4783466     380.2014     57.01662      1.334     3.78      4.14361     20.37972     44.31882         6     0.820     0.499   1.25  24
         8     53.7044   1005.4007 299.8618024 +22.6640918     853.1934      72.1062      4.969     7.06      3.68361     20.37972     41.55069        13     1.432     0.976 -68.72   0
         9    618.5121   1022.7037 300.0317538 +22.8385968     1902.819     61.58858      1.715     4.31     2.389159     20.37972     136.9188        26     1.466     1.054  -0.99  24
        10    245.7819   1020.9995 299.9163878 +22.7262413     2715.437     68.74706      9.558    30.94     54.67728     20.37972     71.51549       172     8.287     3.206 -35.09  27
        11    238.4595   1007.7063 299.9184393 +22.7202324      2476.15     72.32705      7.285    22.24     51.47135     20.37972     58.16018       133     5.062     2.715  72.80  19
        12    270.8410   1019.0137 299.9248217 +22.7331956     5554.918     72.25351      8.363    23.53     43.21328     20.37972     104.9458       310     5.463     5.066  67.85  19
        13    290.7052   1017.3806 299.9315270 +22.7386910     6948.497     72.16148      9.564    35.67     34.05437     20.37972     127.9171       583     8.380     6.175  31.67  27
        14    310.3522   1006.6672 299.9411210 +22.7415177     9479.581     72.23512     10.359    32.43     22.91848     20.37972     189.2461       844    11.434     5.138  59.65  19
        15    146.1147    986.9613 299.8965017 +22.6865593     4080.288     72.21671     25.334    78.18      34.6903     20.37972     101.2645      2903    19.044    13.104 -39.05  27
        16    202.5728    986.5864 299.9141627 +22.7034039     1068.584     72.23512      6.222     6.33     44.58342     20.37972     39.36141         8     1.339     0.841  18.90   0
        17    146.7762    949.8890 299.9087715 +22.6761323     3694.716     72.16148     24.880    56.19     16.06076     20.37972     77.64181      1023    14.231     6.155 -38.34  19
        18    314.7726    979.2573 299.9514162 +22.7349861      546.257     72.23512      1.559     4.01     15.05808     20.37972     128.1023        11     1.392     0.703 -76.23   0
        19    874.0079    979.5167 300.1253824 +22.9028330     334.7093     72.16148      1.739     4.55     2.557642     20.37972     32.29027         5     1.035     0.568 -76.09   0
        20    603.1065    980.0457 300.0408442 +22.8217371     402.8679     72.25351      1.665     3.89     2.368044     20.37972     36.42939         6     0.955     0.454  52.86   0
        21    998.7463   1002.7257 300.1567080 +22.9468929     636.2611     72.25351      2.156     7.53     3.503051     20.37972     42.91549        13     1.706     0.931  39.11   2
        22    276.2905    998.8513 299.9330780 +22.7290517     1066.221     72.25351      6.715     8.99     33.52361     20.37972     34.11161        15     2.391     0.943 -53.63   1
        23    631.6240    976.2405 300.0509591 +22.8292003      1410.73      72.2719      1.791     4.18     2.411236     20.37972     108.3716        23     1.232     1.218  16.58   0
        24    525.3398    973.0419 300.0189236 +22.7963963     1204.666     72.21671      1.972     4.91     2.389906     20.37972       67.827        21     1.327     1.198 -71.34   0
        25    456.0837    970.7913 299.9981113 +22.7749696     6559.835     72.17989      1.842     3.78     2.758259     20.37972     467.2483        50     1.489     1.461 -61.96   0
        26    487.0000    958.5463 300.0117133 +22.7807345     317.7387     72.17989      1.361     3.67     2.592379     20.37972     38.39492         5     1.007     0.384  85.38   3
        27    489.3355    957.7210 300.0127084 +22.7811985     430.9294     72.34542      1.647     5.70     2.594149     20.37972     42.25554        10     1.311     0.699  85.92   2
        28      2.6916    954.4963 299.8625312 +22.6341846     1357.564     63.54291      1.776     4.17      3.52063     20.37972     112.5951        25     1.489     1.113  63.32  24
        29    187.3988    950.9127 299.9210577 +22.6886223     1216.764     72.14306     11.345    13.11      22.0753     20.37972     37.45494        28     2.603     1.838  -7.60   1
        30    652.8311    946.4796 300.0672465 +22.8270223     388.6969     72.23512      2.444     5.53     2.446898     20.37972       42.038         8     1.432     0.603  26.53   0
        31   1002.3649    949.6271 300.1751196 +22.9327306     2133.846     72.25351      2.112     5.08     3.532901     20.37972     99.02387        30     1.454     1.356 -24.08   0
        32    791.3350    938.6965 300.1129104 +22.8663264      688.424     72.34542      2.049     5.59     2.921821     20.37972     62.03022        14     1.623     0.950  80.03   0
        33    826.1049    932.7378 300.1256813 +22.8750415     975.9476     72.32705      1.829     4.76     2.891562     20.37972     68.85748        22     1.379     1.136 -34.92   0
        34    603.4553    933.6571 300.0560496 +22.8085323     391.2497     72.29029      1.973     5.33     2.380962     20.37972     31.40523         6     1.105     0.727   4.71   0
        35     36.0954    930.3554 299.8807563 +22.6372988     599.7686     72.25351      1.852     4.85     3.626087     20.37972     43.85503        10     1.042     0.772 -22.01   0
        36    848.2868    926.3605 300.1346677 +22.8798614     11328.52     72.21671      1.887     3.89     2.812993     20.37972     645.6277        60     1.535     1.491  28.56   0
        37    108.2735   1017.6400 299.8747637 +22.6839877     1411.439     72.21671      4.386     4.08     14.30086     20.37972     35.85651         5     0.828     0.647  27.03   2
        38    893.8088    926.0384 300.1489577 +22.8934165     544.3071     72.25351      1.837     6.23     2.716968     20.37972      38.3617        12     1.163     0.937 -86.93   0
        39     26.7814    990.9816 299.8581365 +22.6518741     375.3149     72.23512      1.858     3.91     3.597326     20.37972     31.87029         5     0.856     0.512  39.40   0
        40    182.3756    947.6535 299.9205577 +22.6861800      841.295     72.25351      3.911     4.05     19.81786     20.37972     34.00996         5     0.982     0.477 -84.48   1
        41    159.7726    917.6729 299.9232911 +22.6707998     1343.405     72.23512      5.861     6.39     5.191055     20.37972     60.69022        25     1.455     1.342 -15.05   0
        42    553.4783    914.9068 300.0465975 +22.7881605     442.3613     72.36379      1.661     5.26     2.555103     20.37972     39.52566         9     1.066     0.732  42.09   0
        43    130.5957    911.8977 299.9161072 +22.6603845     427.4272     72.14306      1.955     3.90      4.45937     20.37972     31.06493         5     0.888     0.491 -89.76   0
        44    856.7543    908.4212 300.1431436 +22.8772498     1488.876     72.29029      1.874     5.06     2.935591     20.37972     94.70204        27     1.527     1.242 -35.08   0
        45    149.4793    908.4487 299.9230948 +22.6650653     836.2675     72.23512      7.731     8.56     4.733712     20.37972     45.23818        14     2.011     1.018  26.58   0
        46    709.1614    905.2966 300.0981863 +22.8320981     602.9225     72.21671      2.489     5.44     2.754942     20.37972     34.40364         7     1.500     0.557  37.23   0
        47    894.9519    902.1683 300.1570814 +22.8869056     846.3852      72.2719      1.889     4.40     2.965882     20.37972     62.49129        16     1.150     1.012   6.32   0
        48    943.6603    893.4086 300.1751130 +22.8989908     449.7599      72.1983      1.798     5.18     3.177233     20.37972     36.65272         9     1.025     0.740  26.63   0
        49    794.5861    891.9947 300.1291199 +22.8538951     720.1581      72.1062      1.740     4.43     3.214693     20.37972     60.23399        13     1.092     0.910  71.28   0
        50    397.9165    890.8622 300.0060298 +22.7345900     398.9957     72.32705      1.677     5.47      3.47219     20.37972     30.84265         8     1.570     0.537  80.76   0
        51    805.7278    888.8927 300.1336001 +22.8563451     493.1571     72.38216      1.782     4.73     3.233094     20.37972     40.75689        13     1.227     0.931 -86.18   0
        52    507.2741    888.4277 300.0408366 +22.7667026      4046.82     72.23512      1.729     3.39     3.055412     20.37972     322.9695        34     1.415     1.231  53.51   0
        53    285.7319    877.6183 299.9754612 +22.6971255     351.9557     72.23512      1.545     3.48     4.088965     20.37972     33.83786         5     0.757     0.462  14.42   0
        54    232.8349    874.4007 299.9600687 +22.6803263     942.5706      72.1983      1.974     4.59     5.690906     20.37972     72.64368        18     1.363     0.945  49.10   0
        55    209.7578    871.2275 299.9539303 +22.6724896     1558.382     72.25351      1.735     3.46     5.214779     20.37972     149.6315        24     1.205     1.189  39.99   0
        56    141.7574    872.8073 299.9322911 +22.6525297      484.718     72.25351      1.682     2.97     3.945996     20.37972     43.57467         6     0.753     0.546  40.00   0
        57    214.7269    987.1851 299.9177441 +22.7072247     1180.468     72.23512      5.382     8.91     44.71009     20.37972     40.42323        16     1.732     1.280  -2.80   2
        58    741.0239    858.7398 300.1232560 +22.8282889     486.9043     72.21671      2.006     4.12     3.375865     20.37972      34.4309         6     0.933     0.520  89.41   0
        59    819.3351    852.7904 300.1495847 +22.8500597     664.9375     72.21671      1.789     3.94     3.374836     20.37972     52.78205        14     1.097     0.894   7.75   0
        60    242.3077    852.1500 299.9702504 +22.6767893     436.4641      72.2719      1.842     4.20     4.324251     20.37972     28.03551         6     0.773     0.652 -22.27   0
        61    687.2934    846.5671 300.1104842 +22.8086836     4813.053     72.17989      1.682     3.18     3.034649     20.37972     399.9134        37     1.330     1.251 -84.54   0
        62    177.2543    847.1620 299.9516599 +22.6558330     502.5338     72.23512      1.768     4.54     3.962348     20.37972     40.52556         9     0.993     0.707  -5.69   0
        63    489.7708    843.7915 300.0499120 +22.7486453     638.1483     72.21671      1.599     6.08     3.423784     20.37972     59.90031        13     1.103     0.986  13.25   0
        64    237.5721    840.3477 299.9726177 +22.6719835     1415.626     72.25351      1.731     4.10     4.198132     20.37972     122.0389        21     1.259     1.089  54.87   0
        65    707.7205    838.8772 300.1193462 +22.8126014     720.7761     72.34542      1.681     4.22     3.270811     20.37972     63.94748        14     1.150     0.859  67.76   0
        66    256.8407    837.9293 299.9793922 +22.6770730     331.3419      72.1983      1.505     4.55     3.948639     20.37972     43.64943         8     1.247     0.727 -89.07   0
        67    624.4436    829.1658 300.0965780 +22.7848417     374.2147     72.29029      1.776     5.31     3.046901     20.37972     34.14233         8     1.234     0.645  79.65   0
        68    863.3409    826.2972 300.1719141 +22.8556439     4070.333     72.30867      1.705     3.54     3.354345     20.37972     286.9175        34     1.335     1.232  88.14   0
        69    272.3406    820.7477 299.9897978 +22.6767972     561.1862     72.29029      2.058     2.86     3.685808     20.37972     55.67776         6     0.715     0.592 -59.76   2
        70    580.0869    818.9969 300.0860795 +22.7686205     598.8805     72.16148      1.428     4.16     3.193848     20.37972      66.2179        12     1.252     0.747 -34.27   0
        71    226.7278    816.8174 299.9769009 +22.6619812     1015.475     72.23512      1.574     3.71     3.890888     20.37972     86.60806        16     1.065     1.006 -20.97   0
        72    376.3503    808.8788 300.0259915 +22.7046024     52940.72     72.23512      1.667     3.10     3.486829     20.37972     4983.149       106     1.518     1.476  69.01   0
        73    642.0826    812.2214 300.1075802 +22.7852679     338.4506      72.1983      1.481     3.54     3.311232     20.37972     57.82836         8     1.078     0.792  27.15   0
        74    634.2286    808.0290 300.1064988 +22.7817094     1475.883      72.1983      1.506     3.39     3.322544     20.37972     130.8628        22     1.194     1.092  81.99   0
        75    304.5662    806.8906 300.0043209 +22.6824933     515.1298     72.21671      1.728     6.41     3.553871     20.37972      51.2528        10     1.310     0.881  45.15   0
        76    663.2418    803.8889 300.1168776 +22.7892210     810.8198     72.23512      1.509     3.20     3.517246     20.37972     74.68453        12     0.936     0.840 -18.85   0
        77     62.4129    803.4556 299.9302059 +22.6088283     837.2292     72.23512      1.930     4.27     3.916008     20.37972     91.10806        15     1.256     1.034 -21.78   0
        78     29.8736    803.8758 299.9199661 +22.5991798      748.616     72.30867      2.138     6.02     4.176164     20.37972     43.70591        10     1.049     0.972  17.41   2
        79    674.0867    802.1979 300.1208041 +22.7919874     484.7636     72.16148      1.360     4.64     3.598335     20.37972     67.07214         9     1.079     0.649  38.77   0
        80    993.9059    799.2365 300.2214127 +22.8870015     359.9001     72.23512      1.617     5.31     4.006205     20.37972     50.08793         9     1.242     1.001 -73.57   0
        81    779.6722    798.5245 300.1548805 +22.8225885      480.335     72.30867      1.626     4.30     3.558902     20.37972     40.03537         7     0.984     0.535  62.68   0
        82    801.3873    797.4758 300.1619860 +22.8287970     3434.679     72.25351      1.347     4.26     3.531505     20.37972     1039.177        10     1.277     0.405  15.17   0
        83    817.1350    788.8248 300.1697056 +22.8310333     909.1709     72.21671      1.762     3.70     3.507094     20.37972     67.40192        15     1.133     0.910 -32.15   0
        84    426.0760    786.1100 300.0488599 +22.7129882     31072.13     72.40051      1.585     3.00     3.554152     20.37972     2652.415        81     1.466     1.373  66.42   0
        85    440.1632    786.6481 300.0530663 +22.7173685     1873.057      72.2719      1.629     3.20     3.550292     20.37972     179.1808        26     1.210     1.170  19.46   0
        86    949.2726    782.1519 300.2130546 +22.8687193     2951.548     72.23512      1.787     3.44     3.772871     20.37972     202.7154        31     1.357     1.203  24.16   0
        87    436.9155    780.0197 300.0542117 +22.7144924     624.5353     72.16148      1.796     5.68     3.577316     20.37972     55.86248        11     1.390     0.771  44.77   0
        88    706.9623    778.1848 300.1388503 +22.7949508     856.6625     72.23512      1.523     3.80     3.706007     20.37972     76.57603        16     1.257     0.863   1.53   0
        89    543.5543    778.2698 300.0879562 +22.7459757      428.674     72.21671      1.469     3.40     3.682448     20.37972     35.38406         5     1.023     0.326  67.26   0
        90    308.4834    777.9760 300.0149416 +22.6753749     860.9604      72.1983      1.677     3.45      3.56098     20.37972     91.22562        16     1.083     1.030  51.45   0
        91    554.2475    772.9569 300.0930114 +22.7476578     882.0361      72.2719      1.722     3.51     3.701568     20.37972     82.73611        13     1.039     0.893  -4.42   0
        92    113.5210    773.4763 299.9558262 +22.6155751     488.9628     72.34542      1.369     3.44     3.753868     20.37972     60.26631         8     0.954     0.628  83.38   0
        93    955.3611    769.9455 300.2189223 +22.8670375     541.5349     72.23512      1.582     6.02     3.855829     20.37972     41.12163        11     1.066     0.958  34.02   0
        94    500.0829    767.8051 300.0778333 +22.7299346     420.9744     72.16148      1.572     4.92     3.669115     20.37972     40.51326         8     1.216     0.563 -69.54   0
        95    455.9587    768.7628 300.0637956 +22.7169747     341.5504     72.32705      1.655     5.86     3.619782     20.37972     35.51374         7     1.265     0.764  37.84   0
        96    142.0607    766.7517 299.9668774 +22.6222131     548.0307     72.29029      1.706     4.08     3.700109     20.37972     48.58598        10     0.963     0.918  27.15   0
        97    708.7266    766.6174 300.1431614 +22.7921587     274.1159     72.23512      1.289     3.47     3.749771     20.37972     30.96146         5     0.776     0.449  17.20   0
        98    932.9255    764.6606 300.2136474 +22.8587964     348.2718      72.2719      1.396     5.14     3.807151     20.37972     34.39807         8     1.010     0.739 -73.40   0
        99    305.0000    762.9838 300.0187339 +22.6700292     529.4597      72.1062      1.881     4.69     3.570891     20.37972     54.30322         7     1.048     0.595  89.43   2
       100    629.2627    753.0185 300.1228427 +22.7644297     472.8267      72.1983      1.562     6.22     3.743431     20.37972     46.33473        13     1.311     0.831  -6.78   0
       101    599.2856    751.0035 300.1141670 +22.7548627     633.9609     72.16148      1.529     4.00     3.758195     20.37972     61.18827        11     1.007     0.738 -21.73   0
       102   1015.5989    747.3584 300.2450483 +22.8785974     4401.077     72.23512      1.746     3.53     4.025402     20.37972     310.2521        38     1.388     1.285 -89.22  16
       103    621.0405    748.4822 300.1217583 +22.7606621     1322.898      72.1983      1.434     3.09      3.77005     20.37972     126.7291        19     1.075     1.012 -12.93   0
       104    540.9062    747.9199 300.0970013 +22.7364711     284.4956     72.36379      1.293     4.30       3.9461     20.37972     43.00961         8     1.000     0.708 -80.30   0
       105    703.0161    742.7683 300.1491383 +22.7835994     271.0501     72.21671      1.309     3.77     3.849617     20.37972     29.13742         5     0.812     0.504  54.02   0
       106   1004.0397    738.9123 300.2441905 +22.8727077     1783.089     72.21671      1.763     3.92     4.001634     20.37972     113.8053        30     1.372     1.274  31.78   0
       107    772.0236    738.2462 300.1721004 +22.8029872      236.822     72.25351      1.423     4.62     3.719651     20.37972     35.92397         6     0.903     0.673  33.41   0
       108    367.2268    732.6131 300.0479545 +22.6799853     832.6964     72.23512      1.716     4.22     3.628469     20.37972     62.98886        15     1.128     0.943  84.25   0
       109    830.6260    730.1031 300.1930044 +22.8182132     2547.342     72.17989      1.782     3.41     3.657445     20.37972     195.4894        33     1.617     1.247   4.33   0
       110     53.0017    720.1885 299.9543573 +22.5821305     826.0873     72.05089      1.795     5.74     4.115648     20.37972     76.26974        18     1.424     1.255 -82.95   0
       111    215.7166    716.2475 300.0061808 +22.6298335     569.4531     72.23512      1.535     3.93     3.698615     20.37972      64.3572        13     1.016     0.915  -5.93   0
       112    912.9630    715.8472 300.2232978 +22.8387927     516.4255      72.2719      1.527     4.83     3.987746     20.37972     50.18735         8     0.889     0.744 -10.00   0
       113    495.8028    715.9724 300.0933549 +22.7137755     216.6653     72.17989      1.409     5.16     3.913669     20.37972     29.35824         6     1.163     0.647  84.24   0
       114    948.8989    706.9870 300.2373799 +22.8470148     146757.8     72.14306      1.656     3.17     4.067448     20.37972     11734.46       177     1.624     1.565  74.82   0
       115    711.0291    710.7021 300.1620595 +22.7767944     357.6277     72.16148      1.276     4.15     3.967024     20.37972     45.44704         6     0.810     0.671 -25.96   0
       116    801.1202    707.2371 300.1912465 +22.8028029     852.9019      72.1983      1.892     3.83     3.801141     20.37972     64.22433        14     1.093     0.931 -59.11   0
       117    982.0967    700.1775 300.2499433 +22.8550046     487.6967     72.16148      1.552     5.09     4.020188     20.37972     50.61911         8     1.166     0.628  24.05   0
       118    635.2248    695.8085 300.1432994 +22.7497932     1505.703     72.23512      1.467     2.85     4.113947     20.37972     163.2156        18     1.067     0.946  38.07   0
       119    816.3445    693.0642 300.2005971 +22.8032950     9364.729     72.29029      1.520     2.82     3.888608     20.37972     919.4648        44     1.298     1.226  66.70   0
       120    317.9170    688.2248 300.0470542 +22.6524574     4851.297      72.1983      1.539     2.94     3.796174     20.37972     483.2441        31     1.230     1.134  51.61   0
       121     31.6867    686.6219 299.9586503 +22.5661081     1631.429     72.16148      1.777     3.76      4.12465     20.37972     150.9811        24     1.248     1.192 -61.68   0
       122    399.8963    686.3218 300.0731624 +22.6765021     1178.673     72.36379      1.498     2.86     3.857907     20.37972     126.6204        16     0.982     0.975  39.90   0
       123    275.5238    684.0829 300.0352230 +22.6385512     464.7244     72.32705      1.382     3.60     3.832185     20.37972     53.00574        12     1.105     0.729  53.92   0
       124    607.9272    681.6603 300.1394014 +22.7375472     791.2267      72.2719      1.572     4.34     4.195742     20.37972     64.16562        15     1.200     0.890 -61.89   0
       125    599.8083    673.9117 300.1393931 +22.7328885     3211.259     72.14306      1.418     2.60     4.245541     20.37972     395.6845        26     1.125     1.055  88.39   0
       126   1008.4974    669.4674 300.2681587 +22.8540894     9186.771     72.32705      1.796     6.28     3.979658     20.37972     1661.865        22     1.872     0.592  27.13   0
       127    589.9480    667.7097 300.1383401 +22.7281517     1423.534     72.25351      1.462     2.64     4.285651     20.37972     167.1849        18     1.087     0.939  73.09   0
       128    518.3955    667.1198 300.1162651 +22.7065285     281.1419     72.16148      1.216     4.53      4.21273     20.37972     36.98254         7     0.857     0.710 -18.24   0
       129    501.2040    665.0355 300.1115937 +22.7007752     275.5538     72.23512      1.032     2.76     4.176084     20.37972     36.69333         5     0.774     0.490 -29.98   0
       130    253.1940    663.9888 300.0348142 +22.6260873     608.2458      72.1062      1.495     3.97     3.889044     20.37972     74.04769        12     1.139     0.767 -31.08   0
       131    267.8228    662.4999 300.0398447 +22.6300489     658.2858     72.17989      1.547     4.17      3.88816     20.37972     55.88177        14     1.081     0.967  48.45   0
       132    324.5622    659.3187 300.0585157 +22.6461570     445.3798      72.1983      1.744     4.55     3.869574     20.37972       40.293         8     1.157     0.658 -42.34   0
       133    613.7051    658.2537 300.1488083 +22.7325592     339.3188     72.30867      1.416     4.33     4.351056     20.37972     55.53991         9     1.066     0.803 -28.95   0
       134    292.9829    658.9455 300.0488203 +22.6365769     620.8057     72.21671      1.548     3.37      3.88523     20.37972     60.72617         9     0.933     0.670  68.42   0
       135    514.8494    657.3259 300.1183451 +22.7026538     1691.255     72.23512      1.409     2.54     4.270844     20.37972     216.8632        19     1.018     0.982 -85.97   0
       136    168.7639    652.2963 300.0123797 +22.5974014     19699.51     72.23512      1.662     3.09     4.004655     20.37972     1723.502        69     1.492     1.370  54.00   0
       137    599.8710    652.7639 300.1462866 +22.7268357     1031.405     72.23512      1.471     3.50     4.389053     20.37972     102.0787        17     1.143     0.972 -19.03   0
       138     89.8279    653.7491 299.9873887 +22.5741312     690.6244     72.25351      1.771     3.49     4.053019     20.37972     75.45348        14     1.212     0.849  37.03   0
       139    635.3697    652.2252 300.1575118 +22.7373230     353.1522     72.23512      1.333     3.39     4.368639     20.37972     35.44773         5     0.760     0.438  70.91   0
       140    654.7407    644.9702 300.1659005 +22.7410466     300.3405     72.25351      1.454     4.26     4.379409     20.37972     36.62536         5     0.855     0.605   3.48   0
       141    353.2907    644.5705 300.0722409 +22.6505422     394.4279      72.1983      1.484     3.95     3.873909     20.37972     44.17463         6     0.705     0.684 -80.24   0
       142   1017.6078    638.8827 300.2809412 +22.8480293     1027.807     72.16148      1.744     4.06     4.203644     20.37972      94.1386        18     1.291     0.977  48.88  16
       143    114.8479    636.3798 300.0008043 +22.5766578     1435.502      72.2719      1.899     4.41     4.056671     20.37972     127.0187        26     1.577     1.108  88.46   0
       144    180.9469    637.6595 300.0209215 +22.5968583     284.8436     72.29029      1.623     4.10     3.982272     20.37972     50.44572         6     1.154     0.417 -31.72   0
       145    884.8459    636.8027 300.2402306 +22.8076599     406.9671     72.23512      1.362     3.87     4.157314     20.37972     47.46444         8     1.022     0.530  49.95   0
       146    563.0660    633.4944 300.1410946 +22.7102691     472.2096     72.36379      1.454     3.34     4.524209     20.37972     55.65095         8     0.769     0.723  49.90   0
       147    957.9954    631.5252 300.2647463 +22.8280582     793.4826     72.14306      1.793     3.77     4.241735     20.37972     67.08109        14     1.070     0.892  14.25   1
       148    355.6208    632.0738 300.0770267 +22.6476550     459.2899     72.25351      1.878     4.63     3.896375     20.37972     38.00431         7     1.106     0.551  60.71   0
       149    702.1840    629.8471 300.1855879 +22.7509243      339.886      72.2719      1.426     5.09     4.322352     20.37972     39.09608         7     0.998     0.733 -56.11   0
       150    954.8884    626.8793 300.2652877 +22.8257925     5691.323     72.36379      1.132     3.92     4.254787     20.37972     2190.587        12     1.144     0.384   5.29   0
       151    519.9743    625.7148 300.1302136 +22.6951159     648.8405     72.21671      1.526     3.07     4.493678     20.37972     75.67374        13     1.049     0.799  42.06   0
       152    667.7903    624.1494 300.1767303 +22.7389792     450.5286     72.23512      1.413     3.35     4.443251     20.37972     55.40521         7     0.785     0.752 -75.93   0
       153    715.1752    622.8232 300.1919163 +22.7528006     519.7233      72.1983      1.402     4.24     4.314221     20.37972     49.01133         9     0.974     0.671 -16.10   0
       154    685.5946    622.1716 300.1829167 +22.7437477       524.68     72.23512      1.427     3.63     4.401167     20.37972     68.73808        12     1.001     0.871  60.74   0
       155    564.2358    621.4962 300.1453579 +22.7071750     1008.526     72.23512      1.684     3.40     4.606172     20.37972     94.83266        15     1.112     0.887  70.96   0
       156    750.5017    620.8217 300.2035689 +22.7628130     342.2584     72.16148      1.768     4.31     4.222036     20.37972     30.93486         6     1.061     0.499 -88.15   0
       157    997.8073    617.0494 300.2818634 +22.8358239     3309.434     72.23512      1.596     3.01     4.355741     20.37972     287.2907        31     1.346     1.141  34.11   0
       158    529.6055    616.8519 300.1360907 +22.6954592     1787.386     72.21671      1.432     2.71     4.585077     20.37972       203.24        20     1.113     0.938  77.65   0
       159     91.5185    610.4246 300.0019929 +22.5622128     5078.574     72.21671      1.717     3.25     4.106541     20.37972     476.1077        39     1.358     1.292  54.56   0
       160    393.0054    603.6416 300.0978912 +22.6507071     9041.257     72.25351      1.494     2.69     4.024367     20.37972     1021.211        46     1.286     1.238 -89.10   0
       161    515.4723    600.6640 300.1369537 +22.6865744     8669.347      72.2719      1.437     2.46     4.593523     20.37972     1054.546        41     1.202     1.184  34.33   0
       162    280.8171    598.1486 300.0647964 +22.6154830     282.7341     72.23512      1.097     3.98     3.904835     20.37972     35.99878         6     0.761     0.594 -37.52   0
       163    159.3026    597.0060 300.0274078 +22.5787022     256.5309     72.14306      1.424     5.50     3.998042     20.37972     30.31941         6     1.108     0.770 -24.39   0
       164    927.3323    594.5931 300.2671906 +22.8082602     1817.302      72.1983      1.593     2.94     4.242222     20.37972     192.7581        22     1.148     1.074  51.20   0
       165   1011.8256    592.1064 300.2943406 +22.8328541     12258.47     72.17989      1.596     3.04     4.442745     20.37972     993.1971        50     1.362     1.320  78.91   0
       166    576.0547    590.2812 300.1591800 +22.7017555     11543.98      72.2719      1.409     2.54     4.706175     20.37972     1270.837        47     1.271     1.140  62.62   0
       167    303.3341    585.7203 300.0758340 +22.6186704     1460.602     72.34542      1.520     3.20     3.905628     20.37972     158.3313        20     1.100     1.058 -71.68   0
       168    745.6309    586.0428 300.2133539 +22.7513636     520.7756      72.2719      1.397     2.83     4.302126     20.37972     66.72554        10     0.907     0.736  47.09   0
       169    461.2803    585.0974 300.1251522 +22.6658573      256.989     72.36379      1.164     2.69     4.388986     20.37972     48.77946         5     0.700     0.654  62.67   0
       170      4.5624    582.6996 299.9840006 +22.5281666     2555.417     70.50323      1.793     3.42     4.119268     20.37972     229.0543        35     1.403     1.344  26.27  24
       171    550.4057    583.1842 300.1535039 +22.6920288     280.7229     72.16148      1.357     2.47      4.69753     20.37972     45.14068         5     0.705     0.459  71.04   0
       172    507.7010    578.4701 300.1417474 +22.6778727     4319.479     72.36379      1.413     2.49     4.574598     20.37972     510.3265        32     1.175     1.091  56.79   0
       173    850.6060    578.5738 300.2484840 +22.7806717     845.8095     72.21671      1.548     3.07     4.220839     20.37972     81.24284        13     1.014     0.762  39.10   0
       174    486.0237    576.7827 300.1355513 +22.6708891     1274.472     72.23512      1.426     3.12     4.502224     20.37972      125.995        19     1.130     0.969  56.94   0
       175    240.3928    576.3768 300.0593067 +22.5971101     872.5052     72.21671      1.677     3.08     3.902607     20.37972      87.6189        12     0.993     0.829  16.46   0
       176    927.5114    574.0538 300.2739207 +22.8024116     1654.847      72.2719      1.704     3.10     4.242774     20.37972     130.0521        21     1.150     1.049 -54.56   0
       177    624.3806    566.0174 300.1821061 +22.7092736     197356.4     72.21671      1.413     2.49     4.740093     20.37972     21920.79       215     1.535     1.513  58.97   0
       178    447.8778    572.0926 300.1252087 +22.6581055     290.7485     72.38216      1.347     1.99     4.357255     20.37972      57.3687         6     0.710     0.537 -48.01   0
       179    807.9946    570.9991 300.2376687 +22.7657287     697.9773     72.05089      1.249     2.77     4.229419     20.37972     94.95588        10     0.852     0.748  79.04   0
       180    310.3289    565.9265 300.0844396 +22.6150879     3648.953     72.30867      1.517     2.72     3.903138     20.37972     404.0354        30     1.200     1.160  47.17   0
       181    876.3127    562.5074 300.2617153 +22.7837567     575.0617     72.40051      1.511     2.89      4.23558     20.37972     61.89365         7     0.896     0.495   5.15   0
       182    655.7537    552.8600 300.1961480 +22.7148978     229.6701      72.2719      1.218     3.51     4.756026     20.37972     35.93417         5     1.150     0.308  -8.25   0
       183    514.8409    546.5424 300.1543423 +22.6708462     2706.501     72.21671      1.515     2.68     4.603176     20.37972     290.1656        32     1.649     1.017 -89.65   0
       184    359.7002    548.7804 300.1053598 +22.6249731     412.5052     72.14306      1.347     3.92     3.949191     20.37972      56.2779         6     0.791     0.556  41.21   0
       185    927.0720    542.8503 300.2839224 +22.7933128     349.7477     72.23512      1.414     4.38     4.232069     20.37972     42.99435         6     0.831     0.656  -3.77   0
       186    745.7526    542.0298 300.2276925 +22.7387568     282.3989     72.25351      1.315     3.00     4.328836     20.37972     39.23097         5     0.796     0.479 -35.84   0
       187    616.0306    536.6912 300.1890348 +22.6983487     2157.194     72.17989      0.847     2.37      4.78864     20.37972       655.04         7     0.760     0.451  -9.25   0
       188    832.6226    534.7010 300.2571354 +22.7626783     402.7953     72.16148      1.552     5.04     4.280491     20.37972     38.26435         9     0.932     0.872 -48.99   0
       189    912.0265    532.5205 300.2825888 +22.7858376     1671.294     72.23512      1.376     2.61     4.193286     20.37972     213.4006        18     1.025     0.956 -68.56   0
       190    783.1602    530.1815 300.2431938 +22.7465611      2640.63     72.25351      1.409     2.45     4.321626     20.37972     302.2084        25     1.099     1.036 -80.19   0
       191     42.3961    530.9796 300.0125491 +22.5246857     902.1044      72.1983      2.026     5.05     4.042216     20.37972     70.16592        17     1.422     0.940 -35.68   0
       192    143.0188    530.1494 300.0440697 +22.5546365     269.2899     72.21671      1.263     4.89     3.945308     20.37972       39.182         7     1.045     0.648  69.03   0
       193    992.3046    526.8273 300.3094646 +22.8082449      281.115     72.14306      1.560     3.89     4.272095     20.37972     31.70441         6     1.066     0.406  77.34   0
       194    688.0660    526.9720 300.2146194 +22.7171453      418.668     72.21671      1.286     2.84     4.679857     20.37972     54.43657         8     0.815     0.659  39.77   0
       195    912.1722    522.6135 300.2858528 +22.7830340     2318.892     72.23512      1.737     4.21     4.151858     20.37972     194.0714        31     1.646     1.033  70.79   0
       196    665.3459    520.9408 300.2095044 +22.7086044     692.7028     72.29029      1.436     2.85     4.787552     20.37972     68.76016        10     0.875     0.746  15.12   0
       197    451.2657    520.6487 300.1429755 +22.6443523     185.1858     72.23512      1.142     2.64     4.416171     20.37972     38.11654         5     0.724     0.446 -17.49   0
       198    950.4249    517.6902 300.2993762 +22.7930762     4315.245     72.17989      1.529     2.70     4.130735     20.37972      474.638        36     1.261     1.176 -36.83   0
       199    504.0261    519.6926 300.1596998 +22.6598947     480.4252     72.17989      1.396     2.98     4.564352     20.37972     60.61984         6     0.876     0.537 -62.14   0
       200    610.9766    513.5450 300.1949807 +22.6901863     358.4564     72.25351      1.293     3.70      4.79468     20.37972     44.11788         8     0.861     0.688  57.90   0
       201    570.4837    525.9849 300.1783361 +22.6816225      751.867      72.1983      1.347     2.82     4.757796     20.37972     88.90833        12     0.990     0.738  -8.89   0
       202    182.4205    507.9141 300.0635332 +22.5600761     959.5255     72.16148      1.677     3.14     4.100483     20.37972     114.6752        17     1.142     0.964 -43.95   0
       203    175.0642    497.7916 300.0645354 +22.5549649     386.1952     72.21671      1.420     4.80     4.132065     20.37972     42.08878         8     1.013     0.645  -8.32   0
       204    782.6434    492.1231 300.2553960 +22.7354713     406.9016     72.21671      1.307     2.64     4.322259     20.37972     55.06184         7     0.813     0.574  63.70   0
       205    391.8084    490.1952 300.1343748 +22.6177832     240.5635     72.08777      1.699     3.89     4.358627     20.37972     27.12583         5     0.928     0.466 -45.10   0
       206    723.8337    488.2716 300.2383293 +22.7167453     779.8491     72.23512      1.344     2.32     4.423288     20.37972     97.63259        12     0.912     0.741  50.01   0
       207    671.5696    489.5332 300.2216444 +22.7014475     350.7942     72.23512      1.393     3.69     4.786988     20.37972     35.85521         6     0.945     0.414 -19.12   0
       208    784.5208    480.3313 300.2598110 +22.7326455     783.9514     72.34542      1.347     2.71     4.325613     20.37972     93.22139        14     0.975     0.870  29.52   0
       209    942.1423    476.4514 300.3101901 +22.7787423     986.9039     72.29029      1.524     2.82     3.902726     20.37972      128.754        18     1.152     1.013 -39.34   0
       210    906.4450    473.4757 300.3000294 +22.7671962     341.2462     72.21671      1.536     3.03     4.021472     20.37972     47.65156         6     0.891     0.417  69.90   0
       211    926.1655    472.8320 300.3063854 +22.7729173     515.4797     72.25351      1.263     3.64     3.908662     20.37972     56.93151        11     0.917     0.825  42.85   0
       212    670.3632    470.9756 300.2272963 +22.6957550     3196.044     72.25351      1.407     2.46     4.740421     20.37972     380.2968        26     1.144     1.028  52.90   0
       213    146.4730    462.3969 300.0671481 +22.5362325     317.3167     72.16148      1.350     3.68     4.281893     20.37972     35.19649         6     0.871     0.489   0.79   0
       214    510.0084    458.0772 300.1815741 +22.6439943     318.6593      72.1983      1.228     2.18     4.619124     20.37972     66.17455         6     0.722     0.539 -40.07   0
       215    953.8879    450.2491 300.3223620 +22.7747278     479.5683     72.23512      1.339     2.35     3.935627     20.37972     77.30687         9     0.836     0.684  64.28   0
       216    780.9554    444.8633 300.2702197 +22.7213857     1202.677     72.25351      1.489     3.28     4.449348     20.37972     147.7709        18     1.071     0.993 -31.84   0
       217    690.0228    446.5523 300.2413499 +22.6946290     235.9197     72.25351      1.179     3.17     4.574363     20.37972     42.02075         5     0.732     0.635  85.56   0
       218    576.8967    445.4074 300.2065038 +22.6604022     440.0416     72.12463      1.312     3.60     4.757109     20.37972     51.94141         7     0.765     0.633 -12.74   0
       219    285.1350    443.1358 300.1164917 +22.5722893     790.0883     72.29029      1.587     3.44     4.580125     20.37972     72.42581        11     0.915     0.836 -15.84   0
       220    347.3552    438.8858 300.1372151 +22.5897250     3601.528     72.21671      1.400     2.57     4.547914     20.37972     419.6056        31     1.238     1.042  81.41   0
       221    124.7136    441.6112 300.0671385 +22.5237414     445.3404     72.17989      1.959     3.75     4.428521     20.37972     46.89918         6     0.888     0.694  85.64   0
       222    672.8787    433.4434 300.2402686 +22.6857261     263.7892     72.21671      1.354     5.19     4.552456     20.37972     44.75555         8     1.314     0.627 -68.60   0
       223    294.4962    433.5204 300.1225240 +22.5723361     7497.031     72.34542      1.491     2.62      4.60569     20.37972      869.712        36     1.237     1.135  60.27   0
       224    435.3302    427.7313 300.1681963 +22.6128957     4879.696     72.29029      1.441     2.55      4.46049     20.37972     575.2842        38     1.262     1.122  66.11   0
       225    679.5091    424.4756 300.2452452 +22.6851362     18539.81     72.38216      1.400     2.38     4.510219     20.37972      2231.24        65     1.329     1.256  31.17   0
       226    697.1887    424.2511 300.2508234 +22.6903685     746.4446     72.25351      1.780     6.51     4.514337     20.37972     52.52026        15     1.459     0.817 -37.21   0
       227    876.3854    414.6578 300.3097628 +22.7412876     349.2294      72.1983      1.282     3.34     4.262718     20.37972     58.62868         8     1.001     0.648 -55.44   0
       228    299.9218    411.2394 300.1314452 +22.5675666     334.8383     72.21671      1.455     4.31     4.655231     20.37972     51.36956         6     1.204     0.515 -21.69   0
       229   1013.0369    407.2134 300.3547797 +22.7800655     800.2067     72.23512      1.594     3.86     4.019841     20.37972     76.41972        14     1.208     0.809 -39.58   0
       230    234.0998    404.6591 300.1131229 +22.5459414     1929.439     72.32705      1.465     2.72     4.665901     20.37972     207.3552        26     1.170     1.106  38.27   0
       231    620.1835    393.9084 300.2367001 +22.6585794      6635.52     72.16148      1.383     2.35     4.611312     20.37972     871.1833        37     1.250     1.053  73.69   0
       232    334.9014    393.2852 300.1481492 +22.5728991     596.3353     72.40051      1.376     3.20     4.621284     20.37972     66.76322        14     1.003     0.911 -17.66   0
       233    192.6816    386.7598 300.1060634 +22.5283838     454.6546      72.1983      1.486     4.81     4.652104     20.37972      54.7002        11     1.103     1.032 -74.11   0
       234    879.9253    386.0323 300.3201607 +22.7341192     331.9233     72.23512      1.502     4.48     4.305186     20.37972     44.71661         6     1.036     0.735 -68.39   0
       235     39.8601    384.2961 300.0593943 +22.4818431      1240.47     72.30867      1.519     3.34     4.447029     20.37972     119.8708        21     1.232     1.029  81.73   0
       236    734.3124    384.3253 300.2753486 +22.6900171     397.8713     72.38216      1.198     2.79     4.530255     20.37972     66.48427        11     0.972     0.732 -20.79   0
       237    824.4996    383.0729 300.3038501 +22.7166699      618.389     72.38216      0.962     2.82     4.411798     20.37972       131.58        18     1.051     0.975  45.96   0
       238      8.7278    382.0565 300.0504551 +22.4718617     1436.895     72.25351      2.079     5.80     4.339897     20.37972     107.7932        27     1.674     1.124 -46.25  16
       239    526.8406    380.2372 300.2120869 +22.6266822     6022.157     72.30867      1.361     2.37     4.707026     20.37972     755.9578        36     1.190     1.087 -89.71   0
       240    918.8342    374.5316 300.3360218 +22.7424640     1578.442     72.23512      1.559     2.80     4.234922     20.37972     173.6311        23     1.191     1.037  83.33   0
       241   1016.0251    374.7920 300.3662386 +22.7716376      637.328     72.23512      1.450     3.76     4.210642     20.37972     69.37739         9     0.917     0.700 -59.00   0
       242    511.1325    369.0726 300.2108236 +22.6187680     533.2942     72.29029      1.451     2.46     4.705369     20.37972     66.11591         7     0.829     0.526  44.29   0
       243     17.4747    369.1409 300.0573634 +22.4707798     371.1121     72.29029      1.656     4.23     4.541914     20.37972     35.71344         7     0.860     0.635  18.18   0
       244    593.9727    366.3545 300.2374867 +22.6428099     487.6144      72.2719      1.553     2.25     4.602373     20.37972     62.86535         7     0.708     0.642   8.01   0
       245     38.6176    365.4677 300.0651206 +22.4760677     1148.202     72.23512      1.822     3.81     4.631219     20.37972     95.61298        20     1.198     1.092 -27.69   0
       246    891.5291    362.5587 300.3313982 +22.7308459     411.5561      72.1983      1.081     3.37     4.338121     20.37972     58.99164         6     0.899     0.425  18.96   0
       247    414.4014    359.3762 300.1838795 +22.5869929     2465.926     72.17989      1.406     2.52     4.588071     20.37972     269.9344        23     1.152     0.957  68.81   0
       248    132.7952    356.6446 300.0972340 +22.5017813     927.0833     72.23512      1.497     2.81     4.684246     20.37972     125.2415        15     1.150     0.833  83.17   0
       249    762.3427    354.1368 300.2938802 +22.6897371     222.8037     72.29029      1.119     1.98     4.458736     20.37972     55.22359         5     0.688     0.446  72.09   0
       250    383.7009    348.8337 300.1777537 +22.5747634     29278.19     72.21671      1.422     2.48     4.622671     20.37972      3753.27        73     1.353     1.230  71.14   0
       251    918.3682    346.3997 300.3450095 +22.7342364     1341.373      72.1983      1.368     2.56      4.36053     20.37972     165.5651        19     1.083     0.954 -80.29   0
       252     80.0066    336.5866 300.0873480 +22.4801935     4860.265     72.12463      1.617     3.06     4.765722     20.37972     451.0936        38     1.350     1.269  55.20   0
       253    956.6369    335.8961 300.3603488 +22.7426738      167.142     72.23512      1.075     4.08     4.372567     20.37972     38.99092         6     1.186     0.401  59.66   0
       254    258.0948    335.5737 300.1430073 +22.5333032     394.8669     72.17989      1.321     4.22     4.652534     20.37972     55.46964         7     0.777     0.652  -9.77   0
       255    833.7865    335.2530 300.3222681 +22.7057054     513.9146      72.2719      1.244     2.50     4.366226     20.37972     72.53559         8     0.777     0.660  31.67   0
       256    482.1537    334.3116 300.2130912 +22.6000990      481.229     72.21671      1.276     2.30     4.816719     20.37972     66.18408         7     0.801     0.555 -33.93   0
       257    794.2345    328.5933 300.3121068 +22.6919465     1901.051     72.23512      1.472     2.52     4.351884     20.37972     231.4415        19     1.122     0.912  73.62   0
       258    602.1784    323.2121 300.2540454 +22.6328731     258.9478     72.21671      1.220     2.68      4.56187     20.37972     49.09452         6     0.745     0.539  57.74   0
       259   1009.5111    321.5955 300.3814768 +22.7543899       540.34     72.14306      1.403     2.77     4.397889     20.37972     73.84837        10     0.936     0.730   2.63   0
       260      2.4470    321.9126 300.0680270 +22.4527204     398.0286      62.2326      1.519     4.28     4.917193     20.37972     39.36044         5     0.822     0.634 -10.36  24
       261    863.3168    314.5589 300.3381874 +22.7085987     124.4104      72.1983      1.129     3.77     4.387895     20.37972     39.69985         6     0.924     0.674  69.10   0
       262    455.9461    313.0974 300.2118237 +22.5861517      2139.55     72.32705      1.582     3.34     4.878441     20.37972     224.4325        25     1.303     1.075  66.07   0
       263     28.4890    303.6432 300.0820416 +22.4552885     912.3228     72.23512      2.365     7.19       4.9419     20.37972     65.37353        11     1.607     0.902  88.45   2
       264    894.9991    306.0888 300.3508105 +22.7156496     633.1434     72.16148      1.348     3.35     4.407097     20.37972     79.41689         9     0.906     0.747  89.33   0
       265    794.6489    303.8382 300.3202710 +22.6849547     217.3033     72.25351      1.250     3.38     4.333453     20.37972      35.6839         5     0.782     0.424  70.44   0
       266    777.2184    303.5290 300.3149412 +22.6796460      464.061     72.25351      1.568     2.20     4.351251     20.37972     69.27344         6     0.851     0.606 -27.60   0
       267    745.4461    302.7239 300.3053056 +22.6698994     190.8583     72.23512      1.000     2.69     4.380411     20.37972     54.72205         5     0.904     0.367  66.05   0
       268    856.3970    297.2271 300.3416564 +22.7015439     215.8525      72.1983      1.277     4.87     4.380507     20.37972     31.13238         5     1.086     0.618  28.84   0
       269    531.6470    292.4425 300.2420804 +22.6029012     1376.895      72.2719      1.159     2.46     4.990986     20.37972     372.1347        14     1.005     0.711  47.76   0
       270    338.8794    292.8620 300.1819829 +22.5452551     270.1904     72.32705      1.146     3.92     4.820065     20.37972     29.76218         6     0.767     0.573  48.54   0
       271    104.4164    292.7549 300.1091546 +22.4749333     298.1759     72.25351      1.503     3.37     4.730236     20.37972     36.03971         5     1.103     0.414  74.81   0
       272    776.6496    284.5524 300.3209229 +22.6740207     2274.843      72.2719      1.447     2.44     4.330999     20.37972     259.8027        24     1.150     0.975  69.44   0
       273      9.7531    269.8148 300.0872016 +22.4399611     72506.84     72.25351      1.722     3.15     4.997415     20.37972     6947.436       128     1.675     1.513  60.83  16
       274    484.8935    268.4112 300.2353314 +22.5819889     484.0341     72.17989      1.238     3.07     5.041669     20.37972     82.61518        13     1.063     0.833  77.74   0
       275    190.4238    262.2680 300.1457670 +22.4919690     718.6251     72.21671      1.732     5.16     4.562015     20.37972     75.60238        15     1.454     0.851  50.73   0
       276    159.7625    262.4449 300.1361830 +22.4828274     1464.608     72.29029      1.894     3.68     4.564957     20.37972     124.4606        22     1.287     1.101 -14.85   0
       277    908.1166    259.9452 300.3698746 +22.7063084     282.3602     72.29029      1.446     3.93     4.442096     20.37972      34.5402         5     0.833     0.531  25.33   0
       278    897.2336    256.3452 300.3676507 +22.7020152     304.4287     72.25351      1.462     3.27     4.435415     20.37972     32.29967         5     0.738     0.450  15.13   0
       279    243.6652    254.5652 300.1648117 +22.5057178     508.8264     72.23512      1.545     3.27     4.598423     20.37972     50.60432         6     0.890     0.436  17.67   0
       280    920.0672    248.0549 300.3774581 +22.7064666     351.7511      72.2719      1.266     3.87     4.452148     20.37972      54.6218         8     1.071     0.609  65.66   0
       281    848.3320    245.9287 300.3557907 +22.6843799     585.6663      72.2719      1.306     2.99     4.391637     20.37972     85.74469         9     0.870     0.766  62.53   0
       282    946.4474    234.9664 300.3899287 +22.7105990      2042.57      72.2719      1.475     2.56     4.457578     20.37972     235.9333        23     1.142     1.041  71.10   0
       283    442.7901    227.3628 300.2355523 +22.5575809     1046.862     72.23512      1.435     2.99     5.010959     20.37972     108.5807        15     1.018     0.890 -25.03   0
       284    844.8167    226.7553 300.3609166 +22.6778144     513.6866     72.25351      1.286     2.59     4.394684     20.37972     71.14537        10     0.897     0.695  28.74   0
       285    194.5018    227.6301 300.1582725 +22.4832462     156.5738     72.17989      1.061     3.68     4.562015     20.37972     39.42456         6     0.874     0.481  -3.05   0
       286    365.0281    232.1539 300.2098126 +22.5356559     2110.521      72.2719      1.444     2.69     4.868167     20.37972     234.9823        23     1.145     1.010  79.18   0
       287    259.6856    219.3213 300.1812257 +22.5003991      832.932     72.36379      1.725     3.47     4.667148     20.37972     85.07098        14     1.028     0.971  61.96   0
       288    797.6201    216.3233 300.3495958 +22.6606846     1756.374     72.23512      1.509     2.31     4.320666     20.37972     211.3385        25     1.301     1.046 -67.75   0
       289    862.3218    215.7512 300.3699419 +22.6798907     700.7345     72.23512      1.379     2.73     4.431414     20.37972     87.70869        11     0.981     0.695  51.55   0
       290    111.5782    216.6168 300.1360830 +22.4552244      222.915     72.21671      1.441     3.80     4.738031     20.37972      35.1712         5     1.073     0.385  17.21   0
       291    281.0991    212.4911 300.1900977 +22.5048555     605.7243     72.40051      1.502     3.75     4.737197     20.37972     65.54993         9     0.928     0.765   2.74   0
       292    570.9866    208.6140 300.2815241 +22.5905987     208.1733     72.16148      1.293     4.15     4.962781     20.37972     36.50997         6     1.106     0.444  74.27   0
       293    801.5763    207.9221 300.3535540 +22.6594535     821.6882     72.23512      1.507     2.86     4.330612     20.37972     87.14474        13     0.930     0.875   9.93   0
       294    722.0724    207.0506 300.3290712 +22.6353980     1276.927     72.23512      1.491     2.92     4.385348     20.37972     152.8677        18     1.114     0.936  76.50   0
       295    543.2147    203.5408 300.2745267 +22.5808220     403.7957      72.1983      1.394     3.26     4.986135     20.37972     51.88273         7     0.963     0.606 -75.13   0
       296    885.8376    199.7551 300.3824605 +22.6823301     5635.778     72.29029      0.595     0.81     4.445564     20.37972     3389.313         9     0.484     0.427  64.80   0
       297    917.6266    198.4944 300.3927778 +22.6914828     1393.255     72.16148      1.416     2.86     4.454564     20.37972     164.1128        17     1.021     0.959  70.84   0
       298    648.2802    198.7746 300.3087774 +22.6109209     851.7512     72.21671      1.370     2.45     4.647179     20.37972     112.8561        12     0.918     0.767 -73.06   0
       299    929.5287    197.8112 300.3967095 +22.6948488     751.4465     72.25351      1.432     2.46     4.457578     20.37972     99.49943        12     0.918     0.771 -32.52   0
       300    976.3895    197.0541 300.4115644 +22.7086563      248.381     72.23512      1.173     4.27     4.457578     20.37972     34.26646         6     1.104     0.472  20.57   0
       301    489.1837    194.9964 300.2604857 +22.5621810     222.7355     72.16148      1.243     2.89     4.997114     20.37972     39.71893         5     0.789     0.485 -29.56   0
       302     19.4898    187.0810 300.1170652 +22.4191347     228.3913     72.34542      1.262     3.54     4.850823     20.37972     44.56704         6     0.941     0.644 -32.97   0
       303    280.3771    181.1747 300.2000320 +22.4956448     588.8947      72.1983      1.312     2.68     4.863879     20.37972     70.59545         9     0.828     0.688 -13.74   0
       304    142.1978    175.6992 300.1588678 +22.4526559     2064.463     72.12463      1.529     3.25     4.898588     20.37972     209.6821        24     1.248     1.066  61.89   0
       305    965.5386    172.6693 300.4160920 +22.6983946     697.1785      72.2719      1.462     3.02     4.457578     20.37972     80.20043        11     0.940     0.748  85.67   0
       306     91.7834    172.8172 300.1441423 +22.4367151     517.0916      72.1983      1.699     4.01     4.908613     20.37972     50.47701         6     0.927     0.616  11.63   0
       307    299.5850    169.0694 300.2099296 +22.4979241     5682.689     72.25351      1.506     2.67     4.918584     20.37972     604.0074        35     1.279     1.116  70.99   0
       308     45.2364    165.3784 300.1320992 +22.4206243     247.5415     72.25351      1.318     3.09      4.88885     20.37972     36.87177         5     0.747     0.433  20.98   0
       309     83.7824    163.3953 300.1447132 +22.4316114     1271.781     72.17989      1.625     3.29     4.930227     20.37972     142.1636        19     1.426     0.966  45.36   0
       310    283.0314    159.9378 300.2077455 +22.4903405     634.2883     72.25351      1.487     2.71     4.947003     20.37972     80.06892        10     0.865     0.752  84.68   0
       311    943.8164    150.6662 300.4164571 +22.6855644     3575.694     72.21671      1.512     2.63     4.516267     20.37972     395.4862        32     1.235     1.180  63.81   0
       312    493.1028    145.9047 300.2776289 +22.5492482     588.1943     72.41887      1.313     2.63     4.887885     20.37972     92.97202        10     0.909     0.687  56.63   0
       313    246.3126    146.3243 300.2007474 +22.4754264      188.705     72.36379      1.161     2.99     4.965581     20.37972     50.51464         6     0.699     0.657 -36.76   0
       314    607.6446    143.2470 300.3141384 +22.5827905     303.0447      72.2719      1.397     4.09      4.92228     20.37972     46.83866         6     0.782     0.628  48.42   0
       315    417.1085    137.7281 300.2566398 +22.5241335     561.4903     72.40051      1.366     3.45     4.907293     20.37972     66.61355         9     0.918     0.765  63.78   0
       316    421.6550    136.2652 300.2585283 +22.5250752     469.7273     72.29029      1.782     4.67     4.897484     20.37972     39.23705         8     0.959     0.645   4.92   0
       317    952.8058    135.2295 300.4242665 +22.6838141     165.1097     72.23512      1.280     3.94      4.61017     20.37972     29.46963         5     0.947     0.470 -45.86   0
       318    183.2849    134.8581 300.1848793 +22.4532436     617.3384     72.34542      1.446     3.07     5.009561     20.37972     75.26826        10     0.967     0.769  32.51   0
       319     81.5671    133.9707 300.1535681 +22.4224990     307.4179     72.25351      1.413     3.69     4.949713     20.37972     48.71008         6     1.217     0.322  71.27   0
       320    544.5842    133.1970 300.2977701 +22.5610159     1602.412     72.08777      1.429     2.64      4.94737     20.37972     171.2308        17     1.059     0.863  64.73   0
       321    472.9030    133.6189 300.2753288 +22.5396668      571.675     72.14306      1.592     3.61     4.823274     20.37972     61.13176        10     1.038     0.800  21.67   0
       322    606.3094    132.2170 300.3173001 +22.5792200     408.1699     72.16148      1.821     2.68     4.922936     20.37972     48.16954         5     0.755     0.419  71.86   0
       323    287.7642    128.4933 300.2194149 +22.4827265     372.6772      72.1983      1.460     4.24     4.956971     20.37972     46.23805         8     0.919     0.717  73.80   0
       324    832.9807    122.5229 300.3910404 +22.6442968     408.3932     72.23512      1.339     3.74     4.539814     20.37972      36.0104         6     0.804     0.499  -1.10   0
       325    318.6287    112.9849 300.2340394 +22.4875196     6015.435     72.25351      1.487     2.82     4.915569     20.37972     639.8071        38     1.292     1.157  72.05   0
       326    825.0418    113.3580 300.3915390 +22.6392846     415.5244     72.34542      1.527     3.28     4.539554     20.37972     42.36765         7     0.759     0.647  15.07   0
       327    169.5132    112.4993 300.1878509 +22.4426948      702.145     72.40052      1.681     3.17     5.036188     20.37972     68.12963        10     1.035     0.659  21.60   0
       328    947.9583    111.1605 300.4305614 +22.6754394      270.767     72.32705      1.196     4.87     4.751026     20.37972     38.33839         7     0.945     0.730 -85.96   0
       329     13.5698    109.0843 300.1405223 +22.3949691     777.3492     72.25351      1.774     3.11     4.850074     20.37972     73.17505        10     1.014     0.687 -20.43   0
       330     80.0502    103.0745 300.1631158 +22.4131730     511.1935     72.23512      1.839     4.45     4.964785     20.37972     40.33259         9     1.076     0.749 -56.38   0
       331    564.6782     98.3292 300.3153314 +22.5570117     6215.034     72.34542      1.418     2.51     4.922258     20.37972     714.9347        34     1.273     1.053  79.02   0
       332    450.0032     98.3623 300.2796381 +22.5226755     736.4655      72.2719      1.370     2.64     4.732593     20.37972     88.38165        11     0.892     0.772 -70.11   0
       333    621.5529     93.2592 300.3346794 +22.5725854     241.9871     72.29029      1.221     2.86     4.926118     20.37972     51.45181         6     0.841     0.505  42.85   0
       334    318.3530     91.9953 300.2407599 +22.4814069     256.3553     72.21671      1.518     5.57     4.891551     20.37972     42.66714         5     1.374     0.637  53.20   0
       335    816.8802     88.5634 300.3970365 +22.6297106     966.9896      72.1983      1.892     4.62      4.62994     20.37972     97.97899        17     1.545     0.958 -71.34   0
       336    758.5533     89.4128 300.3785899 +22.6124960     279.5402     72.25351      1.535     3.65     4.554064     20.37972     38.84462         6     0.950     0.403 -70.21   0
       337    909.5688     87.0977 300.4263976 +22.6570290     405.4558      72.1983      1.547     4.67       4.8688     20.37972     42.03119         7     1.235     0.501  47.32   0
       338    257.7564     82.0017 300.2251628 +22.4603795     467.8672     72.21671      1.486     4.29     5.018407     20.37972     51.48595         9     1.163     0.626  86.79   0
       339    693.0620     78.4199 300.3617566 +22.5897291     6171.002      72.1983      1.425     2.52     4.878262     20.37972     797.0687        39     1.323     1.100  79.30   0
       340    615.7455     80.8665 300.3368899 +22.5672837     459.5562     72.29029      1.468     4.68     4.935465     20.37972     40.49979         8     0.906     0.686 -80.10   0
       341    467.8603     77.3661 300.2920015 +22.5219901     1489.244     72.25351      1.362     2.50     4.581547     20.37972      179.306        18     1.008     0.944  89.89   0
       342    734.1035     75.7532 300.3754033 +22.6012487     881.7289      72.2719      1.500     2.42     4.690034     20.37972     119.9265        10     0.936     0.630  62.90   0
       343    750.1754     72.0285 300.3816172 +22.6049887     504.4702     72.23512      1.290     2.44      4.73892     20.37972     79.76522        10     0.833     0.747  -3.06   0
       344   1020.0233     69.1188 300.4666650 +22.6849057     495.6547     71.47677      1.488     3.87     5.028129     20.37972     50.88604        10     1.098     0.786  83.13  16
       345    217.0418     69.7982 300.2164655 +22.4446738     603.9219     72.23512      1.451     3.16     5.093238     20.37972     85.11632        10     0.988     0.739 -81.13   0
       346     63.7705     70.0155 300.1687785 +22.3988004     224.8141     72.23512      1.282     3.97     5.187785     20.37972      30.1583         5     0.871     0.517 -40.92   0
       347    788.4476     67.3476 300.3950574 +22.6150984     549.6854      72.2719      1.450     3.41     4.873143     20.37972      69.7105         5     0.749     0.448  69.00   0
       348    377.8902     64.1451 300.2683029 +22.4912413     352.7744     72.29029      1.309     4.43     4.602053     20.37972     38.92503         8     1.070     0.619 -61.92   0
       349    751.7078     61.3070 300.3855708 +22.6023640     885.5458     72.40052      1.880     2.60     4.866687     20.37972     75.93032        10     0.868     0.728  88.09   2
       350    737.1473     63.2159 300.3804166 +22.5985545     2927.137     72.23512      1.496     2.59      4.80901     20.37972      328.238        25     1.116     1.071 -74.77   0
       351     30.4434     57.6970 300.1624227 +22.3852733     820.9026     72.23512      1.589     3.66     5.508031     20.37972     82.09398        15     1.214     0.862  13.75   0
       352    823.5573     54.7499 300.4100810 +22.6219833     1551.584      72.2719      1.492     2.94     4.972609     20.37972     185.0374        24     1.201     1.097   6.62   0
       353    761.7098     48.0713 300.3929777 +22.6015513     652.7745     72.40051      1.394     3.47     5.047319     20.37972     79.59507        11     1.061     0.716  52.81   0
       354    567.2524     47.3573 300.3326597 +22.5431298     1081.713     72.23512      1.423     3.09     4.781204     20.37972     123.8865        13     1.049     0.764  68.54   0
       355    140.0764     46.9636 300.1999537 +22.4150505     536.1693      72.1983      1.502     3.88      5.11607     20.37972     76.42358         8     1.200     0.655 -48.75   0
       356    471.0837     45.4920 300.3033385 +22.5137945     889.9365     72.41887      1.507     2.81     4.438489     20.37972     91.90939        14     0.969     0.883 -66.64   0
       357    853.1958     44.4710 300.4226493 +22.6278966     447.1237     72.17989      1.279     2.53     4.872468     20.37972     63.59125         7     0.808     0.601 -77.68   0
       358    242.4535     35.4761 300.2354902 +22.4424286     3774.756      72.2719      1.613     2.84     5.103109     20.37972     399.2766        37     1.370     1.187  67.22   0
       359    810.4485     36.2823 300.4119839 +22.6127480     602.0668     72.25351      1.573     2.75     5.275135     20.37972     65.05321         8     0.871     0.628  74.23   0
       360     35.1856     35.3530 300.1711386 +22.3802788     207.1023     72.25351      1.288     4.28     5.825997     20.37972     34.80051         5     1.098     0.476   2.77   0
       361    568.1903     32.9969 300.3376072 +22.5392822     308.2544     72.05089      1.132     3.33     4.747022     20.37972     45.41581         6     0.867     0.497  52.29   0
       362    664.9131     32.1813 300.3679826 +22.5680062     362.1731     72.17989      1.422     4.51     5.100155     20.37972     30.41122         8     0.858     0.673  45.72   0
       363    803.9562     27.8244 300.4127031 +22.6083721     820.8474      72.2719      1.397     3.38     5.440126     20.37972     103.8993        17     1.104     1.007 -78.66   0
       364    358.3315     27.5639 300.2740800 +22.4748705     1330.868     72.23512      1.660     2.92     4.354201     20.37972     130.3534        21     1.209     0.986  55.50   0
       365    769.5707     27.5232 300.4020882 +22.5979942     460.2325     72.21671      2.074     3.96     5.325087     20.37972     33.92923         5     1.011     0.444  76.02   0
       366    585.0926     24.9899 300.3454639 +22.5420410     230.9361     72.17989      1.260     3.55     4.824192     20.37972     34.08333         5     0.644     0.590   0.80   0
       367    765.0436     23.1128 300.4021077 +22.5953707     587.2833     72.21671      2.129     3.74     5.362345     20.37972      60.7143        11     1.090     0.758  62.75   0
       368    841.3796     22.8989 300.4259607 +22.6181549     625.4179     72.16148      1.453     3.76     5.072235     20.37972     60.26449        11     1.064     0.724  52.64   0
       369    704.9177   1018.5115 300.0600182 +22.8633148     8562.131     72.34542      2.032     4.44     2.386839     20.37972     435.6408        53     1.562     1.530  18.95  19
       370    567.3928     17.3959 300.3424164 +22.5345581     502.7194     72.06933      1.552     3.22     4.696864     20.37972     57.93559         6     0.877     0.437  73.28   0
       371    710.4956   1016.1445 300.0625256 +22.8643088     9094.638     72.30867      1.991     4.36     2.379149     20.37972     504.3006        56     1.649     1.475  71.56  19
       372    804.9353   1019.0522 300.0909923 +22.8934683     666.5251      72.2719      2.312     6.61     2.295953     20.37972     40.40325        13     1.268     0.965  -1.39  16
       373    723.1669    985.6104 300.0764106 +22.8593476     6878.886     72.23512      1.929     3.92     2.438013     20.37972      392.771        54     1.548     1.521  65.43   0
       374    146.4832   1019.5886 299.8859969 +22.6960207     3856.682      72.1983     10.275    29.86     51.52417     20.37972     93.06628       279     7.074     3.500   0.96  27
       375    568.7928   1007.7036 300.0211627 +22.8193767     646.6231     72.12463      2.280     6.40       2.2922     20.37972       32.165        10     1.461     0.788  19.83   0
