#   1 NUMBER                 Running object number                                     
#   2 X_IMAGE                Object position along x                                    [pixel]
#   3 Y_IMAGE                Object position along y                                    [pixel]
#   4 ALPHA_J2000            Right ascension of barycenter (J2000)                      [deg]
#   5 DELTA_J2000            Declination of barycenter (J2000)                          [deg]
#   6 FLUX_APER              Flux vector within fixed circular aperture(s)              [count]
#   7 FLUXERR_APER           RMS error vector for aperture flux(es)                     [count]
#   8 FLUX_RADIUS            Fraction-of-light radii                                    [pixel]
#   9 FWHM_IMAGE             FWHM assuming a gaussian core                              [pixel]
#  10 BACKGROUND             Background at centroid position                            [count]
#  11 THRESHOLD              Detection threshold above background                       [count]
#  12 FLUX_MAX               Peak flux above background                                 [count]
#  13 ISOAREA_IMAGE          Isophotal area above Analysis threshold                    [pixel**2]
#  14 A_IMAGE                Profile RMS along major axis                               [pixel]
#  15 B_IMAGE                Profile RMS along minor axis                               [pixel]
#  16 THETA_IMAGE            Position angle (CCW/x)                                     [deg]
#  17 FLAGS                  Extraction flags                                          
         1    214.2516     13.6673 300.2354365 +22.4424657     4017.386     72.34538      1.558     2.69     5.667392     20.40563     464.2529        36     1.368     1.136  62.53   0
         2    782.2477     14.2877 300.4120662 +22.6126883      514.673     72.32696      1.192     3.40     5.799894     20.40563     83.49909        10     1.088     0.742  60.89   0
         3    637.0579     11.0079 300.3678865 +22.5682973     400.2387     72.30853      1.367     3.26     5.668602     20.40563     49.18148         5     0.799     0.496 -27.97   0
         4    540.6466     11.2075 300.3377949 +22.5394968     345.0848     72.34538      1.318     4.85      5.09744     20.40563     43.92017         7     1.179     0.564 -12.23   0
         5    775.7514      6.4200 300.4125906 +22.6084815     889.4279     72.34538      1.309     2.11     5.856864     20.40563     151.0737        14     1.030     0.771 -44.81  16
         6    330.3070      5.8661 300.2740595 +22.4749838     1229.871     72.47419      1.351     2.61     5.689488     20.40563     158.1596        16     1.036     0.884  60.61  16
         7    741.0712      5.3610 300.4021247 +22.5978001     301.8164     72.17943      1.233     2.68     5.728602     20.40563     44.35596         5     0.731     0.437  19.88  16
         8    556.7538      3.3977 300.3453409 +22.5420731     272.5702     66.59118      1.126     2.84     5.187013     20.40563     46.96867         6     0.826     0.511  45.44  16
         9    813.2331      1.7524 300.4257869 +22.6183531     413.2672     58.65475      1.205     2.73     5.958389     20.40563     66.62227         8     0.767     0.686  65.53  24
        10    736.9404      1.4784 300.4020954 +22.5954474     357.8757     57.13577      0.919     1.56     5.745297     20.40563     87.54742         6     0.656     0.499   4.11  24
        11    213.1070   1006.9279 299.9126010 +22.7271450     2479.113      72.4558      3.672    22.80     83.03787     20.40563      60.3024        90     4.088     3.530 -10.65  19
        12    339.1829   1022.2794 299.9468110 +22.7693858     699.3194     63.56084      1.581     4.56     14.51812     20.40563     67.53499        13     1.239     0.817  64.13  26
        13    122.6285    959.4812 299.8999135 +22.6863860     5392.638     72.34538     23.159    76.71     34.51774     20.40563     102.5287      3180    17.969    15.576 -16.11  19
        14    541.3210    985.7063 300.0216129 +22.8195456     370.4814     72.43741      1.379     4.56     3.629528     20.40563     34.19677         7     1.054     0.559  64.36   0
        15     25.1519    982.8757 299.8620191 +22.6638247      780.184     72.32696      6.734     7.50   -0.1527182     20.40563     46.00621        13     1.558     1.246 -61.68   0
        16    969.0233    980.3906 300.1566229 +22.9462571     780.8445     72.32696      2.002     5.15     3.732316     20.40563     58.51217        17     1.410     1.139 -16.06   0
        17    119.2842    927.8442 299.9091641 +22.6763145     4089.017      72.2901     19.381    63.20     10.26043     20.40563      85.4847      1080    14.902     7.437 -22.78   3
        18    681.9431    994.5801 300.0625188 +22.8642668     9399.335     72.34538      1.898     4.46     3.786749     20.40563     596.0211        49     1.519     1.428 -38.73   3
        19      5.0585   1021.7443 299.8431335 +22.6689271     1925.952     65.46106      8.657    26.12    -24.88618     20.40563     57.85641       112     7.634     2.482 -20.49  27
        20    529.0017   1011.5098 300.0093825 +22.8232516     396.0838     72.25323      2.089     5.55     3.648583     20.40563     32.05523         5     1.427     0.609 -40.51   0
        21    188.9062    966.5217 299.9182225 +22.7082990     1446.115      72.4558      5.135    13.41     48.51221     20.40563     57.23556        35     2.723     1.838  41.77   0
        22    776.5304    997.6454 300.0909934 +22.8935086     817.3098     72.30853      1.916     5.37      3.12142     20.40563     47.77823        19     1.352     1.052   4.62   0
        23    694.7928    963.8915 300.0765059 +22.8593141     6782.455     72.23479      1.828     3.91     3.775569     20.40563      429.473        44     1.435     1.374  16.57   0
        24    575.3401    958.1353 300.0411741 +22.8218401     421.6571     72.36379      1.843     5.31     3.623525     20.40563     38.79715         6     1.096     0.727 -87.45   0
        25    285.9611    958.3420 299.9510587 +22.7350829     195.6844     72.32696      1.343     5.37     21.04856     20.40563     56.24451         8     1.160     0.701 -22.89   0
        26      4.2908    978.9252 299.8568246 +22.6564288     1227.464     69.92912     17.982    23.59    -12.76711     20.40563     38.10941        57     6.314     2.448  79.09  27
        27    603.1541    954.5247 300.0510097 +22.8291460     1444.094     72.32696      1.709     4.06     3.635469     20.40563     122.4462        22     1.221     1.175 -43.34   0
        28    497.0911    950.9138 300.0191625 +22.7962982     1058.077     72.49257      1.683     3.65     3.625923     20.40563     95.46796        20     1.196     1.073  15.24   0
        29    427.6869    949.0651 299.9981638 +22.7749477     6615.912     72.41901      1.770     3.96     3.848873     20.40563     518.5405        46     1.443     1.371 -11.97   0
        30    737.8546    938.9252 300.0980442 +22.8650606      329.789     72.36379      1.807     4.00     3.818532     20.40563     33.95287         5     0.844     0.541 -38.91   0
        31    208.7710    982.9974 299.9190382 +22.7189841     928.1926     72.27167      4.443     8.05     62.25562     20.40563     38.95995        16     1.707     1.061  61.75   3
        32    460.6635    935.8464 300.0127256 +22.7810490     527.0816     72.36379      1.709     3.98     3.733667     20.40563     46.63375         9     0.943     0.773  38.01   0
        33    973.8911    927.7811 300.1752561 +22.9326097     2208.808     72.25323      1.953     4.54     3.710325     20.40563     114.9232        34     1.483     1.413 -66.71   0
        34    146.0081   1021.9332 299.8868629 +22.7113028     3908.281     65.19592      5.915    24.96     91.15575     20.40563     108.0964       192     6.080     2.845   9.26  27
        35    473.1913    923.3001 300.0207054 +22.7812083     261.8916     72.19788      1.374     4.10     3.702251     20.40563     31.82708         6     1.271     0.377  84.77   0
        36    762.8253    916.7924 300.1130245 +22.8661942     1002.501     72.32696      2.009     6.28     3.827121     20.40563     68.02691        21     1.727     0.982  54.24   0
        37    625.2778    925.4160 300.0673681 +22.8274287     285.3291     72.32696      1.275     4.86      3.61631     20.40563     33.11206         7     1.305     0.514 -70.44   0
        38    797.5907    911.1890 300.1256820 +22.8750074      976.172     72.21634      1.688     5.08     3.824501     20.40563     62.95146        20     1.246     1.185  53.12   0
        39    574.9078    911.9808 300.0560520 +22.8084686     465.5663     72.25323      1.783     6.33     3.584852     20.40563     42.80698        12     1.099     1.024  67.78   0
        40    124.9326   1013.8641 299.8829386 +22.7026631      4743.81      72.3822     11.077    49.81      78.4213     20.40563     98.89068       738    11.188     6.154  63.01  27
        41      7.8572    907.6720 299.8811065 +22.6370826     605.3956     72.36379      1.888     5.59     3.143227     20.40563     55.40651        12     1.702     0.888 -51.98  16
        42    819.9211    904.6171 300.1347798 +22.8798144     11427.89     72.32696      1.750     4.04     3.796437     20.40563     742.3819        48     1.402     1.354 -30.11   0
        43    187.9440    906.9760 299.9372902 +22.6909407      593.593     72.34538      5.830     5.43     12.85957     20.40563     28.26545         5     1.484     0.561  14.46   0
        44    865.8915    904.7313 300.1490737 +22.8936256     458.2608      72.4558      1.619     5.75     3.700869     20.40563     46.26504        10     1.214     0.864 -67.76   0
        45     12.9759    999.8580 299.8527128 +22.6650343      1705.19     72.32696     16.894    24.98    -11.56445     20.40563     43.25193        93     7.265     2.385 -86.23  19
        46      3.9340   1003.3774 299.8487595 +22.6633274       2000.4     68.58235     15.006    23.35    -20.14458     20.40563     46.70525       117     6.397     2.367 -89.98  27
        47   1010.5438    904.4095 300.1942918 +22.9368806     388.4249     72.30853      1.797     5.46     3.924441     20.40563     31.24548         7     1.232     0.682 -18.67   0
        48    251.2213    901.9235 299.9586057 +22.7084818     672.0046     72.32696      2.769     3.85     9.625328     20.40563     33.62592         5     0.812     0.523  33.80   1
        49    131.6839    896.7405 299.9231325 +22.6711209     1115.677     72.43741      4.681     5.74     9.114882     20.40563     67.83629        13     1.488     0.946 -21.80   0
        50    871.6329    892.3312 300.1548967 +22.8917862     417.8882     72.32696      1.529     6.08     3.730281     20.40563      38.4835         9     1.125     0.924  -8.77   0
        51    525.1015    892.9806 300.0467244 +22.7880802     489.5021     72.25323      1.587     4.77     3.663741     20.40563       53.162         9     0.875     0.737 -47.61   0
        52    195.7206    891.9373 299.9445981 +22.6889632     682.1915     72.41901      3.638     3.87     10.81346     20.40563     28.60303         5     1.301     0.330  24.94   0
        53      2.5722   1013.1934 299.8451431 +22.6657307     1931.076     62.82284      5.988    17.21    -24.21597     20.40563     56.96465        71     3.548     2.318 -84.11  27
        54    828.5396    886.7983 300.1432616 +22.8772820     1521.968      72.2901      1.846     4.19      3.82384     20.40563     90.66098        24     1.303     1.153  -0.76   0
        55    398.5587   1008.1827 299.9698687 +22.7831616     693.1185     72.34538      2.137     6.27     3.992005     20.40563     48.01772        13     1.261     0.906 -68.35   0
        56   1008.9880    884.8477 300.2001687 +22.9307962     269.3568     72.34538      2.394     6.09     4.029235     20.40563     26.69195         6     1.660     0.628  49.29   0
        57    680.1037    883.2263 300.0981669 +22.8317605     551.3184      72.2901      1.875     4.42     3.791584     20.40563      47.7534        11     1.227     0.814  38.69   0
        58    543.8964    884.0153 300.0554912 +22.7911446     191.8126     72.23479      1.264     3.91     3.619592     20.40563     33.19571         5     0.836     0.523  29.63   0
        59    866.3823    879.9744 300.1572783 +22.8866647     774.9569     72.34538      1.799     6.50     3.778463     20.40563      59.6939        14     1.350     0.879  59.00   0
        60    589.9531   1001.4968 300.0316176 +22.8386625     2305.038     72.36379      1.804     4.04     3.717469     20.40563     181.5382        29     1.382     1.220 -45.88   0
        61    975.5396    876.8674 300.1923298 +22.9184826     475.6606     72.36379      1.822     5.74     3.890777     20.40563      35.2278         9     1.271     0.731  32.01   0
        62    914.8616    871.1540 300.1752632 +22.8986601     631.7943     72.34538      1.671     6.73     3.666382     20.40563     48.68871        16     1.359     0.936  56.63   0
        63    765.9091    870.4448 300.1290588 +22.8538146     770.8123     72.30853      1.624     4.22     3.892526     20.40563     64.66578        16     1.194     1.036   5.99   0
        64    777.3945    867.2645 300.1336725 +22.8563444     694.9227      72.2901      1.728     5.27     3.903071     20.40563      73.4353        16     1.260     0.958  67.91   0
        65    478.8288    866.6917 300.0408694 +22.7666600     4251.787      72.2901      1.603     3.36     3.900893     20.40563     384.3823        34     1.270     1.222  30.69   0
        66    676.4573    996.6882 300.0601240 +22.8632266     8763.805     72.40061      1.929     4.40      3.78863     20.40563     482.1743        44     1.452     1.429 -89.29   3
        67    929.8964    863.6521 300.1823915 +22.9010110      242.974     72.40061      1.525     5.05     3.647077     20.40563     36.28099         5     1.156     0.623  82.74   0
        68    522.7046    854.6984 300.0584268 +22.7763777     275.6623     72.51095      1.123     4.08     3.781106     20.40563     46.40297         6     1.352     0.351  49.44   0
        69    204.0278    852.3747 299.9600445 +22.6801131     898.4469     72.30853      1.878     4.73     6.678467     20.40563      82.5926        15     1.209     1.058 -37.96   0
        70    181.2695    849.3212 299.9539627 +22.6724082     1626.506     72.43741      1.721     4.03     6.552604     20.40563      150.506        27     1.325     1.255  22.09   0
        71    112.7408    850.5671 299.9322591 +22.6521992      469.923     72.36379      1.846     5.11     5.101517     20.40563     35.39128         9     0.950     0.778  28.64   0
        72    809.0999    845.2493 300.1507132 +22.8595269     420.4962     72.41901      1.991     5.69     3.930901     20.40563     31.80951         6     1.443     0.633  41.90   0
        73     56.8095    839.3913 299.9185140 +22.6322082     383.8507     72.21634      1.419     2.66     4.388157     20.40563     56.08763         5     0.813     0.534  54.19   0
        74   1007.3732    837.0963 300.2151933 +22.9165972     1957.486     72.27167      1.824     4.39     4.312164     20.40563     145.9645        29     1.367     1.266  -0.50   0
        75    712.9916    837.4068 300.1233123 +22.8284683      434.966     72.17943      1.761     3.94     3.882289     20.40563     34.36792         5     0.907     0.490   2.22   0
        76    790.9512    830.8444 300.1497401 +22.8499518     590.8133     72.36379      1.521     3.89     3.944177     20.40563     53.41721        12     1.100     0.818 -39.08   0
        77    213.4379    831.3290 299.9698122 +22.6769023     314.6205     72.30853      1.307     4.29     5.765519     20.40563      49.0534         5     1.012     0.519 -43.46   0
        78    658.9016    824.8511 300.1105436 +22.8086494     4854.988     72.40061      1.545     3.16     3.873728     20.40563     437.3593        33     1.223     1.189  54.29   0
        79    211.6194    987.0754 299.9185971 +22.7210081     1179.493     72.32696      2.431     9.31     65.71386     20.40563     54.15904        21     2.973     0.813 -60.76   3
        80    461.0153    821.6493 300.0499701 +22.7483949     606.0247     72.36379      1.508     3.78     4.190204     20.40563     66.64542        14     1.122     0.919  35.40   0
        81    209.1234    818.4660 299.9726526 +22.6719192     1373.292     72.41901      1.719     3.52     5.196642     20.40563     153.1935        22     1.228     1.122  26.82   0
        82    679.4514    817.0416 300.1194842 +22.8125682     815.8243     72.32696      1.593     3.91     3.934701     20.40563     70.38633        16     1.093     1.032 -86.66   0
        83    208.9627    986.6896 299.9178967 +22.7201000      969.475     72.30853      1.993     6.21     65.71746     20.40563     50.03697        12     1.729     0.626 -39.73   3
        84    835.0175    804.6248 300.1720006 +22.8556295     4123.011     72.32696      1.568     3.38     3.946636     20.40563     350.8789        29     1.240     1.151 -70.45   0
        85    243.0450    798.3096 299.9897513 +22.6763167     530.8403     72.30853      1.566     3.95      4.53525     20.40563     56.37169        10     1.061     0.714  33.02   0
        86    551.9777    796.9094 300.0863286 +22.7685729     580.4947     72.25323      1.384     4.58     3.993847     20.40563     67.33916        11     1.125     0.830 -68.80   0
        87    198.2578    795.0638 299.9768820 +22.6619482     998.3548      72.3822      1.619     3.48     4.429748     20.40563     108.1558        18     1.125     1.052  17.86   0
        88    613.7701    790.4603 300.1076670 +22.7852483     651.4117     72.36379      1.710     3.33     3.888792     20.40563     67.26602        13     1.009     0.880 -26.03   0
        89    347.9586    787.1119 300.0260197 +22.7045776      54006.2     72.32696      1.527     3.10     4.381513     20.40563     5422.622        89     1.380     1.337 -12.43   0
        90    605.7847    786.2990 300.1065328 +22.7816599     1735.046     72.23479      1.521     3.11     3.917316     20.40563     149.9806        21     1.085     1.057 -60.59   0
        91   1018.6865    785.6729 300.2354419 +22.9052144     913.8442      72.4558      1.753     4.61     4.638932     20.40563     63.15097        15     1.155     0.954  27.99  16
        92    276.5916    785.0826 300.0044822 +22.6825874      495.621     72.27167      1.680     5.70     4.585179     20.40563     49.33159         9     1.191     0.767 -19.58   0
        93    634.7930    782.2957 300.1168687 +22.7892072     927.2177     72.21634      1.564     3.72     3.956944     20.40563     87.47047        17     1.181     0.944 -37.38   0
        94     33.9750    781.9438 299.9300943 +22.6088869     813.0448     72.32696      1.773     4.56     4.650832     20.40563     69.65563        17     1.339     0.915 -29.80   0
        95      1.9429    782.0168 299.9201206 +22.5992936     507.4247     59.64591      1.250     2.29     4.765607     20.40563     75.65637         9     0.755     0.705 -72.48  24
        96    645.6392    780.4070 300.1208610 +22.7919164     594.3264     72.36379      1.403     4.57      3.97133     20.40563     63.44442        13     1.117     0.877  81.70   0
        97    751.4384    776.6212 300.1550539 +22.8225413     464.0541     72.34538      1.734     4.91     3.947985     20.40563     37.83421         8     0.991     0.689  -0.19   0
        98    788.6463    767.3121 300.1696758 +22.8310191     706.6721     72.30853      1.491     3.96     4.043766     20.40563     77.74216        14     1.081     0.907 -19.95   0
        99    397.7002    764.3536 300.0488921 +22.7129677     31685.83     72.34538      1.533     2.97     4.362122     20.40563      3264.18        72     1.324     1.292  56.64   0
       100    411.8978    764.8699 300.0531419 +22.7173738     2044.401      72.4558      1.555     3.08     4.362122     20.40563     202.4031        24     1.189     1.107  51.75   0
       101    287.5588    763.1518 300.0150210 +22.6795870     247.4804     72.36379      1.551     3.46     4.554535     20.40563     35.76128         5     1.207     0.287  35.38   0
       102    920.7789    760.3654 300.2131287 +22.8686149     2861.389     72.34538      1.614     3.34     4.750811     20.40563     250.0051        28     1.253     1.163  72.41   0
       103    408.6808    758.7129 300.0541421 +22.7146424     628.7021      72.4558      1.927     3.76     4.362122     20.40563     76.40026        11     1.155     0.822  16.09   1
       104    678.7940    756.4477 300.1389768 +22.7949766     946.7686     72.30853      1.459     3.59     3.983304     20.40563      112.241        16     1.064     0.985  31.02   0
       105    515.2234    756.5408 300.0880077 +22.7459676     392.2384     72.32696      1.322     2.69     4.284657     20.40563     55.81884         8     0.762     0.728 -86.06   0
       106    280.0743    756.0040 300.0150165 +22.6752916     897.8198     72.23479      1.476     3.41     4.533357     20.40563     100.5436        15     1.149     0.856  12.10   0
       107    210.4849    753.6043 299.9941585 +22.6537270     625.4382     72.25323      0.789     0.88     4.459208     20.40563     226.6682         5     0.565     0.485 -11.94   0
       108    525.8623    751.2355 300.0930440 +22.7476349     757.1019     72.34538      1.318     3.41     4.317526     20.40563     93.14605        12     1.029     0.755 -71.31   0
       109     84.9963    751.4387 299.9558599 +22.6154533     594.2114     72.36379      1.664     3.47     4.581862     20.40563     53.99924        12     0.958     0.912 -47.93   0
       110    926.8684    748.0460 300.2190321 +22.8669006     593.0635     72.30853      1.548     4.11     4.873982     20.40563     53.00747        11     0.983     0.840  15.23   0
       111    428.4740    747.3693 300.0639880 +22.7173234     319.6248     72.34538      1.152     2.57     4.347606     20.40563     53.47721         5     0.696     0.467 -70.05   0
       112    471.6349    745.9667 300.0778763 +22.7298634     340.0603     72.40061      1.365     4.84     4.289742     20.40563     49.64651         8     0.980     0.792 -56.09   0
       113    113.2687    745.5689 299.9665528 +22.6222541     572.8973     72.30853      1.864     3.68     4.525531     20.40563     61.69614         7     0.966     0.804 -82.22   0
       114    680.2090    745.7098 300.1429077 +22.7923180     334.5166     72.25323      1.355     3.48     3.984661     20.40563     47.09665         5     0.797     0.439  -9.84   0
       115    904.1011    742.6143 300.2136976 +22.8585197     274.1649     72.23479      1.326     4.76      4.76429     20.40563     41.03332         7     1.002     0.641  59.19   0
       116    278.0032    740.5128 300.0194070 +22.6702268     510.3917     72.25323      1.325     3.78     4.503607     20.40563     63.02832        10     1.024     0.770  89.58   0
       117    601.1068    731.3528 300.1229351 +22.7644859     460.3486     72.34538      1.434     2.92     4.302254     20.40563     53.88568         9     0.841     0.763 -63.74   0
       118    571.0132    729.3046 300.1142295 +22.7548767     690.8008     72.25323      1.357     3.14     4.383562     20.40563     83.62388        11     0.938     0.763 -65.86   0
       119    987.2867    725.7539 300.2451226 +22.8785949     4560.452     72.30853      1.630     3.55     4.987034     20.40563     365.3676        34     1.274     1.240  26.17   0
       120    592.6874    726.6044 300.1218563 +22.7605990     1390.446     72.25323      1.463     2.62     4.337859     20.40563     170.0513        20     1.133     0.972  26.45   0
       121    480.3731    728.3630 300.0863172 +22.7274317     351.4391     72.34538      1.209     3.19     4.302385     20.40563     49.81541         8     0.937     0.596 -19.06   0
       122    512.8629    726.3245 300.0970932 +22.7365879     389.9579      72.3822      1.435     2.97     4.379141     20.40563     57.19298         5     0.909     0.350  47.96   0
       123    674.6592    721.3262 300.1491034 +22.7836540     235.6942     72.36379      1.249     3.87     4.092095     20.40563      40.7036         6     0.858     0.516  48.46   0
       124    975.7141    717.1334 300.2443142 +22.8726520      1674.17     72.43741      1.616     3.49     5.010117     20.40563     125.3358        20     1.159     1.047  48.01   0
       125    743.5973    717.1534 300.1719388 +22.8031160     392.2468     72.30853      2.074     3.91     4.042779     20.40563     35.36667         5     0.985     0.700   6.47   0
       126    338.4388    710.9329 300.0478165 +22.6798680     893.1579      72.2901      1.550     3.54     4.389428     20.40563     102.5513        17     1.146     0.998  -8.00   0
       127    802.1099    708.4407 300.1930062 +22.8181472     2578.607     72.32696      1.539     2.88     4.145646     20.40563     255.9294        31     1.355     1.145  10.82   0
       128   1006.7676    707.2284 300.2572206 +22.8791071     1622.522     72.32696      1.697     3.81     5.035764     20.40563     134.3769        22     1.228     1.142  20.91   0
       129     24.4469    698.5354 299.9542393 +22.5821150     842.8561     72.36379      1.756     3.80     4.660509     20.40563     90.92662        15     1.201     1.095 -21.32   0
       130    187.3814    694.6091 300.0061470 +22.6298756     565.9135     72.27167      1.619     4.30     4.421039     20.40563     82.76571        16     1.305     0.957  50.22   0
       131    884.7480    694.4642 300.2233111 +22.8388910     622.6814     72.36379      1.790     5.34     4.607769     20.40563     51.15444        11     1.116     0.919   6.61   0
       132    920.5157    685.3043 300.2374414 +22.8469740     149537.2     72.51095      1.565     3.06     5.000557     20.40563     14227.34       154     1.439     1.414  83.96   0
       133    682.6462    688.9849 300.1621012 +22.7767618     382.1707     72.34538      1.230     2.79     4.276467     20.40563     57.85168         8     0.912     0.621   7.94   0
       134    772.7681    685.9131 300.1911814 +22.8028857     731.7784      72.2901      1.476     2.61     4.122724     20.40563     99.80973        11     0.942     0.740   7.88   0
       135    953.3231    678.0558 300.2500289 +22.8547182     399.6944     72.36379      1.314     2.93     5.110142     20.40563     62.28685        10     0.890     0.755   1.83   0
       136    606.7263    674.0972 300.1432906 +22.7497336     1608.554      72.4558      1.310     2.50     4.542328     20.40563     221.0512        19     1.075     0.901 -72.57   0
       137    788.0145    671.4550 300.2006312 +22.8033014     9561.499     72.30853      1.406     2.66     4.147094     20.40563     1146.506        40     1.189     1.128  54.33   0
       138    269.8498    672.9205 300.0388348 +22.6483912     296.0964     72.34538      1.243     2.16      4.45318     20.40563     55.81359         5     0.739     0.478 -40.46   0
       139    289.4434    666.3727 300.0470555 +22.6523892     4970.116     72.34538      1.482     2.72      4.45318     20.40563     624.0879        35     1.236     1.148  45.53   0
       140      3.3707    664.9269 299.9586114 +22.5661541     1495.578     66.47102      1.600     3.33     4.704974     20.40563      197.416        23     1.219     1.168  20.29  24
       141    371.5241    664.6016 300.0731629 +22.6764959     1230.799     72.23479      1.412     2.52     4.370557     20.40563     157.1989        15     0.974     0.871  35.74   0
       142    247.2926    661.8517 300.0354164 +22.6384502     497.3802      72.3822      1.676     4.78     4.470623     20.40563     53.50559         8     0.966     0.670  77.61   0
       143    579.7701    659.9610 300.1394889 +22.7375956     864.6774     72.32696      1.392     3.22     4.577235     20.40563     99.37083        11     0.941     0.782  37.76   0
       144    571.4046    652.1711 300.1394147 +22.7328518     3325.781      72.2901      1.338     2.65     4.595061     20.40563     390.3103        25     1.072     1.045   6.06   0
       145     96.7103    649.7750 299.9925321 +22.5898154     279.4191     72.27167      1.452     3.73     4.467424     20.40563     33.49714         5     1.211     0.330 -12.67   0
       146    561.6735    645.9402 300.1384089 +22.7281462     1394.593     72.36379      1.294     2.35     4.607693     20.40563     216.3371        14     0.895     0.825   2.61   0
       147    955.8655    644.7629 300.2616393 +22.8459139     354.2666     72.32696      1.545     4.34     5.109766     20.40563     44.89535         5     1.042     0.515  36.62   0
       148    756.3060    644.8544 300.1993915 +22.7861611     215.5387      72.3822      1.150     4.08     4.263506     20.40563     39.54866         6     0.770     0.617  13.21   0
       149    489.8708    644.9935 300.1163623 +22.7063511     249.6024      72.2901      1.208     4.58     4.535431     20.40563     37.54713         8     1.012     0.589 -27.38   0
       150    224.9411    642.1389 300.0348705 +22.6260910     650.6436      72.3822      1.411     3.31     4.528085     20.40563     74.68072        11     0.906     0.813   9.74   0
       151    239.1737    640.5397 300.0398154 +22.6299010     605.6246     72.32696      1.565     4.11     4.513587     20.40563     75.39397        12     1.222     0.789  63.39   0
       152    125.2672    640.6722 300.0043634 +22.5957718     296.9028     72.36379      1.761     3.80     4.504045     20.40563     34.34435         7     0.990     0.677  10.51   0
       153   1008.5329    637.7587 300.2803445 +22.8596737     475.7905     72.30853      1.409     2.89       5.1301     20.40563     55.09683         7     0.912     0.486  81.48   0
       154    295.7979    637.3471 300.0584612 +22.6459670      339.501      72.2901      1.445     5.08     4.447299     20.40563     41.96008         8     0.965     0.757  83.29   0
       155    264.8416    637.4315 300.0488066 +22.6367075     539.8113     72.36379      1.325     4.28       4.4858     20.40563      62.0628        12     1.124     0.839   0.14   0
       156    486.4615    635.6567 300.1183343 +22.7026490     1845.118     72.40061      1.352     2.32     4.558725     20.40563     256.5326        18     1.034     0.906 -70.28   0
       157    585.5721    636.2177 300.1490093 +22.7325179     457.9297     72.32696      1.227     3.12     4.634469     20.40563     71.80274         7     0.938     0.568  63.52   0
       158    519.9203    635.0882 300.1289346 +22.7125155     268.0838     72.47419      1.168     3.37     4.600811     20.40563     58.33135         6     0.932     0.426 -36.57   0
       159    140.3873    630.4909 300.0123698 +22.5973873     20035.29     72.27167      1.608     2.89     4.541759     20.40563     2505.712        59     1.365     1.302  45.84   0
       160     61.3248    632.1714 299.9872555 +22.5741506     659.0314     72.34538      1.532     4.06     4.539742     20.40563     85.41434        15     1.280     0.864  28.20   0
       161    571.3925    631.1842 300.1462289 +22.7268229     897.6882     72.25323      1.173     2.34     4.643318     20.40563     135.6206        13     0.909     0.798  -1.98   0
       162    606.5792    630.0019 300.1575707 +22.7370292     413.0674     72.25323      1.228     2.52      4.65298     20.40563     63.41341         8     0.759     0.697 -13.36   0
       163    626.2708    623.4893 300.1658193 +22.7410606     225.2773     72.49257      1.174     3.45     4.659241     20.40563     34.10569         5     0.741     0.465  18.61   0
       164    654.4376    618.8285 300.1761068 +22.7481630     203.9837     72.34538      1.139     3.47     4.654997     20.40563     37.31219         5     0.743     0.469 -73.78   0
       165    989.3244    617.4006 300.2809657 +22.8480713     922.1934     72.21634      1.451     3.61     5.120111     20.40563     118.8185        15     1.069     0.919  39.80   0
       166     86.5416    614.6729 300.0007743 +22.5766974     1680.456     72.36379      2.034     5.07     4.575938     20.40563     95.70494        27     1.544     1.166 -83.54   0
       167    856.0115    615.3041 300.2400706 +22.8075422     537.1667     72.23479      1.487     3.90     4.319209     20.40563      63.3411        10     1.050     0.688  79.46   0
       168    151.9849    615.3289 300.0208994 +22.5965172     524.5826     72.32696      1.908     6.57     4.589413     20.40563     43.04741        11     1.586     0.764 -14.76   0
       169    534.9431    611.5529 300.1412568 +22.7102620     333.6194     72.36379      1.119     2.98     4.671877     20.40563     66.00115         8     0.994     0.664 -32.46   0
       170    929.4287    609.8765 300.2647273 +22.8279721     887.4963     72.30853      2.084     4.45     5.071597     20.40563     80.99532        17     1.505     0.855  29.96   2
       171    925.6938    610.3773 300.2633998 +22.8269974     322.7439     72.23479      1.690     3.22     5.035767     20.40563     39.50579         5     0.911     0.380  47.01   3
       172    674.1781    608.2103 300.1857056 +22.7510291     258.2433     72.30853      1.463     3.35     4.684396     20.40563     34.08733         5     0.944     0.344 -46.03   0
       173    491.5841    603.8401 300.1302639 +22.6950513     735.5234     72.34538      1.319     2.49     4.672249     20.40563     111.0318        12     0.935     0.784 -34.03   0
       174    639.5733    602.6790 300.1767226 +22.7390712     519.3052     72.32696      1.274     4.13     4.722078     20.40563     64.76689        12     1.102     0.842  21.42   0
       175    686.7448    601.2215 300.1918907 +22.7527874     602.2676     72.34538      1.481     3.12     4.653338     20.40563     70.92792        13     1.027     0.832 -88.62   0
       176    657.1989    600.7002 300.1828556 +22.7437845     570.4823     72.19788      1.226     2.46     4.717083     20.40563     76.58697        10     0.874     0.683 -55.44   0
       177    535.7688    599.6154 300.1453914 +22.7070822     918.1442     72.32696      1.355     2.94     4.732205     20.40563      125.318        14     1.059     0.829 -49.91   0
       178    969.5336    595.3101 300.2819680 +22.8357966     3241.605     72.43741      1.491     2.69     5.052898     20.40563     379.2178        25     1.140     1.071 -15.85   0
       179    501.2117    595.2041 300.1360659 +22.6954579     1715.559     72.17943      1.312     2.49     4.724352     20.40563     209.4972        20     1.005     0.965 -63.42   0
       180    866.3863    592.7991 300.2506157 +22.8041840     294.6925     72.16096      1.234     3.84      4.35026     20.40563     46.28309         6     0.746     0.645  14.65   0
       181     63.1727    588.6533 300.0019640 +22.5622241     5087.224     72.34538      1.646     3.04     4.552104     20.40563     633.9573        35     1.315     1.234  41.84   0
       182    530.5640    585.7871 300.1482624 +22.7015521     370.6192     72.30853      1.321     2.65     4.807582     20.40563     71.05727         7     0.865     0.601 -11.55   0
       183    322.2961    586.6418 300.0831727 +22.6393630     190.3118     72.32696      1.039     3.45     4.481394     20.40563     47.38995         5     0.733     0.474  -7.50   0
       184   1008.9124    585.5735 300.2974153 +22.8447898     297.4272     72.30853      1.175     3.58     5.072185     20.40563     45.17653         6     0.804     0.485  -8.85   0
       185    364.6849    581.8866 300.0979035 +22.6507076     9143.058      72.4558      1.376     2.52     4.489389     20.40563     1317.123        36     1.171     1.090  36.03   0
       186    126.3996    582.0076 300.0237696 +22.5792844     287.1979     72.14249      1.415     4.15     4.612009     20.40563     26.92129         5     0.784     0.626   1.18   0
       187    487.1422    578.9418 300.1369680 +22.6865721     9137.119     72.40061      1.332     2.46     4.783179     20.40563     1193.742        34     1.105     1.061  63.12   0
       188    252.8324    576.2256 300.0649519 +22.6155446     352.3026     72.32696      1.180     2.29     4.579992     20.40563     46.78636         6     0.713     0.549 -58.88   0
       189    733.5816    575.4189 300.2148650 +22.7594092     250.7999     72.32696      1.156     2.95     4.588807     20.40563     49.06739         5     0.729     0.473 -14.82   0
       190    131.3171    574.4771 300.0277434 +22.5785991      196.251     72.41901      1.628     3.97     4.614184     20.40563     30.34582         6     0.971     0.465 -88.95   0
       191    898.8816    573.0858 300.2671512 +22.8082521     1803.959     72.47419      1.369     2.96     4.659427     20.40563     197.2285        21     1.050     1.000  -2.53   0
       192    983.4935    570.3820 300.2944196 +22.8328127     12608.67     72.25323      1.504     2.81     4.983439     20.40563       1402.8        45     1.258     1.215 -41.89   0
       193    547.7073    568.5428 300.1592005 +22.7017389     11673.24      72.3822      1.286     2.26      4.93013     20.40563     1769.673        36     1.111     1.043  57.63   0
       194    717.1108    564.5962 300.2132476 +22.7513660     397.4295     72.23479      1.173     2.67     4.673317     20.40563     78.59045         9     0.852     0.733 -73.62   0
       195    275.1137    564.0436 300.0758370 +22.6187304     1404.601     72.30853      1.388     2.77     4.583985     20.40563     181.9527        18     1.032     0.984 -54.75   0
       196    433.0600    563.4927 300.1251527 +22.6659259     331.9465     72.40061      1.199     3.80      4.79339     20.40563     54.35454         7     1.001     0.563 -39.46   0
       197    521.8279    561.5977 300.1533986 +22.6919887     503.6171     72.27167      1.354     3.03     4.927743     20.40563     69.79424         8     0.916     0.701 -11.31   0
       198    479.4221    556.7457 300.1417735 +22.6778859     4401.081     72.34538      1.296     2.24     4.870718     20.40563     645.0137        26     1.037     1.024  43.90   0
       199    822.2969    556.8262 300.2485539 +22.7806429     814.1082     72.27167      1.274     2.60     4.568744     20.40563     110.9246        12     0.913     0.793 -25.10   0
       200    457.7282    555.2631 300.1355026 +22.6709578     1167.419     72.36379      1.218     2.14      4.86488     20.40563     191.9863        17     1.001     0.838 -83.04   0
       201    212.1583    554.3708 300.0594022 +22.5970764     672.3823     72.34538      1.407     2.96     4.611645     20.40563     84.29197        10     0.854     0.823 -66.44   0
       202    899.3500    552.3257 300.2740397 +22.8024269     1658.518     72.32696      1.551     3.13     4.628256     20.40563     172.2884        20     1.123     1.022 -44.12   0
       203    596.0085    544.2714 300.1821235 +22.7092438     201066.4     72.30853      1.303     2.41     5.100673     20.40563     26564.88       181     1.355     1.336 -16.41   0
       204    419.4924    550.7725 300.1250613 +22.6582074     221.5336     72.27167      1.226     3.38     4.866649     20.40563     44.65177         7     0.902     0.644 -41.96   0
       205    779.7984    549.1995 300.2377836 +22.7657222     839.7547     72.10555      1.317     2.76     4.682344     20.40563     123.0022        16     1.042     0.915  75.39   0
       206    873.1860    548.0448 300.2672714 +22.7933612      200.222     72.34538      1.065     3.39     4.476894     20.40563     35.39668         5     0.814     0.482  34.85   0
       207    983.9993    545.9784 300.3025031 +22.8259503      291.106     72.25323      1.558     3.68     4.904848     20.40563     30.70627         5     0.658     0.591  -0.01   0
       208    282.1791    544.2286 300.0844688 +22.6151626      3384.75     72.32696      1.356     2.58     4.627363     20.40563      390.755        25     1.120     1.011  25.42   0
       209    848.1313    540.5161 300.2619046 +22.7836943     477.7145     72.43741      1.287     2.39      4.52242     20.40563     69.30357         8     0.794     0.655 -55.33   0
       210    866.7903    538.5978 300.2683452 +22.7887312     337.3802     72.14249      1.444     4.07     4.479555     20.40563     45.92066         7     0.962     0.534  56.79   0
       211    486.6198    524.8021 300.1543869 +22.6708718     2927.565     72.25323      1.428     2.28     4.948868     20.40563     401.2333        27     1.480     0.956  86.49   0
       212    330.8467    526.6701 300.1053076 +22.6247148     386.8676     72.30853      1.359     2.67     4.606865     20.40563     75.84383         6     0.873     0.594 -75.94   0
       213    804.0955    513.2756 300.2570225 +22.7626785     407.3852     72.47419      1.333     3.65     4.692414     20.40563     52.38004         8     0.901     0.631  -9.88   0
       214    883.5823    510.9227 300.2825679 +22.7858071     1731.314     72.32696      1.346     2.42     4.664905     20.40563      233.571        20     1.072     0.932   8.95   0
       215     13.6132    509.4652 300.0122805 +22.5246440     841.9888     72.27167      1.829     4.01     4.746612     20.40563     82.49612        14     1.281     0.740 -25.60   0
       216    754.8430    508.4860 300.2432267 +22.7465504     2629.457      72.2901      1.281     2.26     4.699281     20.40563      385.926        23     1.087     0.950  21.48   0
       217    392.8217    508.7744 300.1303993 +22.6381565     219.9826     72.30853      1.414     5.14     4.821772     20.40563     28.55782         5     1.194     0.626  68.85   0
       218    998.0200    501.6182 300.3212822 +22.8173973     1108.634     72.32696      2.609     4.90     4.537043     20.40563      102.287        16     1.473     0.751  66.10   2
       219    659.5185    505.1866 300.2145965 +22.7170472     584.2183     72.30853      1.483     2.94      4.88373     20.40563     58.14426         9     0.874     0.735  71.05   0
       220    964.5200    505.3965 300.3096049 +22.8084538     256.1577     72.23479      1.543     4.24     4.665903     20.40563     31.36697         6     1.079     0.475  34.38   0
       221    542.0156    504.4955 300.1782261 +22.6816420     672.8021     72.25323      1.300     2.78     5.088693     20.40563     93.73001        11     0.929     0.703  61.98   0
       222   1012.0405    502.5495 300.3253540 +22.8218624     1267.354     72.34538      1.431     2.59     4.499582     20.40563     177.2305        17     1.121     0.923  44.79   0
       223    883.9210    500.9807 300.2859017 +22.7830514     2255.799     72.32696      1.525     4.06      4.70204     20.40563     263.0052        28     1.530     0.962  77.88   0
       224    637.3610    499.2865 300.2096100 +22.7087142      803.357     72.30853      1.765     3.40      4.97364     20.40563     87.93323        11     1.105     0.720  53.12   2
       225    475.8098    497.8776 300.1597640 +22.6599014     437.6429      72.2901      1.233     2.62     4.942807     20.40563      68.3399         8     0.900     0.580  27.65   0
       226    922.0349    495.9846 300.2994097 +22.7930281     4251.624     72.32696      1.380     2.84     4.767647     20.40563     524.9912        29     1.163     1.066  77.78   0
       227    582.7454    491.9250 300.1949900 +22.6902364     371.4401     72.36379      1.320     2.37     5.089085     20.40563     60.46527         6     0.855     0.530 -21.53   0
       228   1013.8279    486.5388 300.3311102 +22.8177948     638.9076     72.32696      1.293     2.85     4.311248     20.40563     92.09182        12     0.935     0.817 -16.47   0
       229    154.0057    486.2691 300.0634356 +22.5600968     1079.859      72.2901      1.392     3.06     5.019865     20.40563     123.8089        19     1.104     1.021  23.98   0
       230    953.2695    483.8529 300.3130905 +22.7988930     271.3251     72.32696      1.270     3.27     4.635383     20.40563     45.63552         5     1.079     0.303  10.18   0
       231    814.9105    480.4189 300.2710618 +22.7564765      465.526     72.25323      1.519     4.24     4.710804     20.40563     40.45537         9     0.908     0.708  71.59   0
       232   1010.0999    475.6069 300.3334964 +22.8135362     352.3516     72.23479      1.237     3.34     4.268215     20.40563      57.5747         8     0.978     0.571  39.48   0
       233    146.1776    476.0117 300.0643323 +22.5548061     523.0649     72.30853      1.398     3.57      5.06805     20.40563     55.06915        11     0.968     0.790  39.71   0
       234    754.2070    470.6534 300.2553116 +22.7354902       524.08     72.32696      1.251     2.92     4.663266     20.40563     71.79056         8     0.848     0.705 -67.17   0
       235    643.1171    468.1098 300.2215248 +22.7014833     484.3405     72.43741      1.352     3.55      4.93047     20.40563     57.37891         8     0.923     0.637  83.06   0
       236    363.1427    468.6475 300.1341922 +22.6177408     265.1721      72.3822      1.320     2.87     4.864529     20.40563     39.30625         5     0.738     0.440 -18.27   0
       237    695.4781    466.3920 300.2383946 +22.7166750     875.4767      72.2901      1.336     2.44     4.771919     20.40563     121.6246        14     0.951     0.851  85.74   0
       238    483.0982    464.2019 300.1729653 +22.6524158     274.3015     72.23479      1.821     6.24     4.940601     20.40563     42.25163         7     1.329     0.823 -35.36   0
       239   1010.0930    459.2510 300.3388042 +22.8088320     546.6946     72.40061      1.234     3.10     4.268215     20.40563     75.18408        11     0.907     0.830  21.47   0
       240    756.2092    458.5357 300.2598694 +22.7326081     793.8535     72.30853      1.247     2.38     4.622513     20.40563     128.5737        13     1.024     0.746  66.96   0
       241    913.4208    454.9065 300.3100596 +22.7786422     941.4135     72.25323      1.298     2.56     4.776312     20.40563     141.4671        15     0.992     0.921  56.63   0
       242    897.9445    451.5186 300.3063330 +22.7730347     762.4139     72.36379      1.355     2.74     4.776312     20.40563     81.85163        10     0.937     0.652  56.63   0
       243    878.1563    451.7831 300.3000766 +22.7671859     317.9476     72.34538      1.333     4.55     4.776312     20.40563     35.71756         8     0.849     0.691  41.00   0
       244    642.0843    449.2271 300.2273328 +22.6957497      3328.16     72.32696      1.261     2.38     4.910597     20.40563     437.9698        23     1.018     0.945  87.67   0
       245   1002.6539    448.1789 300.3400776 +22.8034220     609.5651     72.32696      1.535     3.71     4.312125     20.40563     60.91669        12     1.054     0.962 -66.55   0
       246    788.3433    449.2194 300.2729091 +22.7395548     219.7141     72.32696      1.128     3.63     4.571311     20.40563     33.06411         5     0.938     0.404  -6.06   0
       247    117.8018    440.8605 300.0669229 +22.5362107     327.3939      72.2901      1.291     3.46      5.11537     20.40563      45.5934         5     1.004     0.345  -1.78   0
       248    413.8352    436.8996 300.1602707 +22.6238193     318.3592     72.30853      1.059     2.00     4.901852     20.40563     55.81116         6     0.722     0.523  48.23   0
       249    481.9000    436.2269 300.1816731 +22.6440233     319.8647     72.27167      1.099     2.04     4.908304     20.40563     71.79558         6     0.720     0.521 -41.57   0
       250   1011.7849    427.2916 300.3497067 +22.8001501     933.7633     72.25323      1.321     2.81     4.255669     20.40563     107.7424        13     0.961     0.811 -62.27   0
       251    925.2783    428.0179 300.3224861 +22.7744632     540.5238     72.32696      1.271     2.64     4.776312     20.40563      78.8158        12     0.920     0.808  28.12   0
       252    661.4547    425.2522 300.2411490 +22.6946645     366.7323     72.36379      1.183     2.63     4.858777     20.40563     49.48665         6     0.678     0.639 -21.63   0
       253    752.8474    423.1154 300.2703193 +22.7214235     980.8394     72.32696      1.207     2.46     4.504259     20.40563     168.8584        13     0.892     0.845  50.68   0
       254    548.5328    423.8780 300.2064258 +22.6604417     417.3788     72.43741      1.067     1.99     4.948823     20.40563     76.07431         8     0.739     0.633   3.26   0
       255    256.5219    421.2862 300.1164011 +22.5721846     671.4669     72.47419      1.263     2.72     4.866061     20.40563     88.41085        12     0.984     0.753  32.22   0
       256     97.1275    420.0708 300.0672453 +22.5240456      275.194     72.40061      1.494     3.73     5.126854     20.40563     37.81025         5     1.271     0.314  59.19   0
       257    319.0016    417.0248 300.1372164 +22.5896900     3784.746     72.27167      1.327     2.49     4.899444     20.40563     522.3026        27     1.097     1.006  81.39   0
       258    771.4641    412.7303 300.2794922 +22.7240143     165.2875     72.36379      1.129     3.45     4.460837     20.40563     34.47329         5     0.787     0.438 -68.62   0
       259    266.2083    411.7709 300.1225015 +22.5723569     7567.273     72.32696      1.345     2.46     4.896152     20.40563     1082.527        31     1.152     1.039  52.92   0
       260    406.9815    406.0304 300.1681568 +22.6129016     4924.002     72.30853      1.294     2.39     4.948885     20.40563     729.8251        29     1.088     0.986  58.97   0
       261    651.1758    402.7599 300.2452471 +22.6851237     18837.05     72.36379      1.264     2.22     4.814363     20.40563     3033.819        54     1.233     1.131  17.75   0
       262    668.9087    402.5414 300.2508423 +22.6903723     910.6376     72.40061      1.817     6.06     4.787964     20.40563     86.53448        16     1.584     0.805 -42.18   0
       263    494.4843    402.6128 300.1965003 +22.6381404     354.2126     72.27167      1.777     3.88     4.881382     20.40563     35.75058         6     0.884     0.487   0.43   0
       264    894.9094    398.9345 300.3224549 +22.7570111     262.8521      72.4558      1.196     2.87     4.664017     20.40563     54.08202         7     0.885     0.587 -75.29   0
       265    847.9229    393.2231 300.3096576 +22.7413021     262.1287     72.30853      1.137     2.87     4.570113     20.40563     46.11781         6     0.735     0.554 -33.26   0
       266    271.1470    389.7076 300.1311975 +22.5675037     268.8255      72.3822      1.343     3.44     4.932449     20.40563     42.12287         5     0.801     0.427 -13.48   0
       267    984.8401    385.6065 300.3548302 +22.7800998     821.4102     72.36379      1.476     3.26     4.400728     20.40563     94.95909        13     0.993     0.951 -51.72   0
       268    521.8306    384.5405 300.2108787 +22.6411429     271.7343     72.34538      1.292     2.61     4.872256     20.40563      64.4863         5     0.795     0.536  50.94   0
       269    205.9090    382.7636 300.1131649 +22.5459543     1928.552     72.30853      1.354     2.67     4.839067     20.40563     275.1089        22     1.100     0.980  69.43   0
       270    591.8715    372.1844 300.2366980 +22.6585757     6592.261     72.32696      1.244     2.28     4.834211     20.40563       943.45        31     1.111     0.957  79.05   0
       271   1005.4077    372.7023 300.3654346 +22.7825453     1249.231     72.19788      1.411     2.85      4.35133     20.40563     160.9503        17     1.052     0.917  31.87   0
       272    306.9338    371.7414 300.1481579 +22.5730723     569.5056     72.36379      1.245     2.53     4.983149     20.40563     102.8386         9     0.885     0.684  74.14   0
       273    851.8622    364.2723 300.3202811 +22.7341598     495.2236     72.36379      1.614     3.64     4.435236     20.40563      53.8385         9     0.963     0.649  51.30   0
       274    164.1093    364.8305 300.1059892 +22.5282760     504.5584      72.2901      1.368     2.94     4.648855     20.40563     73.21493        10     0.877     0.749 -59.61   0
       275    705.6451    362.3903 300.2753178 +22.6898377     623.1896     72.34538      1.225     2.90     4.515571     20.40563     73.96324        13     0.959     0.862 -44.66   0
       276     11.6605    362.4098 300.0594014 +22.4818712     1176.874      72.2901      1.416     3.06     5.157056     20.40563     166.6008        20     1.118     1.048  24.75   0
       277    796.0195    361.1858 300.3038738 +22.7165534     1217.192      72.2901      1.372     2.96     4.389868     20.40563     147.8296        18     1.099     0.902  64.06   0
       278    886.1854    360.5370 300.3321955 +22.7433614     171.2645      72.2901      1.203     3.98     4.427457     20.40563     36.85118         5     1.044     0.623  65.63   0
       279    498.5255    358.4308 300.2120958 +22.6266612     6141.003     72.34538      1.197     2.12     4.834451     20.40563      930.546        27     1.076     0.947  63.04   0
       280    204.0126    354.8353 300.1216374 +22.5373692      287.522     72.30853      1.396     4.54     4.752467     20.40563     29.34665         6     1.092     0.538 -80.38   0
       281    890.4902    352.9940 300.3359855 +22.7424816     1501.414     72.23479      1.416     2.47     4.377363     20.40563     184.2188        18     1.032     0.931 -70.02   0
       282    988.0839    353.2467 300.3663435 +22.7717661     760.7649     72.30853      1.503     2.84     4.374853     20.40563     82.41666        10     0.875     0.746   7.52   0
       283    483.2548    347.1103 300.2110152 +22.6188345     528.3997     72.36379      1.203     3.53     4.836116     20.40563     67.94244         9     0.995     0.656  45.01   0
       284    565.6920    345.1452 300.2373191 +22.6429657     448.7448      72.3822      1.176     2.10     4.830375     20.40563     73.55308         7     0.700     0.628 -75.96   0
       285      9.9256    343.7993 300.0649005 +22.4760110     917.1049     72.21634      1.448     3.21     5.205483     20.40563     141.2489        13     1.095     0.838  43.86   0
       286    546.5081    343.0217 300.2320345 +22.6366091     304.5833     72.25323      0.989     2.14     4.843894     20.40563     49.75441         6     0.734     0.500  89.67   0
       287    863.2275    340.5705 300.3315157 +22.7307488     639.8066     72.30853      1.241     2.22     4.376765     20.40563     105.7105         9     0.818     0.677 -26.15   0
       288    386.1030    337.6220 300.1838581 +22.5870007     2582.504     72.25323      1.306     2.38     5.067932     20.40563      384.426        25     1.082     1.001  63.24   0
       289    104.5880    334.9297 300.0971904 +22.5018494     920.9055     72.34538      1.434     3.00     4.542749     20.40563     152.0088        16     1.088     0.945  80.02   0
       290    733.7621    332.5950 300.2937472 +22.6896947     279.0056     72.34538      1.142     1.99     4.433758     20.40563     56.40331         5     0.690     0.439  24.40   0
       291    355.4128    327.0622 300.1777352 +22.5747718     29958.26      72.2901      1.315     2.34     4.972419     20.40563     4171.146        62     1.253     1.098  61.62   0
       292    890.1294    324.6685 300.3450638 +22.7342301     1261.887     72.36379      1.327     2.43     4.374827     20.40563     204.5138        18     1.043     0.934 -81.06   0
       293    845.1483    322.0118 300.3319003 +22.7200014     276.7758     72.32696      1.517     4.83     4.374925     20.40563     36.49535         5     0.979     0.676  61.12   0
       294     51.6826    314.7849 300.0872859 +22.4802058     4962.997      72.2901      1.563     2.97     4.878248     20.40563      642.442        36     1.343     1.154  56.04   0
       295    805.6567    313.4878 300.3223543 +22.7057285     593.0469     72.40061      1.364     3.47     4.378379     20.40563     77.53794        11     1.092     0.756 -65.43   0
       296    453.8816    312.6982 300.2130369 +22.6001501     395.0158     72.47419      1.271     3.01     4.980891     20.40563     66.85751        10     0.882     0.759  55.08   0
       297    229.8386    313.3364 300.1431308 +22.5331971     437.6309     72.30853      1.183     2.37     4.932964     20.40563      74.7195         7     0.781     0.596  31.80   0
       298    765.8840    306.9970 300.3120629 +22.6919552     1965.697     72.25323      1.259     2.12     4.396272     20.40563     317.3845        20     0.992     0.932 -74.06   0
       299    573.9153    301.2788 300.2541116 +22.6328258     363.3398      72.4558      1.191     2.57      4.89735     20.40563     69.59433         8     0.760     0.743  36.69   0
       300    980.9195    299.8109 300.3814461 +22.7542559     629.5365     72.30853      1.365     3.11     4.411014     20.40563      97.1725        10     1.004     0.721  69.65   0
       301    834.1951    293.3379 300.3377880 +22.7084793     234.3773     72.30853      1.157     2.24     4.373097     20.40563     49.15295         6     0.823     0.684  -0.49   0
       302    427.6411    291.4275 300.2117702 +22.5861790     2201.949     72.36379      1.448     2.94     5.057907     20.40563     305.4855        22     1.256     0.912  63.00   0
       303    640.1131    290.2485 300.2783077 +22.6494818     391.5621     72.32696      1.430     2.81     4.895466     20.40563     53.63429         6     0.754     0.550  60.61   0
       304    866.6656    284.5560 300.3507607 +22.7156741     719.6226     72.30853      1.241     2.92      4.36803     20.40563      122.252        14     1.170     0.741  43.71   0
       305    749.0764    282.3922 300.3148066 +22.6798507     410.3234      72.2901      1.440     2.35     4.411336     20.40563     74.60611         8     0.850     0.619 -54.14   0
       306      1.2042    281.9961 300.0822395 +22.4556611     311.5914     55.43125      1.042     2.69     5.318237     20.40563     88.22301         6     1.061     0.353 -78.74  24
       307    766.0402    282.0764 300.3201960 +22.6848386     265.0304      72.2901      1.153     3.02     4.400755     20.40563     39.05519         5     0.647     0.571 -88.10   0
       308    503.4301    270.7674 300.2420624 +22.6029477      1251.56     72.34538      1.231     2.27     4.915671     20.40563     220.2585        16     1.047     0.831  40.52   0
       309    311.2016    271.2851 300.1820752 +22.5455062     209.0893     72.25323      1.202     4.19     4.990603     20.40563     32.93541         6     0.748     0.669 -73.64   0
       310   1014.8482    266.9386 300.4026952 +22.7549547     317.2762      72.3822      1.241     3.71     4.738511     20.40563     47.60441         5     0.825     0.480  30.42   0
       311    886.4712    264.2961 300.3635085 +22.7157768     305.0013     72.43741      1.133     3.30     4.380235     20.40563     59.51067         6     0.690     0.673  62.73   0
       312    748.3483    262.6830 300.3209728 +22.6739673     2417.706     72.36379      1.300     2.40     4.449012     20.40563     352.7592        21     1.072     0.937  60.04   0
       313   1009.7149    257.2024 300.4042517 +22.7506184     3115.466     72.25323      1.401     2.54     4.844946     20.40563     390.5631        27     1.205     1.071 -87.59   0
       314    556.5617    256.0153 300.2633900 +22.6146229     166.2491     72.34538      1.341     4.51     4.937814     20.40563     45.16764         6     1.214     0.475 -82.70   0
       315    456.6375    246.5456 300.2353526 +22.5819727     596.3363     72.32696      1.069     2.25     4.898467     20.40563     94.50459        10     0.793     0.767  38.63   0
       316    162.4790    240.8346 300.1457047 +22.4921929     536.5877     72.27167      1.289     2.79     4.928727     20.40563     75.39488        10     0.916     0.722 -39.17   0
       317    131.5561    240.5896 300.1361722 +22.4828541      1438.47     72.32696      1.661     3.44     4.893028     20.40563     154.1666        22     1.400     1.026  -8.49   0
       318    868.8201    234.5491 300.3676529 +22.7019403     407.1515     72.30853      1.453     3.44     4.379759     20.40563     42.60217         5     0.759     0.450  20.37   0
       319    215.5631    232.6969 300.1648472 +22.5057657     397.4311     72.32696      1.232     2.37     4.924908     20.40563      87.1797         8     0.833     0.661  41.44   0
       320   1010.4045    230.1581 300.4132386 +22.7430459     346.9128     72.34538      1.619     4.61     5.186137     20.40563     41.43133         6     1.017     0.593  30.54   0
       321     71.4675    230.1693 300.1208774 +22.4618513     221.5233     72.30853      0.949     1.84     5.116441     20.40563     57.86373         5     0.683     0.477 -72.49   0
       322    819.9926    224.3158 300.3557482 +22.6843837      680.248     72.25323      1.187     1.95     4.385029     20.40563     110.5908        10     0.819     0.682  56.86   0
       323    410.3392    223.7764 300.2283276 +22.5615629     515.3767     72.32696      1.515     3.73     4.784081     20.40563     66.97837         7     1.091     0.569  18.03   0
       324    918.1690    213.2762 300.3899414 +22.7105914     2324.851     72.32696      1.347     2.46     4.539003     20.40563     310.1818        22     1.060     0.993 -67.45   0
       325    336.6957    210.4926 300.2097215 +22.5356851     2091.529     72.51095      1.328     2.27     4.831858     20.40563     330.6285        19     1.037     0.934  72.67   0
       326    816.7476    205.2701 300.3609131 +22.6779362     564.5936     72.30853      1.412     2.81     4.495964     20.40563     80.99298         8     0.841     0.668  59.63   0
       327    414.6932    205.6337 300.2355658 +22.5576552      1005.53     72.27167      1.339     2.59     4.788764     20.40563     125.4037        16     1.033     0.870 -39.38   0
       328    166.3484    205.5882 300.1583371 +22.4832329     280.7305     72.34538      1.125     3.14     4.947398     20.40563     59.79002         7     0.945     0.471   9.98   0
       329     37.6844    199.6250 300.1202848 +22.4429566     246.1159      72.2901      1.869     4.74     5.406931     20.40563     29.65609         5     1.368     0.465  43.26   0
       330    349.3374    197.5110 300.2178638 +22.5357436     225.1598     72.41901      1.302     3.37     4.799178     20.40563     42.35313         5     0.988     0.334  68.87   0
       331    231.3166    197.7579 300.1810753 +22.5004536     663.3909      72.2901      1.250     2.67     4.956013     20.40563     115.6597        12     0.952     0.799  12.45   0
       332    769.2725    194.5988 300.3495749 +22.6606580     1756.024     72.21634      1.348     2.26     4.582635     20.40563     270.6481        19     1.120     0.952  63.93   0
       333     83.3061    195.3597 300.1358434 +22.4554073       278.08     72.34538      1.107     3.48     5.233517     20.40563     39.48748         5     0.747     0.469  10.07   0
       334    834.1339    194.2902 300.3698939 +22.6799827     615.5645     72.43741      1.237     2.68     4.596782     20.40563     103.8275         9     0.912     0.643  36.58   0
       335    201.3792    193.2496 300.1732285 +22.4901880     319.1639     72.32696      2.691     5.19     4.966754     20.40563     26.31799         5     1.030     0.739 -10.35   0
       336    252.8197    191.0692 300.1899308 +22.5049759     587.5228     72.30853      1.358     3.42     4.939553     20.40563     81.97166         9     0.877     0.833  76.86   0
       337    693.8646    185.4009 300.3290580 +22.6354406      1321.62     72.34538      1.276     2.22     4.859154     20.40563     189.5202        17     1.089     0.849  70.72   0
       338    542.7292    187.3663 300.2813453 +22.5907536     383.1043     72.32696      1.068     1.75     5.028721     20.40563     82.32513         5     0.680     0.430 -24.31   0
       339    773.3111    186.1115 300.3535858 +22.6594266     708.9038     72.49257      1.287     2.67      4.61091     20.40563     94.01187        11     0.880     0.805  49.99   0
       340    412.6245    181.6416 300.2427015 +22.5501428     133.7966      72.3822      0.823     4.17      4.79501     20.40563     23.89116         5     1.220     0.406  52.85   0
       341    889.3583    176.8815 300.3927583 +22.6915030       1404.5      72.2901      1.271     2.20     4.854968     20.40563     219.8516        16     0.928     0.884  65.17   0
       342    619.9371    176.8517 300.3087994 +22.6108502     965.7688      72.3822      1.345     2.72     4.978925     20.40563     145.1307        14     1.107     0.829  66.93   0
       343    901.4059    175.9876 300.3968052 +22.6948510     940.7068     72.19788      1.427     2.91     4.882565     20.40563     112.3831        15     1.015     0.928  -7.55   0
       344   1018.0812    166.2866 300.4363464 +22.7269692     1153.781      72.4558      1.398     2.67     5.096682     20.40563     147.0692        19     1.100     0.995  47.74  16
       345     41.8411    163.2774 300.1333606 +22.4337686     474.1285     72.30853      1.349     3.30     5.427326     20.40563     55.72839         6     0.766     0.530 -37.49   0
       346    252.0776    159.2797 300.2000067 +22.4956237     654.1804     72.43741      1.241     2.31     4.943822     20.40563     88.26872        10     0.781     0.744 -82.45   0
       347    113.8729    153.8908 300.1587873 +22.4526627      2212.13     72.49257      1.535     3.01     5.351501     20.40563     247.7844        26     1.223     1.096  77.28   0
       348    937.0334    151.2782 300.4159285 +22.6984042      712.442     72.30853      1.216     2.82     5.078034     20.40563     97.72678         9     0.859     0.736  37.69   0
       349     63.6896    150.5709 300.1442684 +22.4366694      605.956     72.30853      1.536     4.06      5.43153     20.40563     84.99908        10     1.123     0.696  79.16   0
       350    271.2875    147.3490 300.2098487 +22.4979524     5586.242     72.34538      1.341     2.41     4.998759     20.40563     770.3805        32     1.224     1.021  74.32   0
       351    252.9724    148.3805 300.2038184 +22.4927614     384.1863     72.32696      1.079     2.41     5.048695     20.40563     56.56547         6     0.742     0.622  41.12   0
       352     55.4744    141.6572 300.1446053 +22.4316481      1400.96      72.3822      1.581     3.10     5.420927     20.40563     169.6267        20     1.162     1.057  77.95   0
       353    254.9358    138.0925 300.2077641 +22.4903947     608.7473     72.43741      1.379     3.65     5.140457     20.40563     77.77526        10     0.956     0.701 -78.68   0
       354     87.7774    136.7568 300.1562316 +22.4399225      221.043      72.3822      1.271     4.40     5.476679     20.40563     29.59144         5     0.774     0.712 -58.22   0
       355    915.5282    129.0304 300.4164338 +22.6855705     3689.995     72.32696      1.369     2.51     5.069865     20.40563     432.2339        27     1.150     1.043 -62.47   0
       356   1019.2576    127.7879 300.4491952 +22.7162450     2852.002      72.2901      1.537     2.84     5.075085     20.40563     356.5266        32     1.269     1.216 -24.17  24
       357    217.9496    124.7252 300.2005958 +22.4754741     420.5307     72.32696      1.285     2.67     5.368273     20.40563     67.64185         8     0.936     0.569  69.86   0
       358    464.7965    124.1909 300.2775646 +22.5492610     589.4701     72.14249      1.219     2.20     5.077172     20.40563      100.311         9     0.831     0.647  23.02   0
       359    392.9426    114.9512 300.2581969 +22.5250869     474.2178      72.3822      1.284     3.92     5.124775     20.40563     49.86242         7     1.043     0.539 -49.42   0
       360    389.1317    116.0614 300.2566512 +22.5242645     660.3163      72.3822      1.226     1.96     5.144026     20.40563     100.6584         9     0.722     0.691  -3.12   0
       361    155.1082    112.8542 300.1849064 +22.4532359     625.3669      72.3822      1.366     3.92     5.505455     20.40563     84.36343        10     1.086     0.755  80.38   0
       362    516.3062    111.3566 300.2977603 +22.5609970     1625.554     72.32696      1.258     2.48     5.054696     20.40563     225.4434        19     1.081     0.885  70.07   0
       363    444.2268    112.0024 300.2751130 +22.5395985     415.4355     72.27167      1.213     2.93     5.043768     20.40563     72.03178         7     0.866     0.597  71.78   0
       364    577.7035    110.3989 300.3171889 +22.5791046     279.7892     72.21634      1.138     2.05     4.972586     20.40563     69.86805         5     0.718     0.456 -88.37   0
       365    340.2787    107.2849 300.2442959 +22.5071106      237.374      72.4558      1.149     3.83     5.463867     20.40563     36.83228         5     0.868     0.485  45.15   0
       366    259.3253    106.8190 300.2192663 +22.4827269     254.2415     72.32696      1.220     3.39     5.432484     20.40563      54.1758         7     0.874     0.594  33.16   0
       367    804.7862    101.3429 300.3908789 +22.6444707     290.4325     72.30853      1.044     1.78     4.956345     20.40563     58.62477         5     0.649     0.463 -13.13   0
       368    950.3126     95.0303 300.4383048 +22.6861963     400.9101     72.30853      1.538     3.88     5.100768     20.40563     40.57445         6     1.034     0.416  77.56   0
       369    290.3792     91.2051 300.2339853 +22.4875442     6049.563     72.30853      1.337     2.44     5.456677     20.40563     755.5925        34     1.199     1.064  74.69   0
       370    797.1123     91.9291 300.3915381 +22.6394670     300.3553     72.49257      1.109     1.84      5.01941     20.40563     70.33743         6     0.690     0.530 -33.03   0
       371    141.2453     91.0393 300.1876676 +22.4428172     722.0981     72.40061      1.375     2.84     5.634176     20.40563     99.67309        10     1.046     0.566 -30.27   0
       372    262.1868     85.5728 300.2270423 +22.4774811     282.5297     72.32696      1.327     3.77     5.544253     20.40563     43.24261         7     1.002     0.539 -46.26   0
       373    305.8137     82.4393 300.2416272 +22.4896492     313.7539     72.34538      1.268     3.42     5.523452     20.40563     38.97206         5     0.786     0.430 -22.13   0
       374     52.1830     81.4704 300.1630903 +22.4133812     320.2169     72.34538      1.222     2.27     5.366868     20.40563     67.49664         6     0.707     0.595 -48.37   0
       375    536.3878     76.5337 300.3152997 +22.5570007     6319.217      72.2901      1.305     2.29     5.023506     20.40563     913.2149        30     1.180     0.985  76.14   0
       376    421.7393     76.5019 300.2796204 +22.5226627     677.5961     72.40061      1.315     2.89     5.228105     20.40563     98.16321        11     0.964     0.761 -86.30   0
       377    593.3304     71.4550 300.3346782 +22.5725880     245.7577     72.36379      1.178     3.37     5.124356     20.40563     47.13269         5     0.770     0.703 -65.19   0
       378    730.2070     67.7840 300.3785108 +22.6125014     385.9179     72.25323      1.455     3.23     5.200392     20.40563     33.28519         6     0.748     0.561 -40.51   0
       379    789.0092     66.3758 300.3972943 +22.6296931     874.6521     72.32696      1.434     2.52     5.286731     20.40563       115.25        12     1.004     0.712  65.40   0
       380    881.4602     65.1867 300.4265037 +22.6570128     404.4458      72.2901      1.186     3.17     5.334705     20.40563     61.39981         8     0.872     0.734  74.23   0
       381    229.2995     60.3993 300.2249732 +22.4603979     373.8448     72.16096      1.181     3.77     5.647448     20.40563     54.17848         8     1.030     0.593 -72.85   0
       382    587.6836     59.1258 300.3369152 +22.5673531     478.3961     72.41901      1.434     3.88      5.18097     20.40563     56.08567         8     0.941     0.674  21.65   0
       383    664.8085     56.6952 300.3617269 +22.5897399     6358.801     72.21634      1.310     2.22     5.284766     20.40563     1079.896        31     1.155     1.002  71.63   0
       384    439.6907     55.6198 300.2919749 +22.5220371     1274.092     72.25323      1.237     2.27     5.436276     20.40563     222.0226        18     1.045     0.912  41.97   0
       385    705.8622     54.0938 300.3753612 +22.6012788     848.9969     72.41901      1.280     2.82     5.312405     20.40563     126.7781        11     0.928     0.750  82.85   0
       386    775.9874     51.8155 300.3979541 +22.6216089     406.1017     72.27167      1.395     3.06     5.406516     20.40563     48.87723         5     0.791     0.493 -56.24   0
       387    721.9133     50.1847 300.3816298 +22.6049583     698.4492     72.27167      1.481     2.27     5.346478     20.40563     82.38976         8     0.728     0.682  55.96   0
       388    991.8998     47.8601 300.4665666 +22.6850644     508.6171     72.41901      1.451     3.72     5.531201     20.40563     62.91064        10     1.035     0.714 -68.91   0
       389    188.6534     48.2558 300.2162702 +22.4447333      674.532     72.36379      1.332     2.80      5.66007     20.40563     104.8534        12     0.981     0.749 -18.27   0
       390    760.5067     45.5038 300.3951744 +22.6151612     564.2254     72.51095      1.312     2.74     5.432458     20.40563     78.04566         7     0.805     0.636 -33.68   0
       391    709.0134     41.6508 300.3803755 +22.5986437     2692.499     72.36379      1.308     2.21     5.411435     20.40563     466.3527        22     1.057     0.928  72.01   0
       392    350.1909     42.3995 300.2684081 +22.4914364     472.4967     72.14249      1.283     3.74       5.6454     20.40563     72.94397        10     1.259     0.664 -52.36   0
       393    724.2618     40.3318 300.3855546 +22.6028276     960.1845      72.3822      1.753     3.85     5.428322     20.40563     97.58767        17     1.341     0.908  41.11   0
       394      2.5283     35.7248 300.1624869 +22.3853656     752.6844     62.73795      1.544     3.47     5.277207     20.40563     113.0779        15     1.297     0.948  84.44  24
       395    795.5178     33.1143 300.4101022 +22.6220739     1488.283      72.4558      1.327     2.69     5.647407     20.40563     223.6728        19     1.121     0.936 -73.10   0
       396    955.7343     32.0292 300.4604145 +22.6696920     233.6887     72.34538      1.184     2.38     5.674146     20.40563     43.50932         5     0.757     0.475  29.17   0
       397    733.3654     26.4479 300.3928906 +22.6015590     805.3471     72.36379      1.201     2.32     5.542457     20.40563     115.1664        14     1.018     0.807 -74.41   0
       398    539.1457     25.7122 300.3326277 +22.5432173     1219.581     72.34538      1.350     2.18     5.094801     20.40563     185.4866        13     1.020     0.791 -66.25   0
       399    112.0467     25.5365 300.1998184 +22.4152567     616.6508     72.36379      1.348     2.58     5.384665     20.40563     56.62599         6     0.753     0.493  -7.84   0
       400    442.7935     23.6962 300.3032852 +22.5137912     810.2767     72.21634      1.286     2.57     5.716968     20.40563     139.0899        13     1.036     0.769  74.13   0
       401    824.9609     22.3984 300.4227534 +22.6278008     403.9115     72.34538      1.195     1.94     5.727732     20.40563       96.574         8     0.844     0.584  49.04   0
       402    273.8151   1010.4799 299.9303205 +22.7463849     3048.454     72.34538      5.693    18.34     53.12849     20.40563     94.38266       136     4.496     2.846   2.97  19
       403    243.4226    996.3094 299.9254806 +22.7332008     4312.725     72.25323      9.079    43.12     63.23269     20.40563     81.62409       479    10.396     4.963  81.66  19
       404      6.6396     14.2463 300.1707232 +22.3804304     457.7657     72.40061      1.456     3.82     5.317455     20.40563     49.45861         6     0.976     0.428  -2.97  16
       405    262.5498    994.7623 299.9319311 +22.7384981     5745.727     72.30853      9.467    37.83     51.19021     20.40563     103.7013       477     8.107     4.994 -71.76  19
       406    171.3261   1018.3127 299.8959096 +22.7178659     728.0406     72.47419      1.946     9.33      92.3568     20.40563      44.8355        17     2.027     1.283  66.15  19
       407    175.2443   1016.9976 299.8975554 +22.7186653     1307.372     72.32696      2.697    12.48     91.51814     20.40563      47.5722        27     2.304     1.881  -3.05  19
       408    282.0761    984.6830 299.9412819 +22.7414689     8652.691     72.41901      9.502    34.95     35.55965     20.40563     181.9972       889    12.071     5.335  64.54  27
       409    221.3372   1014.5872 299.9126677 +22.7318108     977.2563     72.30853      2.066     8.71     90.00314     20.40563     53.03609        14     1.869     1.134  64.67  19
       410    217.6578   1001.0639 299.9159235 +22.7268302     1768.325      72.3822      4.482    12.97      77.8483     20.40563     52.75156        38     2.480     1.888 -69.16   3
       411    217.3506   1010.8155 299.9126555 +22.7295331     1210.422     72.36379      2.850     9.95     86.51731     20.40563     53.71957        27     3.072     0.899 -49.28  19
