#   1 NUMBER                 Running object number                                     
#   2 X_IMAGE                Object position along x                                    [pixel]
#   3 Y_IMAGE                Object position along y                                    [pixel]
#   4 ALPHA_J2000            Right ascension of barycenter (J2000)                      [deg]
#   5 DELTA_J2000            Declination of barycenter (J2000)                          [deg]
#   6 FLUX_APER              Flux vector within fixed circular aperture(s)              [count]
#   7 FLUXERR_APER           RMS error vector for aperture flux(es)                     [count]
#   8 FLUX_RADIUS            Fraction-of-light radii                                    [pixel]
#   9 FWHM_IMAGE             FWHM assuming a gaussian core                              [pixel]
#  10 BACKGROUND             Background at centroid position                            [count]
#  11 THRESHOLD              Detection threshold above background                       [count]
#  12 FLUX_MAX               Peak flux above background                                 [count]
#  13 ISOAREA_IMAGE          Isophotal area above Analysis threshold                    [pixel**2]
#  14 A_IMAGE                Profile RMS along major axis                               [pixel]
#  15 B_IMAGE                Profile RMS along minor axis                               [pixel]
#  16 THETA_IMAGE            Position angle (CCW/x)                                     [deg]
#  17 FLAGS                  Extraction flags                                          
         1    506.6693     15.9688 300.3326391 +22.5431389     1026.597     72.23682      1.347     2.58     5.353252      20.3854     135.6916        15     1.083     0.805  68.69   0
         2     79.5819     15.1152 300.2000085 +22.4150499     666.7418     72.19999      2.127     4.69     5.332682      20.3854      77.8295        13     1.456     1.029  65.30   0
         3    410.5544     13.9986 300.3033455 +22.5138108     768.3447     72.25523      1.413     3.00     4.633631      20.3854     99.25229        14     1.019     0.877 -38.25   0
         4    749.8071      4.9797 300.4119730 +22.6127078     667.5142     71.47807      1.423     4.00     5.583158      20.3854     88.63441        12     1.149     0.793  87.29  16
         5    181.8771      3.9485 300.2354377 +22.4424703     3786.207     68.59193      1.624     3.30     5.420613      20.3854     388.0427        33     1.352     1.210  66.71  24
         6    164.1428   1017.0638 299.9009866 +22.7280678      286.576     72.31042      1.541     5.13      98.2541      20.3854     28.97249         5     1.159     0.641  -4.50  16
         7     96.6531   1010.1880 299.8822405 +22.7058447     4742.823     72.25523     16.145    83.70     84.72501      20.3854     153.9306      1921    16.901    12.052  43.19  27
         8    230.9137    985.2267 299.9321105 +22.7389680     5475.361     72.25523     10.520    43.56     56.65609      20.3854     105.2014       559     8.780     7.010 -66.15  19
         9    175.5365    971.0699 299.9194929 +22.7182940      1355.33     72.29202      7.966    19.36     57.09203      20.3854     46.93075        44     5.117     2.034  76.85   3
        10    179.6057    978.0219 299.9184968 +22.7215089     1251.031     72.23682      4.110     5.80     62.51432      20.3854      46.5973        11     1.284     0.862  66.49   3
        11    176.4722    976.3474 299.9180671 +22.7200885     1477.693     72.25523      3.117     7.35     61.41382      20.3854     49.97748        14     1.767     0.857 -32.38   3
        12    744.0325   1015.2040 300.0821427 +22.9014263     393.3655     72.23682      1.948     3.25     3.052029      20.3854     37.20213         5     0.910     0.718 -12.14   0
        13    508.7095    976.8925 300.0212832 +22.8198875     398.3708     72.42068      1.530     3.02     3.056398      20.3854      32.2882         4     0.841     0.316 -58.35   2
        14    937.3232    970.5826 300.1569460 +22.9465230     797.8828     72.25523      2.258     6.69     3.395515      20.3854     40.18157        10     1.637     0.768  59.45   2
        15    141.6290   1007.6242 299.8970574 +22.7186052     1850.986     72.25523      3.580    12.82     88.56898      20.3854     56.54993        50     2.498     1.830 -43.86   2
        16    248.2485    974.2291 299.9410804 +22.7410131     8236.583     72.27363     11.544    39.83     35.39109      20.3854     183.9391      1026    12.928     5.717  67.22  19
        17    156.1425    956.3086 299.9182638 +22.7082413     1781.116     72.31042      7.982    17.11     45.92427      20.3854     52.27782        58     3.713     2.190  37.39   3
        18    662.1191    954.2635 300.0764378 +22.8593768     6959.154     72.36557      1.977     4.44     3.175936      20.3854     423.1182        50     1.569     1.488  32.77   0
        19    174.6012    950.5441 299.9258788 +22.7121255     506.8529     72.18157      2.982     4.92     39.98977      20.3854     28.81565         5     1.156     0.593  56.04   0
        20    161.9991   1007.2192 299.9035230 +22.7246010     378.9515     72.18157      1.610     6.47     89.98861      20.3854     30.14747         7     1.397     0.842 -63.82   2
        21    570.5352    944.8084 300.0509778 +22.8292113     1598.005     72.23682      1.953     4.74     3.350074      20.3854     98.50053        30     1.430     1.346 -85.65   0
        22    182.8113    999.5272 299.9124975 +22.7286391     2763.636     72.27363      5.449    22.14     81.21804      20.3854     67.10907       138     5.044     2.901  14.11  18
        23    464.3908    941.4996 300.0189958 +22.7964406     997.9832     72.16315      1.933     5.71     3.314189      20.3854     64.09193        21     1.517     1.128  10.86   0
        24    395.0838    939.3362 299.9981225 +22.7750386     6572.158     72.34719      1.919     4.04     3.634031      20.3854      498.377        45     1.504     1.445   5.32   0
        25    183.3670    991.4282 299.9153052 +22.7264828     1698.274     72.27363      5.733    12.03     73.37377      20.3854     66.31305        39     2.548     1.580 -60.03   3
        26      3.3321    995.1405 299.8581319 +22.6735239     2711.135     66.28483     16.789    32.23    -25.52692      20.3854     73.71812       215     9.539     3.023 -77.16  27
        27    427.8554    926.2779 300.0125717 +22.7811171      605.524     72.29202      1.829     6.57     3.462024      20.3854     48.77943        11     1.169     1.036 -84.14   0
        28    941.4736    918.3500 300.1752330 +22.9327576     2066.648     72.25523      1.982     4.72     3.964587      20.3854     110.5831        31     1.454     1.321  46.04   0
        29    557.1998    991.8763 300.0315114 +22.8387264     2347.611     72.12628      2.033     4.77     2.869563      20.3854     135.6147        33     1.471     1.351  -8.66   0
        30    439.3985    914.8450 300.0198840 +22.7812963     413.3606     72.25523      1.621     6.02     3.506089      20.3854     37.20879         7     1.270     0.802  -2.68   0
        31      5.8437   1014.7929 299.8525187 +22.6799124      3348.58     72.27363     13.614    54.01    -30.11141      20.3854     71.24899       567    11.239     7.203 -75.09  27
        32    730.1078    907.1208 300.1129640 +22.8662118     834.8403     72.38394      2.170     7.17     3.452831      20.3854      48.5733        16     1.505     1.096  48.99   0
        33    497.9453   1000.6158 300.0102127 +22.8234696      356.864     72.21841      1.740     4.98     2.902837      20.3854     34.22289         7     1.432     0.490  66.28   0
        34    643.8532    987.2748 300.0600059 +22.8633811     8826.543     72.27363      2.077     4.80     2.912338      20.3854     513.9803        47     1.594     1.462  24.74   3
        35    765.1300    901.3398 300.1257628 +22.8750447      1063.83     72.29202      1.877     5.25     3.491188      20.3854     71.05082        21     1.404     1.100 -46.11   0
        36    542.9589    902.4780 300.0561562 +22.8087915     460.4506     72.23682      1.618     3.76     3.533121      20.3854     34.34632         6     0.821     0.493   6.95   0
        37    787.2979    894.9871 300.1347410 +22.8798612     11572.45     72.14471      1.864     4.20     3.538791      20.3854     738.4157        55     1.475     1.472  14.32   0
        38    216.3391    897.2719 299.9561857 +22.7093623     758.3751     72.29202      3.867     4.27     9.029549      20.3854     35.30225         5     0.890     0.584 -37.84   1
        39    833.1397    895.0577 300.1490138 +22.8936148     338.0707      72.3288      1.547     6.13     3.562534      20.3854     41.17177         9     1.398     0.756 -42.55   0
        40    649.4559    984.8126 300.0625529 +22.8643534     9458.116     72.25523      1.995     4.77     2.928415      20.3854     548.1752        49     1.560     1.468  19.89   3
        41    978.4465    895.0409 300.1943521 +22.9371322     424.6063     72.31042      1.650     4.61     4.134475      20.3854     34.73267         8     1.072     0.564 -44.30   0
        42    231.1330    893.2043 299.9621101 +22.7126324      676.399     72.23682      4.648     4.21     7.362239      20.3854     34.45481         5     1.125     0.698  80.51   0
        43     87.2392    944.4780 299.9006897 +22.6841751     5830.738     72.23682     30.154     7.95     21.34562      20.3854     1327.185      4926    21.800    17.920 -61.62  19
        44    744.0226    988.1060 300.0909568 +22.8936414      837.936     72.16315      2.194     8.03     3.112104      20.3854     42.86792        17     1.729     1.043 -20.42   0
        45     99.3749    887.1366 299.9231109 +22.6713688     1226.682     72.23682     10.501     9.67     7.219207      20.3854     58.46297        26     2.362     1.342  36.88   1
        46    492.5422    883.0906 300.0467591 +22.7881124     489.4401     72.31042      1.798     6.55     3.514682      20.3854     34.27219        10     1.531     0.787  61.63   0
        47    205.1710    881.4205 299.9578668 +22.7014645     485.6191     72.25523      3.425     3.67     8.146374      20.3854      28.2755         5     1.052     0.369 -85.73   0
        48    210.7646    986.0543 299.9255742 +22.7331608     4130.295     72.27363      8.627    35.84     64.84956      20.3854     96.93681       340     8.176     4.361 -85.18  19
        49    795.8341    877.0753 300.1432282 +22.8772727     1536.082     72.25523      1.876     4.92     3.715124      20.3854     89.18959        25     1.347     1.281  29.45   0
        50    647.5389    874.0532 300.0979830 +22.8319722     468.8584     72.31042      1.832     4.91     3.616941      20.3854      50.5909         8     1.512     0.451  -7.53   0
        51    833.5309    870.7121 300.1570536 +22.8867371     847.0314     72.42068      2.108     5.27     3.855882      20.3854     57.12812        15     1.395     1.020  88.54   0
        52    882.1094    861.9065 300.1750697 +22.8987577     621.6849     72.42068      1.690     4.76     4.046831      20.3854     63.93991        10     1.030     0.950  -4.83   0
        53    733.4883    860.8746 300.1290580 +22.8539403     761.8396     72.40231      1.723     6.44     3.841703      20.3854     48.78654        17     1.437     0.976  -6.70   0
        54    338.3306    860.2948 300.0061641 +22.7353352     325.7929     72.36557      1.707     3.95     4.299899      20.3854     35.42624         6     0.986     0.453   3.34   0
        55    446.2365    856.9584 300.0408380 +22.7667288     4335.489      72.3288      1.765     3.77     3.809971      20.3854     387.3215        37     1.405     1.260  32.70   0
        56    744.8428    857.7130 300.1336259 +22.8564339     635.0847     72.25523      1.745     4.84     3.862969      20.3854      48.7903        16     1.215     0.961   2.71   0
        57    107.5961    845.7981 299.9391081 +22.6619763     463.7172     72.03403      1.816     3.53     5.303336      20.3854     30.34884         5     1.254     0.286 -35.86   0
        58    490.3426    844.8071 300.0585230 +22.7764613     341.4907     72.25523      1.489     3.92     3.713376      20.3854     30.28708         6     1.095     0.403  75.73   0
        59    366.3227    998.7448 299.9698440 +22.7834624     245.4487     72.29202      1.406     4.42     4.329832      20.3854     47.12364         7     1.117     0.497 -57.56   0
        60    171.6363    842.2053 299.9601885 +22.6801544     977.4305     72.27363      2.217     6.54     6.207608      20.3854     67.09264        17     1.383     1.113  20.40   0
        61     81.1861    841.5756 299.9322708 +22.6528425      509.727     72.25523      1.537     3.53     4.958375      20.3854     56.09671         5     1.172     0.307  77.76   0
        62    148.5883    839.5281 299.9538919 +22.6724733     1762.764     72.27363      2.059     4.44     6.104145      20.3854     142.2113        28     1.462     1.245  14.72   0
        63   1020.5032    828.9714 300.2289646 +22.9307351     1985.551      70.2773      1.960     4.90     4.184842      20.3854     120.3951        32     1.520     1.369 -14.94  24
        64    679.3584    828.1210 300.1228354 +22.8283135     488.4408     72.23682      1.724     5.97      3.75634      20.3854       40.953        10     1.490     0.672 -67.89   0
        65    974.6475    827.6650 300.2150774 +22.9166294     1990.822     72.29202      1.817     4.53      4.17215      20.3854     123.3242        28     1.382     1.190  23.96   0
        66    758.5546    821.6289 300.1496340 +22.8501749     612.6932     72.29202      1.627     3.80     3.993137      20.3854     53.48121        14     1.177     0.807  24.83   0
        67    181.3562    821.2517 299.9700236 +22.6770572     509.2768     72.29202      1.578     3.09     5.359533      20.3854     44.86018         9     0.860     0.729  14.72   0
        68    626.4141    815.3021 300.1105037 +22.8087677     4868.985     72.14471      1.668     3.42     3.734175      20.3854     419.2442        36     1.279     1.262  39.89   0
        69    116.1052    814.8326 299.9518206 +22.6556446     368.5849     72.23682      1.753     5.44      4.98138      20.3854     48.49424         8     1.247     0.669  45.87   0
        70    428.6979    812.5945 300.0498017 +22.7487344     652.6964     72.14471      1.509     4.53     4.102892      20.3854     61.07792        15     1.232     0.868 -14.61   0
        71    176.4248    808.7549 299.9725525 +22.6719923     1327.595     72.27363      1.860     4.29     5.008201      20.3854      102.301        26     1.422     1.246  19.51   0
        72    647.0696    807.8575 300.1193607 +22.8128183     603.6192     72.27363      1.565     4.42     3.753628      20.3854      55.6624        13     1.173     0.847 -34.53   0
        73    195.9996    806.3693 299.9794158 +22.6771782     284.1982     72.21841      1.145     3.99     4.844419      20.3854     44.41299         5     1.052     0.433 -65.18   0
        74    802.4006    795.0043 300.1719620 +22.8556586     4186.651     72.07095      1.683     3.64     4.033702      20.3854     297.5004        35     1.315     1.289  40.83   0
        75   1019.1898    795.1954 300.2395365 +22.9206319     1211.387     72.10784      2.010     5.25     4.129309      20.3854      71.3095        21     1.323     1.196  79.11  16
        76    533.5853    791.9070 300.0891895 +22.7742310     270.1918     72.18157      1.719     5.77     3.736165      20.3854     33.56874         6     1.233     0.761 -46.20   0
        77    519.3610    787.5207 300.0861850 +22.7687085     605.2455     72.23682      1.586     3.59     3.874442      20.3854      60.1646        11     0.905     0.870   7.14   0
        78    165.9509    785.2764 299.9769274 +22.6621138     919.8937     72.25523      1.673     4.43     4.706532      20.3854     84.15535        16     1.189     0.986   4.91   0
        79    315.3496    777.3430 300.0259807 +22.7046343        53995     72.31042      1.738     3.50     4.641101      20.3854      5080.42        93     1.500     1.446  33.73   0
        80    581.0062    780.6622 300.1076171 +22.7852118     713.0378     72.23682      1.885     4.33      3.85499      20.3854     52.35084        13     1.211     0.910 -35.78   0
        81    573.4648    776.6343 300.1065770 +22.7817951     1620.697     72.25523      1.548     2.97     3.856026      20.3854     175.3521        24     1.247     1.056 -43.02   0
        82    986.3145    776.1823 300.2354567 +22.9053234     854.0632     72.19999      1.782     5.24     4.082664      20.3854     81.07593        16     1.287     0.944 -36.51   0
        83    244.1624    775.3226 300.0044888 +22.6827106     490.5121     72.23682      1.750     3.56     4.694856      20.3854     57.57353         6     0.959     0.587  39.00   0
        84    602.0380    772.5346 300.1168117 +22.7891792      880.506     72.23682      1.591     3.59     4.008234      20.3854     83.27779        18     1.241     0.907 -34.07   0
        85      2.2770    771.9805 299.9303688 +22.6092061     619.5347     61.36782      1.377     3.57     4.863894      20.3854      71.9287        13     1.125     0.837 -87.44  24
        86    613.5801    771.0623 300.1208866 +22.7922146     604.2297     72.21841      1.606     4.32     4.048839      20.3854       63.272        11     1.170     0.799 -25.89   0
        87    718.7678    767.0378 300.1549776 +22.8225715     495.3295     72.27363      1.444     3.41     4.091301      20.3854     56.14696         9     1.008     0.758   1.30   0
        88    756.3018    757.6030 300.1697459 +22.8311035     873.0209     72.16315      1.840     3.36     4.136884      20.3854     71.73282        15     1.058     0.975  65.84   0
        89    365.1133    754.6051 300.0488585 +22.7130249     31723.85     72.18157      1.650     3.16     4.583346      20.3854     3485.944        71     1.410     1.346  26.47   0
        90    379.3076    755.1008 300.0531155 +22.7174221      2065.79     72.43903      1.654     3.50      4.54734      20.3854     193.6053        26     1.234     1.154  78.38   0
        91    888.2441    750.7675 300.2131172 +22.8686535      2788.26     72.31042      1.706     3.68     4.200591      20.3854     206.3862        30     1.280     1.233  19.56   0
        92    376.1458    748.9296 300.0541371 +22.7147025     655.4785     72.29202      1.655     5.11     4.581607      20.3854     52.34695        10     1.194     0.728 -87.14   1
        93    646.2547    746.8296 300.1389450 +22.7950427     977.6707     72.25523      1.604     3.14     4.182616      20.3854     130.5442        15     1.099     0.912  44.05   0
        94    482.0519    746.9122 300.0877653 +22.7458652     498.5534     72.29202      1.698     3.94     4.336059      20.3854      44.1572         9     0.969     0.670 -14.26   0
        95    247.6279    746.4857 300.0149396 +22.6754726     721.3318     72.25523      1.646     3.76     4.680776      20.3854     87.45094        14     1.221     0.886  -2.83   0
        96    540.7993    744.4005 300.1068786 +22.7627486     405.5074     72.03403      1.467     3.46     3.977319      20.3854     34.97937         5     0.795     0.436 -19.70   0
        97    493.5045    741.6356 300.0930469 +22.7477820     776.4694     72.25523      1.512     3.49     4.283005      20.3854     83.09604        15     1.054     0.984  74.04   0
        98     53.2000    742.4037 299.9558075 +22.6159956     444.1213     72.03403      1.698     2.51     4.765463      20.3854     54.03668         6     0.712     0.608 -75.83   0
        99    894.4443    738.7172 300.2189683 +22.8670463     550.8454     72.21841      1.868     4.79     4.200988      20.3854     50.28436        12     1.111     0.970 -10.69   0
       100    395.4106    738.0651 300.0636649 +22.7173574     222.7828     72.19999      1.276     4.30     4.594203      20.3854     32.55413         6     0.999     0.528 -12.56   0
       101    438.9365    736.4271 300.0777478 +22.7299326     567.1263     72.25523      1.748     5.03     4.498769      20.3854     41.10139         9     0.948     0.754  67.42   0
       102    647.4434    735.3934 300.1430324 +22.7921133     390.9151     72.27363      1.683     4.80     4.260116      20.3854      40.5392         7     1.305     0.501 -51.91   0
       103     81.2409    735.5328 299.9667567 +22.6224344     483.7042     72.23682      1.769     4.42     4.694549      20.3854     52.92508         6     0.968     0.573  61.43   0
       104    871.3502    734.5027 300.2131337 +22.8589197     405.0695      72.3288      1.691     4.56      4.19807      20.3854     36.68159         7     1.366     0.433 -11.13   0
       105    245.8664    730.7899 300.0194926 +22.6704391     514.5457     72.25523      1.554     3.44     4.651469      20.3854     63.27097         8     0.921     0.706 -81.60   0
       106    568.6239    721.1667 300.1230973 +22.7644121     448.5179     72.25523      1.316     2.77     4.239283      20.3854     52.57542         9     0.885     0.655  18.81   0
       107    538.5333    719.4764 300.1142731 +22.7549106     619.3961     72.34719      1.499     3.01     4.177698      20.3854      79.2879        10     0.941     0.779  33.64   0
       108    954.6747    716.2166 300.2450742 +22.8786111     4492.621     72.25523      1.744     3.64     4.195343      20.3854     329.8625        36     1.342     1.311  65.24   0
       109    560.1476    716.9627 300.1218230 +22.7606647     1416.333     72.27363      1.520     3.32     4.229143      20.3854     128.6612        19     1.067     1.055 -42.69   0
       110    447.2997    718.4138 300.0862059 +22.7272661     353.9928     72.16315      1.708     3.46     4.475718      20.3854     30.95767         5     0.745     0.463  16.61   0
       111    480.0326    716.4255 300.0970446 +22.7365044     433.5104     72.25523      1.617     4.42     4.409723      20.3854     37.35931         6     0.858     0.648  35.32   0
       112    642.2634    712.4772 300.1488659 +22.7839776     327.0851      72.3288      1.626     4.82     4.320197      20.3854     30.43256         6     0.932     0.707  24.09   0
       113    943.0785    707.5547 300.2442707 +22.8726491     1613.609     72.25523      1.648     3.67     4.270913      20.3854     135.7496        24     1.251     1.155 -40.32   0
       114    172.6244    701.8111 300.0061283 +22.6401610     257.0807     72.25523      1.488     2.57     4.553542      20.3854     34.61514         5     0.729     0.438  69.18   0
       115    306.0087    700.8358 300.0479386 +22.6798700     949.4553     72.25523      1.605     3.92     4.593669      20.3854     88.97469        17     1.126     1.028   1.22   0
       116    769.9233    698.7766 300.1931122 +22.8182779     2571.454     72.27363      1.778     4.08     4.145503      20.3854     240.8707        35     1.741     1.085  -0.12   0
       117    974.3664    697.5713 300.2572789 +22.8791453     1809.144     72.27363      1.866     4.44      4.25947      20.3854     127.4238        26     1.308     1.260   6.25   0
       118    851.7291    684.6985 300.2231991 +22.8387283     816.7477     72.40231      1.781     4.95     4.138463      20.3854      57.6556        16     1.214     1.042  18.98   0
       119    155.0090    684.9724 300.0061216 +22.6300460     679.9466     72.25523      1.614     4.15     4.558497      20.3854     68.27258        14     1.237     0.982  24.31   0
       120    887.9884    675.6864 300.2374385 +22.8469939     149306.5     72.19999      1.641     3.41     4.234679      20.3854     12868.73       154     1.507     1.473 -77.78   0
       121    650.3648    679.4704 300.1621164 +22.7769208     344.9417     72.27363      1.540     4.62     4.359653      20.3854     36.09853         7     0.868     0.697   7.50   0
       122    740.4494    675.9253 300.1913482 +22.8028836     869.7721     72.25523      1.675     3.91     4.136223      20.3854     82.94488        16     1.158     0.999  32.50   0
       123    920.5123    668.4180 300.2499474 +22.8546413     463.9441     72.19999      1.767     2.64     4.394761      20.3854     49.62577         7     0.962     0.603  23.34   0
       124    574.0788    664.4973 300.1432114 +22.7497664     1560.945     72.36557      1.413     2.84      4.54563      20.3854     188.7874        20     1.062     1.007   8.32   0
       125    755.3933    661.8017 300.2005966 +22.8032997     9372.059     72.07095      1.540     3.03     4.142736      20.3854     965.9146        39     1.241     1.187  -4.76   0
       126    237.0741    663.3786 300.0386617 +22.6484515     306.2057     72.25523      1.418     4.08      4.41705      20.3854     40.28107         5     1.032     0.461 -64.01   0
       127    256.9040    656.6282 300.0470238 +22.6524579     4891.792     72.18157      1.604     3.23     4.431236      20.3854      516.705        37     1.309     1.240   4.07   0
       128    339.0473    654.8284 300.0731686 +22.6765627     1121.076     72.27363      1.498     3.46      4.52389      20.3854     126.9652        18     1.187     0.955   5.25   0
       129    214.8398    652.3911 300.0353150 +22.6386316     477.1352     72.25523      1.484     3.93     4.423455      20.3854     54.47867        12     1.090     1.008 -49.79   0
       130    547.2706    650.3860 300.1394448 +22.7376810     831.7441     72.25523      1.486     3.49     4.585407      20.3854     84.65189        15     1.045     0.975  -9.75   0
       131    538.8534    642.4986 300.1393854 +22.7328933     3206.953     72.34719      1.446     2.87     4.592104      20.3854     350.3798        26     1.127     1.096  23.48   0
       132    922.7327    635.0625 300.2614778 +22.8457154     443.3614     72.31042      1.678     6.14     4.404361      20.3854     50.35234        10     1.324     1.002 -74.58   0
       133    529.1755    636.2417 300.1384035 +22.7281964     1431.114     72.31042      1.491     3.08     4.597013      20.3854     136.8912        23     1.196     1.124  47.61   0
       134    439.6654    633.0471 300.1115661 +22.7004602     250.9317     72.27363      1.360     2.64     4.524806      20.3854     39.78868         5     0.850     0.472 -89.52   0
       135    192.5068    632.7258 300.0347571 +22.6262909      797.553     72.40231      1.819     3.32     4.456343      20.3854      79.6693        12     0.967     0.889 -82.96   0
       136    206.7593    630.7396 300.0398352 +22.6299934     607.6829     72.25523      1.659     4.63     4.433478      20.3854     61.08154        12     1.023     0.955  27.29   0
       137    975.9301    628.0073 300.2803705 +22.8596102     495.9853     72.21841      1.897     3.36     4.433162      20.3854     47.63436         7     0.911     0.689   2.76   0
       138    263.6912    627.9973 300.0584364 +22.6462720     466.9162     72.16315      1.518     3.15     4.403149      20.3854     53.83545         7     0.841     0.665 -15.53   0
       139    232.4096    627.5841 300.0488390 +22.6367766      673.625     72.18157      1.572     2.99     4.404746      20.3854     73.62891        12     0.921     0.856  -1.17   0
       140    453.9302    625.9863 300.1183015 +22.7027062     1767.069     72.27363      1.465     3.17     4.561172      20.3854     178.6435        22     1.090     1.058  10.77   0
       141    552.9413    626.6547 300.1489210 +22.7325618     410.5616     72.31042      1.249     4.07     4.618508      20.3854     66.34609         7     1.002     0.472  -3.94   0
       142    487.7529    625.5853 300.1289642 +22.7127249     189.0065     72.27363      1.089     3.80     4.614581      20.3854     40.66512         5     0.973     0.427  16.35   0
       143    107.8155    620.6915 300.0123302 +22.5974452     19862.37     72.18157      1.722     3.60     4.583494      20.3854     2074.989        61     1.488     1.369  29.04   0
       144     28.8182    622.6205 299.9871471 +22.5743113     747.2862     72.25523      1.863     5.99      4.67651      20.3854      56.9839        13     1.266     1.011 -37.91   0
       145    538.7707    621.2633 300.1462582 +22.7267677     1091.248     72.27363      1.428     2.98     4.621616      20.3854     122.4421        18     1.110     1.029 -43.05   0
       146    573.9849    620.4380 300.1574962 +22.7370794     385.6312     72.27363      1.228     3.00     4.648255      20.3854     48.46989         6     0.772     0.496  -2.41   0
       147    292.6383    612.8734 300.0723558 +22.6506056     165.2781     72.21841      1.079     2.74     4.380682      20.3854     44.41603         7     0.807     0.602 -56.48   0
       148    957.0609    607.6420 300.2810979 +22.8481059     1127.406     72.23682      1.639     3.55     4.433162      20.3854     99.33038        20     1.170     1.074 -14.23   0
       149     54.0151    604.9512 300.0007179 +22.5767958     1607.941     72.29202      2.024     4.27     4.616167      20.3854     124.8977        29     1.544     1.177 -88.16   0
       150    823.7357    605.6375 300.2401549 +22.8076187     482.4034     72.25523      1.339     3.46     4.170653      20.3854     58.19354        10     1.043     0.656  34.63   0
       151    120.3883    605.2128 300.0212670 +22.5967718     388.9821     72.16315      1.740     4.91     4.548732      20.3854     40.97467         9     1.194     0.571 -49.20   0
       152    502.0918    602.0838 300.1410640 +22.7102692     409.8652     72.42068      1.278     2.84     4.666668      20.3854     67.32567         9     0.840     0.739   8.61   0
       153    897.1797    600.4488 300.2647501 +22.8281135     1001.747     72.27363      2.739     8.18     4.289814      20.3854     60.46259        17     1.985     0.942  -7.51   2
       154    295.0452    600.6617 300.0770713 +22.6478202     325.5161     72.29202      1.630     4.02     4.375037      20.3854     37.47013         5     1.034     0.447  62.92   0
       155    361.5600    599.8112 300.0980476 +22.6675095     186.3651     72.25523      1.208     4.14     4.466753      20.3854      29.7164         6     1.052     0.464 -31.17   0
       156    459.1979    594.1746 300.1302752 +22.6951462     748.3594     72.19999      1.469     3.85     4.613453      20.3854     79.92065        11     0.970     0.837  70.14   0
       157    607.1551    592.8905 300.1767793 +22.7390993     512.9543     72.23682      1.441     3.33     4.718948      20.3854     66.12897        11     0.956     0.857  -0.35   0
       158    654.2227    591.4637 300.1919100 +22.7527860     480.6333     72.23682      1.476     3.70     4.496498      20.3854     62.44898        10     1.042     0.774 -66.60   0
       159    624.5783    590.9567 300.1828365 +22.7437619     635.6611     72.31042      1.447     2.81     4.641181      20.3854     88.44666        15     1.009     0.920 -65.83   0
       160    503.1942    589.9149 300.1453600 +22.7071033     1064.232     72.18157      1.692     4.05     4.676607      20.3854     92.00234        20     1.324     1.026  -9.22   0
       161    937.0518    585.7664 300.2819600 +22.8358261     3364.933     72.27363      1.569     3.16     4.433162      20.3854     324.9242        32     1.237     1.193 -25.13   0
       162    468.7326    585.5143 300.1360571 +22.6955149     1872.997     72.34719      1.495     2.91     4.648723      20.3854     202.5843        22     1.139     1.023 -87.43   0
       163    833.8632    583.1509 300.2506179 +22.8041857     338.4157     72.31042      1.512     3.49     4.188451      20.3854     44.29221         5     0.757     0.670  42.52   0
       164    444.0403    580.3944 300.1300312 +22.6866463     322.6938     72.27363      1.451     4.61     4.565695      20.3854     35.95396         6     0.830     0.726   5.09   0
       165     30.6038    578.8597 300.0019152 +22.5622874     5122.558     72.21841      1.812     3.85     4.586732      20.3854     468.3136        37     1.433     1.328  19.70   0
       166    976.3094    575.6656 300.2974919 +22.8446706     371.0042     72.38394      1.400     2.86     4.433162      20.3854     55.59332         6     0.823     0.715  85.42   0
       167    332.1158    572.1320 300.0978734 +22.6507364     9248.389     72.36557      1.488     2.99     4.381654      20.3854     948.0043        43     1.256     1.222  38.67   0
       168    454.5908    569.2208 300.1369454 +22.6865972     9097.951     72.23682      1.408     2.66     4.605472      20.3854      1034.02        39     1.183     1.149  80.22   0
       169    701.3389    566.2006 300.2148010 +22.7596344     303.1725     72.21841      1.307     4.24     4.245383      20.3854      41.0685         7     0.935     0.548  31.41   0
       170    866.2783    563.4086 300.2671412 +22.8082127     2039.768     72.21841      1.595     2.67     4.233967      20.3854     218.4742        23     1.168     1.095 -52.04   0
       171    950.9474    560.8198 300.2943989 +22.8328105     12416.65     72.23682      1.579     3.27     4.433162      20.3854     1131.157        44     1.324     1.266 -54.32   0
       172    515.1530    558.7968 300.1591913 +22.7017449     11636.58     72.23682      1.418     2.79     4.702088      20.3854     1383.962        45     1.206     1.161 -87.51   0
       173    242.5352    554.0894 300.0758594 +22.6187086     1409.703     72.36557      1.532     3.14     4.369551      20.3854     148.5495        22     1.250     1.027  64.73   0
       174    684.6292    554.7833 300.2133006 +22.7513490     485.4153     72.25523      1.374     3.35     4.228744      20.3854     61.56907        10     0.903     0.811  58.33   0
       175    489.3248    551.6866 300.1534563 +22.6919650     494.2195     72.38394      1.749     6.86     4.710684      20.3854     46.62373        13     1.280     1.034 -30.16   0
       176    400.5883    553.3597 300.1252829 +22.6658614     222.1044     72.23682      1.275     3.41     4.429222      20.3854     44.75729         5     0.767     0.438 -69.18   0
       177    789.7304    547.2504 300.2485143 +22.7806516     843.5356     72.25523      1.460     2.92     4.191673      20.3854     92.04347        16     1.084     0.882  36.26   0
       178    446.8653    546.9932 300.1417584 +22.6778969     4434.553     72.23682      1.407     2.87     4.577319      20.3854     513.2551        27     1.097     1.090  36.90   0
       179    425.1858    545.4645 300.1355047 +22.6709628     1278.451     72.21841      1.424     2.80     4.487798      20.3854      145.179        19     1.130     0.990  10.04   0
       180    179.3801    544.7630 300.0592434 +22.5971014     808.4634     72.27363      1.779     3.09     4.454019      20.3854     94.41821        15     1.111     0.885   7.58   0
       181    866.7066    542.6667 300.2740113 +22.8023764     1626.882     72.40231      1.656     3.28     4.277116      20.3854     154.2897        23     1.183     1.129 -18.42   0
       182    967.9032    541.1915 300.3060652 +22.8322395     224.3276     72.14471      1.246     3.96     4.440018      20.3854      36.9859         5     1.043     0.431 -47.14   0
       183    563.4813    534.5764 300.1821112 +22.7092606     206854.7     72.21841      1.433     2.54     4.738792      20.3854     27771.11       201     1.481     1.394 -10.10   0
       184    747.1467    539.5751 300.2377288 +22.7656961     823.0464     72.27363      1.371     2.54     4.191226      20.3854     108.2051        14     1.011     0.849  50.34   0
       185    387.2753    540.6111 300.1252785 +22.6582104     428.9431     72.27363      2.136     3.33     4.399029      20.3854     46.86766         6     1.032     0.462  -9.73   0
       186    840.9476    538.4106 300.2673585 +22.7934421     242.5148     72.25523      1.336     4.48     4.243465      20.3854     34.90328         6     0.825     0.692  27.78   0
       187    249.5262    534.4268 300.0844193 +22.6151572     3607.565     72.25523      1.582     2.87     4.400374      20.3854     412.2608        30     1.237     1.136 -26.95   0
       188    815.2130    530.9989 300.2617390 +22.7836074     478.9019     72.07095      1.441     3.80      4.21471      20.3854     60.77037         5     0.833     0.496 -21.82   0
       189    454.1373    514.8336 300.1544657 +22.6708356     2784.388     72.25523      1.477     2.73     4.631297      20.3854     321.0812        28     1.200     1.058  70.63   2
       190    298.2534    517.3791 300.1051157 +22.6248633     423.5916     72.25523      1.417     3.33     4.425084      20.3854     59.93817         6     0.802     0.631  24.28   0
       191    865.9359    511.3113 300.2839532 +22.7931288     529.4988     72.38394      1.807     4.08     4.277933      20.3854     44.21166         8     0.965     0.650 -64.39   0
       192    771.4736    503.6011 300.2569957 +22.7626361     391.9791     72.14471      1.430     3.83     4.201732      20.3854     45.08415         7     1.011     0.514 -45.32   0
       193    851.0753    501.2553 300.2825829 +22.7857890     1645.445     72.29202      1.403     2.88     4.261906      20.3854     195.1523        21     1.085     1.032   6.52   0
       194    722.2767    498.8005 300.2432156 +22.7465277     2622.624     72.12628      1.386     2.59     4.226614      20.3854     320.1703        24     1.084     1.066  52.20   0
       195    966.9963    496.5900 300.3202657 +22.8191389     449.0301     72.08939      1.618     5.44     4.514587      20.3854     35.45638         8     1.117     0.749  31.09   2
       196    965.4721    492.3807 300.3211568 +22.8174720     755.6128     72.27363      1.710     3.99     4.521214      20.3854      68.2998        11     1.083     0.849  37.04   2
       197    626.9229    495.3588 300.2146125 +22.7169881     489.9297     72.23682      1.505     3.72     4.692658      20.3854     75.06042         8     0.998     0.649  35.68   0
       198    509.7464    494.7084 300.1783182 +22.6817096     807.3254     72.31042      1.629     3.13      4.76511      20.3854       96.994        12     0.968     0.887  -4.07   0
       199    979.5373    492.9747 300.3253536 +22.8218515     1263.014     72.25523      1.618     3.76     4.533201      20.3854      109.907        18     1.197     0.929  67.10   0
       200    851.3868    491.1251 300.2859693 +22.7829689      2349.94     72.27363      1.775     4.06     4.263623      20.3854     244.8182        29     1.718     1.059  67.08   0
       201    604.6935    489.3529 300.2096356 +22.7086053     625.3667     72.27363      1.439     3.55     4.837573      20.3854     67.35155        12     1.095     0.784   4.55   2
       202    604.5750    485.8112 300.2107486 +22.7075518     440.4006     72.25523      1.502     4.26     4.843835      20.3854     38.30713         7     1.008     0.571 -10.90   3
       203    889.5803    486.3850 300.2994230 +22.7930365      4429.43     72.23682      1.501     2.68     4.361878      20.3854     518.0494        31     1.192     1.177  76.41   0
       204    443.1691    487.7453 300.1598456 +22.6597669      449.018     72.27363      1.339     3.45     4.628994      20.3854     57.23489         9     0.920     0.673  65.14   0
       205    627.0489    482.7735 300.2187379 +22.7134082     240.5753     72.27363      1.244     5.09      4.72157      20.3854     42.51818         7     1.238     0.592  43.26   0
       206    550.2114    482.4085 300.1949161 +22.6902938     234.7746     72.14471      1.098     2.14      4.85273      20.3854     47.00181         5     0.699     0.441  23.50   0
       207    981.4398    477.1190 300.3310955 +22.8178595       816.66     72.21841      1.483     3.22     4.572861      20.3854     87.22243        15     1.180     0.780  39.00   0
       208    121.6041    476.3746 300.0634808 +22.5601473     846.1723     72.21841      1.506     3.32     4.537029      20.3854     111.4294        17     1.189     0.983  12.84   0
       209    782.8957    470.5478 300.2712892 +22.7565510     261.4625      72.3288      1.431     4.56     4.209119      20.3854     33.11763         5     0.859     0.686 -45.01   0
       210    169.7792    469.0041 300.0808544 +22.5724696     164.5197     72.21841      1.248     3.73     4.646726      20.3854     32.55921         5     1.249     0.320 -25.95   0
       211    114.1972    466.6329 300.0643401 +22.5551300     325.8998     72.23682      1.403     4.61      4.57011      20.3854     33.80717         8     0.953     0.634 -15.05   0
       212    977.6681    466.1974 300.3334643 +22.8135890      212.464     72.23682      1.139     3.59     4.609949      20.3854      40.3769         5     0.951     0.391   5.02   0
       213    721.9644    460.9708 300.2554003 +22.7355576      389.808     72.27363      1.228     2.94     4.239519      20.3854     69.62575        10     0.965     0.775  -0.96   0
       214    329.9808    459.1422 300.1338962 +22.6176409     258.0232     72.25523      1.626     4.99      4.56302      20.3854     39.09685         6     1.062     0.664  -9.39   0
       215    610.9304    458.5616 300.2215755 +22.7016220     367.1657     72.21841      1.331     1.95      4.78503      20.3854     64.82138         6     0.708     0.496  -1.37   0
       216    662.9988    456.7308 300.2383964 +22.7166856     880.1208     72.19999      1.456     2.95     4.461038      20.3854     107.8336        14     1.022     0.843  34.71   0
       217    977.7808    449.3614 300.3389652 +22.8087792     630.3923     72.27363      1.555     3.85     4.673303      20.3854     81.13204         8     1.033     0.721   0.99   0
       218    723.7685    448.9810 300.2598550 +22.7326503     848.6177     72.25523      1.378     3.15     4.232308      20.3854     97.94662        13     0.970     0.900 -40.29   0
       219    880.8564    445.4244 300.3099995 +22.7786445     929.9586     72.25523      1.327     2.81     4.410102      20.3854     120.4516        13     0.889     0.836  -3.20   0
       220    865.1966    441.5170 300.3063827 +22.7728343     557.0921     72.18157      1.272     2.69     4.369539      20.3854     94.56959        12     0.952     0.800  69.01   0
       221    609.5374    439.5348 300.2273180 +22.6957354     3299.464     72.29202      1.381     2.52     4.742987      20.3854     454.5215        25     1.077     1.064 -36.85   0
       222    970.1123    438.3515 300.3401461 +22.8033174     552.5754     72.25523      1.648     4.24     4.689672      20.3854     62.07309         9     1.017     0.881  72.13   0
       223    449.4975    426.6275 300.1816563 +22.6440998      379.108     72.19999      1.361     3.12     4.886208      20.3854     43.82893         6     0.846     0.482  -3.30   0
       224   1020.9595    418.8051 300.3623618 +22.8129056     1279.677     68.92072      1.547     3.94     4.954675      20.3854     136.2505        20     1.239     1.054  63.41  16
       225    892.9470    418.3891 300.3225474 +22.7744858     482.7969     72.25523      1.317     2.69      4.49928      20.3854     73.93568        10     0.839     0.761  86.83   0
       226    979.2850    417.4944 300.3497793 +22.8000610     908.2885     72.43903      1.509     3.67     4.796593      20.3854     115.4289        16     1.200     0.928  87.32   0
       227    629.4320    415.4574 300.2413328 +22.6947701     342.7993     72.27363      1.670     4.90     4.606238      20.3854     33.97873         8     0.948     0.717  48.50   0
       228    720.2037    413.4896 300.2702643 +22.7213778     1045.205     72.16315      1.303     2.52     4.274003      20.3854     148.7148        16     0.963     0.950   2.15   0
       229    515.9243    414.0869 300.2064139 +22.6603892     464.7787     72.38394      1.416     2.28     4.981585      20.3854     65.46059         8     0.801     0.617  47.39   0
       230    224.0853    411.4628 300.1164227 +22.5722167     710.3181     72.36557      1.409     3.95     4.891939      20.3854     82.62124        16     1.184     0.989  43.70   0
       231   1019.7832    406.0842 300.3661237 +22.8088933     4278.583     71.96015      1.557     3.06     4.943287      20.3854     440.5484        35     1.309     1.199 -75.02  16
       232    286.5264    407.3022 300.1371998 +22.5897295     3694.434     72.38394      1.423     2.54     4.841296      20.3854     467.4536        28     1.179     1.084  25.79   0
       233    233.6793    401.9888 300.1224820 +22.5723699     7698.125     72.23682      1.507     2.99     4.925416      20.3854     891.6356        39     1.286     1.173  56.06   0
       234    738.3341    402.5166 300.2794782 +22.7236492     335.0152     72.36557      1.446     3.90     4.298838      20.3854     36.90607         6     0.927     0.469  86.36   0
       235    611.7563    401.9353 300.2402135 +22.6855906     387.1605     72.23682      1.430     4.13       4.7171      20.3854     37.58567         5     1.036     0.470 -23.77   0
       236    999.6792    397.1406 300.3627511 +22.8003058     1867.856     72.29202      1.519     3.20     4.872493      20.3854     209.6309        22     1.130     1.101  58.17   0
       237    374.5680    396.3019 300.1681705 +22.6129427     4957.516     72.23682      1.384     2.61       4.9113      20.3854     631.5369        29     1.126     1.077  23.67   0
       238    618.7321    393.1028 300.2452538 +22.6851397     18592.68     72.36557      1.363     2.57     4.720476      20.3854      2223.19        48     1.250     1.094  65.73   0
       239    636.3474    393.1900 300.2507150 +22.6904383     967.0467     72.25523      2.171     7.34     4.668093      20.3854     60.04612        19     1.572     0.959 -30.35   0
       240    461.6332    392.7415 300.1964332 +22.6379958     338.1418     72.27363      1.564     3.41     5.020027      20.3854     35.42504         5     0.753     0.445  72.34   0
       241    465.8796    394.9526 300.1970380 +22.6399030     286.0259     72.27363      1.133     2.73     5.027717      20.3854     45.51426         5     0.769     0.488 -24.04   0
       242    862.4407    389.7879 300.3223136 +22.7571300     297.0843     72.25523      1.270     3.54     4.535158      20.3854     39.68871         5     0.943     0.394   7.37   0
       243    815.7813    383.8999 300.3096708 +22.7414738     399.4569     72.16315      1.190     2.42     4.477454      20.3854     56.85936         6     0.834     0.459 -52.46   0
       244    238.6846    380.3356 300.1310660 +22.5676493     478.8614     72.34719      1.562     3.72     5.030087      20.3854     55.70631         9     1.000     0.794 -69.95   0
       245    952.0292    376.1782 300.3546829 +22.7800193     609.0067     72.23682      1.237     2.82      4.79363      20.3854     78.44764         9     0.808     0.704  15.29   0
       246    489.1915    375.0709 300.2107501 +22.6411696     303.0511     72.23682      1.376     3.79     4.966338      20.3854     40.27325         5     0.841     0.490  32.86   0
       247    173.4028    373.0342 300.1131290 +22.5459923     1946.169     72.25523      1.533     3.14     4.996926      20.3854     225.9446        23     1.128     1.097  69.90   0
       248    829.8461    365.8535 300.3199141 +22.7404916     415.8017     72.29202      2.154     3.99     4.615564      20.3854     33.47883         5     1.006     0.454  44.82   0
       249    973.1304    363.0668 300.3655233 +22.7825592     1294.267     72.31042      1.480     3.35     4.840469      20.3854     120.4773        18     1.120     0.993 -72.61   0
       250    559.3675    362.5233 300.2366809 +22.6585750     6882.476     72.25523      1.352     2.35     4.873801      20.3854     925.8923        39     1.185     1.094  65.59   0
       251    274.3256    362.0782 300.1480793 +22.5730816     647.0225     72.36557      1.415     3.27     5.113338      20.3854     81.92107        14     1.163     0.849  72.74   0
       252    131.9599    355.1825 300.1060334 +22.5284467     530.9644     72.27363      1.533     3.25     5.033147      20.3854     66.95403        11     1.030     0.728   0.85   0
       253    819.2005    354.2689 300.3203530 +22.7339737     305.5037     72.21841      1.245     4.34     4.689961      20.3854     36.75919         7     0.852     0.628 -20.71   0
       254    763.5286    351.5132 300.3038858 +22.7165212     1224.347     72.38394      1.464     2.69     4.699961      20.3854     157.0599        20     1.249     0.910  79.71   0
       255    673.1317    353.0655 300.2752005 +22.6899122     480.2291     72.31042      1.369     2.45     4.811403      20.3854     67.61797         9     0.792     0.701  49.86   0
       256    466.0221    348.7228 300.2120842 +22.6266581     6347.799     72.23682      1.400     2.66     4.999826      20.3854      844.844        33     1.192     1.076  61.48   0
       257    191.6772    350.2785 300.1261965 +22.5449311     992.1959     72.36557      0.724     1.02     5.108021      20.3854     387.6489         5     0.527     0.446  -9.88   0
       258    858.0027    343.4521 300.3359661 +22.7424724     1445.983     72.25523      1.416     2.55     4.712223      20.3854     197.9809        20     1.065     0.997 -67.45   0
       259    955.4362    343.5150 300.3663458 +22.7716401     550.2403     72.23682      1.488     3.93     4.856227      20.3854     72.43161        14     1.192     0.929  74.79   0
       260    450.6059    337.6048 300.2108911 +22.6188461     475.7794     72.10784      1.341     2.58       5.1074      20.3854     74.81143         8     0.894     0.621 -85.59   0
       261    533.4467    335.6676 300.2373202 +22.6430936     562.9466     72.23682      1.422     2.73     4.906497      20.3854       63.904         9     0.953     0.587   3.12   0
       262    811.7264    334.6267 300.3243956 +22.7260869     275.7967     72.25523      1.194     3.48     4.747202      20.3854     42.70757         6     0.735     0.636 -43.16   0
       263    830.7455    330.9342 300.3315257 +22.7307156     466.8456     72.31042      1.235     3.08     4.746933      20.3854     65.47759        11     0.923     0.851 -89.60   0
       264    353.5722    327.9722 300.1838073 +22.5870185     2513.606     72.21841      1.415     2.77     5.401297      20.3854     326.6277        24     1.140     1.011  56.83   0
       265     72.0041    324.7768 300.0972570 +22.5017477     1038.561     72.21841      1.705     4.32     5.005386      20.3854     96.23785        19     1.458     1.003  63.83   0
       266    701.3589    323.1781 300.2936969 +22.6897656     317.9242     72.29202      1.248     3.43     4.836862      20.3854     41.20052         5     0.752     0.451  74.32   0
       267    322.8963    317.2983 300.1777227 +22.5747635     30015.81     72.43903      1.442     2.74     5.393984      20.3854     3675.795        67     1.356     1.204  54.80   0
       268    857.6985    315.1663 300.3450490 +22.7342437     1308.903     72.23682      1.300     2.59     4.755231      20.3854     164.8826        17     1.006     0.901  65.57   0
       269    813.0701    312.6971 300.3319299 +22.7201805     414.8563     72.38394      1.446     3.44     4.807631      20.3854     47.09827         6     0.993     0.520 -51.13   0
       270     19.2623    305.0330 300.0872677 +22.4802721     5058.312     72.25523      1.725     3.19     4.776405      20.3854     515.4303        39     1.409     1.286  43.65   0
       271    772.4967    304.0659 300.3220771 +22.7055571     611.6212     72.36557      1.465     2.85     4.848669      20.3854      89.8173         8     0.940     0.583  17.34   0
       272    421.4366    302.7239 300.2131251 +22.6000854      453.587     72.21841      1.330     2.74     5.297305      20.3854      67.0639        10     0.834     0.821  18.77   0
       273    197.4644    303.7256 300.1430997 +22.5332912     509.1449     72.29202      1.266     3.10      5.26192      20.3854     52.28162         5     0.967     0.324 -19.65   0
       274    733.4014    297.2431 300.3121005 +22.6918955     1855.601     72.23682      1.326     2.42     4.873911      20.3854     238.9162        21     1.138     0.931  69.80   0
       275    541.3831    291.8617 300.2540044 +22.6328752     334.2051     72.21841      1.418     3.08      4.94213      20.3854     47.35678         8     0.968     0.559  19.70   0
       276    948.5219    290.2162 300.3814812 +22.7542344     655.8649     72.25523      1.484     3.67     4.854097      20.3854     58.53163        12     1.052     0.823  14.39   0
       277    395.0724    281.7438 300.2117229 +22.5861602     2023.858     72.27363      1.512     3.52     5.342956      20.3854     220.6048        25     1.383     0.943  61.17   0
       278    607.4371    281.0083 300.2781051 +22.6495270     298.4842     72.25523      0.987     2.59      4.89376      20.3854     51.93311         6     0.884     0.472 -13.47   0
       279    834.0175    274.6917 300.3507930 +22.7155137     628.6627     72.18157      1.409     3.59     4.850964      20.3854     72.28953        12     1.046     0.833 -86.66   0
       280    826.8072    275.3064 300.3483447 +22.7135334     339.3431     72.14471      1.742     3.85     4.860873      20.3854     49.38781         5     0.903     0.472 -47.75   0
       281    733.5385    272.7477 300.3200897 +22.6848905     270.9355     72.31042      1.167     2.96     4.900605      20.3854      36.3343         5     0.717     0.463  70.26   0
       282    716.6984    272.3994 300.3149525 +22.6797511     315.0049     72.12628      1.080     2.48     4.915437      20.3854     56.71698         5     0.700     0.455 -19.91   0
       283    685.2019    271.4769 300.3054332 +22.6700602     282.6516     72.16315      1.287     3.27     4.943471      20.3854     44.61913         5     0.852     0.538 -52.65   0
       284    471.0690    261.0063 300.2421126 +22.6029536      1123.02     72.21841      1.326     2.97     4.965818      20.3854     142.3573        16     0.996     0.919 -66.50   0
       285    982.3082    257.6420 300.4025926 +22.7549648     387.4682     72.25523      1.500     3.30     4.858227      20.3854     45.10509         6     0.722     0.651  49.89   0
       286    715.8953    253.0994 300.3209625 +22.6739591     2337.022     72.43903      1.387     2.56     4.922102      20.3854     284.5434        23     1.088     1.020  21.83   0
       287    977.1932    247.6531 300.4042362 +22.7505600     3066.143     72.25523      1.487     2.72     4.817988      20.3854     398.6563        28     1.194     1.111 -79.87   0
       288    424.0782    237.0323 300.2352557 +22.5819925     643.5587     72.23682      1.341     2.54     5.026779      20.3854     96.52558        10     0.886     0.682  11.93   0
       289     99.1048    231.0571 300.1360813 +22.4829473     1402.538      72.3288      1.704     3.75     5.564403      20.3854     139.6452        19     1.267     0.977 -24.62   0
       290    129.8752    231.2071 300.1456004 +22.4922086     608.8397     72.18157      1.599     2.86     5.374357      20.3854     78.95898        10     1.008     0.627 -15.96   0
       291    993.1368    228.3176 300.4154839 +22.7497626     514.6058     72.36557      1.361     3.55     4.741338      20.3854     58.96256        11     0.984     0.811 -20.96   0
       292    836.7932    225.0826 300.3677499 +22.7020699     354.9825     72.18157      1.480     3.08     4.899281      20.3854     53.80551         6     0.905     0.567  31.85   0
       293    183.2891    223.3450 300.1647616 +22.5059499     380.6544     72.29202      1.256     3.47     5.338229      20.3854     58.19045         5     0.781     0.444  15.25   0
       294    978.1334    221.0604 300.4131548 +22.7431869     280.2885     72.29202      1.304     3.12     4.741188      20.3854      50.2845         5     0.812     0.466  26.45   0
       295     38.8721    220.2225 300.1208697 +22.4617890     403.9618     72.29202      1.650     3.54     5.623804      20.3854      39.1064         5     0.888     0.639 -20.03   0
       296    787.6096    214.9646 300.3556917 +22.6844450     608.2117     72.25523      1.253     2.09     4.902207      20.3854     94.56111         9     0.827     0.628 -22.35   0
       297    377.9405    214.2376 300.2282841 +22.5616255     403.3624     72.27363      1.258     3.42     5.111406      20.3854     56.21134         9     0.992     0.666 -15.81   0
       298    885.6846    203.5698 300.3899786 +22.7105035     2058.152     72.25523      1.481     2.59     4.859085      20.3854     274.2242        23     1.202     1.025  79.64   0
       299    382.2947    195.8522 300.2356015 +22.5576439     970.6511      72.3288      1.443     2.95     5.112398      20.3854     116.5457        17     1.117     0.974  60.36   0
       300    783.9319    195.6323 300.3608141 +22.6777822     531.9709     72.25523      1.255     2.63     4.891393      20.3854     77.82675         8     0.858     0.581   8.48   0
       301    134.3589    196.0544 300.1583937 +22.4834518     378.5685     72.21841      1.600     5.03     5.524139      20.3854     40.43724         8     1.205     0.594 -45.96   0
       302    540.7931    195.0611 300.2852166 +22.6048632     295.1183     72.23682      1.468     4.52     4.964259      20.3854     42.93931         5     0.825     0.705 -82.80   0
       303    304.2714    200.7121 300.2097406 +22.5356788     2142.817     72.42068      1.429     2.74     5.285122      20.3854     265.4528        23     1.153     1.083  77.46   0
       304    317.1830    187.7225 300.2179708 +22.5358113     298.7802     72.25523      1.496     3.67      5.25867      20.3854     33.42312         6     0.743     0.637  59.08   0
       305    198.7935    188.0051 300.1810437 +22.5004386     577.5875     72.10784      1.396     3.57     5.556092      20.3854     86.12794        12     1.056     0.819   4.69   0
       306    736.8013    185.0485 300.3495500 +22.6606370     1720.707     72.23682      1.343     2.68     4.849961      20.3854     217.1595        21     1.084     0.967  40.80   0
       307    801.6699    184.3066 300.3700185 +22.6798296     720.9022     72.38394      1.843     5.31      4.89817      20.3854     68.14988        12     1.362     0.811  60.05   0
       308    168.8261    184.2131 300.1729523 +22.4903734      310.985     72.25523      1.590     4.49     5.527192      20.3854     27.42388         6     0.913     0.627  68.55   0
       309    220.0988    181.2568 300.1898592 +22.5048801     556.7599     72.34719      1.340     3.61      5.60546      20.3854     65.59366        10     1.041     0.743  11.25   0
       310   1008.3544    177.5226 300.4367068 +22.7396908     857.8032     72.23682      1.682     2.98     4.712214      20.3854     120.0365        20     1.285     0.995  86.92   0
       311    740.8168    176.5799 300.3535480 +22.6594018     882.8373     72.23682      1.449     2.55     4.842241      20.3854     113.5557        14     0.908     0.897  -7.02   0
       312    661.2648    175.7811 300.3290076 +22.6353703     1348.237     72.21841      1.367     2.19     4.854152      20.3854      187.492        18     1.079     0.995  72.57   0
       313    510.4376    177.1509 300.2815683 +22.5906270     342.6638     72.27363      1.488     3.96      4.97222      20.3854      35.8638         7     0.854     0.632  15.82   0
       314    482.5445    171.6429 300.2746666 +22.5806941     348.0181     72.25523      1.353     5.14     4.974378      20.3854     42.93586         7     0.993     0.753  48.83   0
       315    857.0681    167.3037 300.3928112 +22.6915070     1400.666     72.38394      1.384     2.64     4.893633      20.3854     200.1852        21     1.129     1.041  52.01   0
       316    587.5128    167.4684 300.3087192 +22.6109097     965.9083     72.38394      1.309     2.59     4.892553      20.3854     136.9009        17     1.145     0.886  72.36   0
       317    869.0596    166.4520 300.3968282 +22.6948484     842.0571     72.31042      1.520     2.94     4.887579      20.3854     108.7926        16     1.026     1.002 -39.67   0
       318    985.6738    156.9218 300.4363072 +22.7269784     1026.105     72.36557      1.500     3.02     4.736003      20.3854     134.9934        18     1.113     0.975 -29.40   0
       319      9.1356    153.3104 300.1333219 +22.4336584     543.5141     72.36557      1.781     4.62     5.720273      20.3854     51.47013         9     1.125     0.617  -5.50   0
       320    219.6185    149.7631 300.1999205 +22.4956850     660.1208     72.25523      1.420     2.89      5.53349      20.3854     86.94869        10     0.922     0.711  -0.52   0
       321     81.5289    144.1992 300.1587791 +22.4527275     2193.391     72.16315      1.619     3.18     5.715848      20.3854     236.6241        26     1.236     1.127  58.23   0
       322    904.4760    141.8368 300.4158587 +22.6983554     855.9434     72.21841      1.501     2.40     4.836806      20.3854     112.6215        10     0.959     0.617 -13.98   0
       323     31.3556    140.9946 300.1442208 +22.4367770     381.3723     72.25523      1.298     2.32     5.719617      20.3854     51.46977         7     0.710     0.638 -79.83   0
       324    238.8559    137.5754 300.2098563 +22.4979428     5739.678     72.25523      1.556     2.82     5.352371      20.3854     668.1369        39     1.361     1.180  51.79   0
       325    220.8256    138.7379 300.2038702 +22.4928777     269.8307     72.25523      1.314     3.40      5.42914      20.3854     36.50148         5     0.967     0.346 -41.45   0
       326     23.0272    131.9580 300.1445614 +22.4316858     1360.458     72.27363      1.889     3.64     5.720697      20.3854     161.4248        21     1.261     1.170 -17.23   0
       327    222.4107    128.3026 300.2077461 +22.4903530     619.7803     72.14471      1.352     2.89     5.321782      20.3854     85.63254        11     0.960     0.798  87.16   0
       328    986.8145    118.2465 300.4492021 +22.7161848     2844.376     72.27363      1.552     2.68     4.734872      20.3854     362.2824        30     1.292     1.181  83.42   0
       329    883.0970    119.2860 300.4164994 +22.6854708     3566.167     72.43903      1.509     3.03     4.867321      20.3854     464.2263        31     1.260     1.180  73.16   0
       330    432.5732    114.4135 300.2776585 +22.5492795     575.4252     72.25523      1.244     2.47     5.050835      20.3854     78.96603         8     0.765     0.710 -18.82   0
       331    185.4591    115.2111 300.2004953 +22.4755248     246.2538     72.19999      1.388     3.00     5.469423      20.3854     47.98151         8     0.982     0.557 -19.47   0
       332    356.3993    106.1587 300.2566192 +22.5241041     621.8868     72.27363      1.563     3.48     4.955071      20.3854     75.72896         8     1.043     0.576  44.89   0
       333    360.8803    104.7035 300.2584857 +22.5250271     583.9134     72.38394      2.047     4.24     4.959284      20.3854     51.80148         8     1.078     0.639   3.77   0
       334    122.7336    103.3836 300.1848213 +22.4533406     597.7133     72.23682      1.538     3.28     5.674301      20.3854     87.04366        10     1.076     0.754   7.72   0
       335    483.8272    101.6415 300.2977596 +22.5609467      1690.63     72.27363      1.388     2.64     5.044019      20.3854      241.693        19     1.116     0.892  68.11   0
       336    411.7896    102.1229 300.2751711 +22.5395241     440.6233     72.23682      1.241     2.55     5.041713      20.3854      62.9511         7     0.727     0.648  83.58   0
       337     20.7981    102.3450 300.1534672 +22.4225101     327.4297     72.18157      1.287     2.65     5.722501      20.3854     48.23392         5     0.740     0.432 -19.33   0
       338    545.5277    100.9918 300.3171893 +22.5792243     359.5414     72.23682      1.191     2.90     5.044394      20.3854     65.93228         8     0.835     0.751 -77.63   0
       339    227.4996     97.2559 300.2193928 +22.4829529      433.933     72.34719      1.362     2.80     4.998478      20.3854       55.568         7     0.807     0.637  25.07   0
       340    772.2474     91.3399 300.3909830 +22.6442752     334.0234     72.31042      1.589     4.86     4.947357      20.3854     43.06591         7     1.068     0.627  29.06   0
       341    918.0305     86.4517 300.4380425 +22.6864649     313.5546     72.29202      1.361     3.67     4.777567      20.3854     46.20973         6     0.956     0.495  -3.66   0
       342    663.0472     86.5173 300.3585014 +22.6102223     207.5846     72.27363      1.044     2.98     5.084815      20.3854     35.64753         6     0.781     0.499  -2.31   0
       343    257.8584     81.4350 300.2339658 +22.4874948     6107.868     72.25523      1.527     3.01     4.955131      20.3854     721.8524        36     1.282     1.177  72.68   0
       344    764.1676     82.4323 300.3913507 +22.6392949     399.2296     72.31042      1.509     2.64     5.016183      20.3854     47.09909         6     0.694     0.633 -73.05   0
       345    109.2432     81.0362 300.1878694 +22.4428781     664.1123     72.31042      1.536     4.03     5.671935      20.3854     78.33088        13     1.084     0.960 -53.29   0
       346    887.1815     79.3666 300.4307137 +22.6752010     296.2961     72.23682      1.069     2.24     4.785193      20.3854     42.89625         5     0.703     0.450  18.62   0
       347    229.4678     75.9087 300.2269239 +22.4774058     435.6389     72.38394      1.338     3.51     4.995682      20.3854      45.9377         6     0.904     0.518 -19.25   0
       348    273.8365     72.7002 300.2417684 +22.4897674     470.9266     72.23682      1.704     3.23     4.932758      20.3854     46.20742         6     0.738     0.638 -47.84   0
       349     19.5824     71.9974 300.1629249 +22.4134263     488.0826     72.16315      1.575     2.32     5.312151      20.3854     62.26109         8     0.830     0.610   0.59   0
       350    503.9725     66.9129 300.3152902 +22.5569865     6419.809     72.25523      1.429     2.86      5.14835      20.3854     794.3294        37     1.238     1.127  75.03   0
       351    389.3743     66.6466 300.2796907 +22.5226130     748.0311     72.27363      1.465     2.86     4.865397      20.3854     92.88935        14     0.966     0.878   7.10   0
       352    560.7457     62.1274 300.3345269 +22.5725980     328.7814     72.25523      1.204     3.41     5.369739      20.3854     65.72762         8     1.097     0.550  16.13   0
       353    524.6211     61.1671 300.3235842 +22.5615126     192.7678     72.25523      1.188     4.63     5.277716      20.3854     32.69027         6     1.019     0.598  20.60   0
       354    697.7456     58.1044 300.3785262 +22.6124262     335.8579      72.3288      1.253     3.53     5.222811      20.3854     37.98238         7     0.740     0.676 -85.11   0
       355    756.4918     56.8095 300.3972617 +22.6296248     712.0207     72.19999      1.506     3.44     5.201867      20.3854      88.1247        12     1.088     0.832 -66.67   0
       356    848.9930     55.7082 300.4264680 +22.6569711     458.3754     72.16315      1.224     2.43     4.825382      20.3854     85.36887         9     0.912     0.624 -50.92   0
       357    156.6575     52.6953 300.2117986 +22.4489317     285.2479      72.3288      1.223     3.97     5.626897      20.3854     33.30706         6     0.888     0.508 -45.00   0
       358    196.8599     50.7536 300.2249322 +22.4604113     538.9283     72.29202      1.581     4.13     5.274332      20.3854     53.31472        12     1.124     0.781 -66.62   0
       359    632.4020     47.0480 300.3617422 +22.5896978     6211.603     72.23682      1.423     2.63     5.432118      20.3854      706.836        34     1.212     1.096  86.04   0
       360    407.4158     45.9394 300.2920183 +22.5220579     1379.765     72.21841      1.414     2.63     4.786904      20.3854     169.1894        17     1.058     0.920  77.35   0
       361    673.5576     44.4349 300.3754163 +22.6012573     809.2077     72.31042      1.351     2.85     5.316865      20.3854     115.2851        16     1.045     0.985  73.14   0
       362    743.1553     42.1140 300.3978658 +22.6214066     321.2359     72.23682      1.420     2.10     5.312685      20.3854     48.29742         5     0.900     0.703 -80.77   0
       363    689.3315     40.4609 300.3816212 +22.6048321     597.5524     72.31042      1.360     2.57     5.336391      20.3854     74.18066        12     0.924     0.809  72.65   0
       364    156.0872     38.7254 300.2161481 +22.4447454     696.1027     72.38394      1.550     3.57     5.625965      20.3854      83.8186        12     1.139     0.828 -89.90   0
       365    959.1666     38.0545 300.4665654 +22.6848292      477.928     72.27363      1.291     3.92     4.977477      20.3854       55.026         9     1.043     0.712  24.04   0
       366    728.0679     36.0618 300.3951230 +22.6151523     507.5925     72.31042      1.352     3.22     5.357193      20.3854     61.39429        12     0.935     0.871  86.56   0
       367    676.6209     31.9360 300.3804216 +22.5985768     2803.078     72.21841      1.396     2.56     5.383895      20.3854     352.4414        24     1.189     0.968  78.19   0
       368    317.4597     32.6950 300.2683080 +22.4913241     468.6677      72.3288      1.548     2.79     4.830358      20.3854     57.86678         9     0.882     0.742  65.86   0
       369    691.8701     30.9731 300.3854871 +22.6028610     864.2463     72.25523      1.810     6.04     5.390351      20.3854     82.34167        17     1.535     0.780  48.82   0
       370    763.0989     23.5056 300.4101147 +22.6220153     1600.602     72.43903      1.508     2.93     5.444691      20.3854     216.6617        23     1.227     1.080  81.67   0
       371    923.1165     22.0251 300.4605098 +22.6694362     305.3988     72.21841      1.348     3.94     4.552517      20.3854     34.19404         6     0.957     0.465  52.44   0
       372    701.1038     16.7946 300.3929600 +22.6015424      752.683     72.16315      1.367     2.32     5.478984      20.3854     125.7593        12     0.862     0.830 -32.93   0
       373    259.3280   1010.6846 299.9326668 +22.7547950      1053.44     72.36557      3.121     5.29     43.90148      20.3854     50.11403        14     1.333     1.087  -5.89   3
       374    256.7719   1015.9805 299.9301485 +22.7555474     1226.014     72.25523      2.746    11.61     48.70552      20.3854      46.2276        21     3.859     0.972  20.21  18
       375    138.9855     14.9656 300.2185282 +22.4327951     785.6876     72.23682      0.447   -17.16     5.618024      20.3854     612.1344         5     0.365     0.311 -89.21   0
       376    258.1326   1013.0000 299.9315416 +22.7551006     1104.996     72.19999      2.742     9.98     46.04079      20.3854     54.53009        18     3.154     0.880  17.68  19
       377    792.7032     12.9312 300.4227732 +22.6278246     439.4811     72.38394      1.475     2.30     5.528921      20.3854     67.93047         7     0.781     0.597 -66.10   0
       378    305.5175   1012.8501 299.9463327 +22.7692718     1673.549     72.27363      4.606     6.55     6.500568      20.3854     95.12825        35     1.947     1.350 -55.15  16
