#   1 NUMBER                 Running object number                                     
#   2 X_IMAGE                Object position along x                                    [pixel]
#   3 Y_IMAGE                Object position along y                                    [pixel]
#   4 ALPHA_J2000            Right ascension of barycenter (J2000)                      [deg]
#   5 DELTA_J2000            Declination of barycenter (J2000)                          [deg]
#   6 FLUX_APER              Flux vector within fixed circular aperture(s)              [count]
#   7 FLUXERR_APER           RMS error vector for aperture flux(es)                     [count]
#   8 FLUX_RADIUS            Fraction-of-light radii                                    [pixel]
#   9 FWHM_IMAGE             FWHM assuming a gaussian core                              [pixel]
#  10 BACKGROUND             Background at centroid position                            [count]
#  11 THRESHOLD              Detection threshold above background                       [count]
#  12 FLUX_MAX               Peak flux above background                                 [count]
#  13 ISOAREA_IMAGE          Isophotal area above Analysis threshold                    [pixel**2]
#  14 A_IMAGE                Profile RMS along major axis                               [pixel]
#  15 B_IMAGE                Profile RMS along minor axis                               [pixel]
#  16 THETA_IMAGE            Position angle (CCW/x)                                     [deg]
#  17 FLAGS                  Extraction flags                                          
         1    251.4287     10.4487 300.2965675 +22.4554324     271.8058     72.44229      1.189     2.66     5.023691     20.43297     53.43331         8     0.932     0.563 -43.74   0
         2    680.4976      9.5232 300.4303945 +22.5836689     503.1891     72.57127      1.269     3.49     4.586514     20.43297      44.7301         6     0.894     0.440 -17.71   0
         3    117.5381      5.1173 300.2566796 +22.4137802     1205.733     72.05396      1.323     2.29     5.135278     20.43297     186.5446        16     1.076     0.835  49.15  16
         4     41.2618    993.4428 299.9119652 +22.6743421     3967.766     72.42385     12.254    34.39     11.00484     20.43297     76.78464       380    10.465     3.136 -21.11  27
         5    701.5081   1023.5078 300.1075233 +22.8811493     220.2103     57.44535      0.977     3.94     3.193409     20.43297       46.536         5     1.163     0.382  36.77  24
         6    418.1193   1023.4491 300.0193319 +22.7960956     647.0388     57.65429      1.154     3.03     3.101597     20.43297     94.06841        10     1.022     0.615  12.41  24
         7    348.7670   1022.2032 299.9981670 +22.7749205     6291.539     64.02272      1.496     3.19     3.431978     20.43297     670.8082        33     1.217     1.147  15.89  24
         8    188.3873   1022.8372 299.9481033 +22.7269489     516.7959     60.85595      3.150     4.41     11.69696     20.43297     25.70291         5     1.147     0.482  86.07  24
         9    110.3074   1020.9483 299.9244583 +22.7029591     1167.533     69.19751      5.262     7.36     15.63847     20.43297     33.66394         9     2.217     0.684  53.88  19
        10     40.5551   1019.5704 299.9032414 +22.6816137     5256.899     72.46073     23.521    68.20     13.89195     20.43297     202.6257      1123    25.813     5.000  -6.82  27
        11    393.4139    996.9228 300.0202821 +22.7810760     201.2828     72.44229      1.235     4.07     3.287338     20.43297     43.19623         6     0.916     0.677  67.62   0
        12    577.5955    995.3232 300.0781145 +22.8358902     315.6199     72.33155      1.227     3.40     2.950842     20.43297     34.78541         5     1.019     0.329  67.80   0
        13    684.0031    989.8153 300.1130395 +22.8662336     906.4912     72.25763      1.924     4.56     3.131424     20.43297     89.47289        17     1.468     0.834  62.79   0
        14   1010.4732    988.8170 300.2151141 +22.9638470     637.2656     72.42385      1.728     5.07     3.056891     20.43297     53.03078        11     1.222     0.775   8.11   0
        15    718.6380    983.9570 300.1257341 +22.8749423       998.27     72.51602      1.375     3.26      3.60448     20.43297     116.4677        16     1.086     0.915 -75.40   0
        16    496.2443    984.9338 300.0561765 +22.8085003     463.9983      72.4054      1.481     4.20     2.993796     20.43297      41.5892         9     0.972     0.682 -64.12   0
        17    895.1534   1000.8492 300.1752393 +22.9327262     2227.361     72.44229      1.575     3.32     3.348928     20.43297     193.1521        26     1.221     1.154 -38.65   0
        18    665.6311    984.0854 300.1091831 +22.8590789     245.3428     72.42385      1.216     4.15     3.041336     20.43297     40.69963         5     1.145     0.562  42.64   0
        19     77.7827    980.8048 299.9274213 +22.6816907     905.2502     72.38695      4.493     4.49     10.90947     20.43297      27.9766         5     0.783     0.731 -44.99   0
        20    740.9557    977.6168 300.1347500 +22.8798174     11201.67     72.44229      1.394     2.70     3.820102     20.43297     1225.653        38     1.152     1.120 -89.27   0
        21    931.8410    977.2936 300.1943449 +22.9369660     658.4603     72.44229      1.873     4.05     3.139999     20.43297     65.16343        12     1.088     0.875 -51.39   0
        22    786.7992    977.7436 300.1489914 +22.8936030     518.2736     72.35002      1.284     3.98     3.775726     20.43297     59.20125        11     1.037     0.831  73.45   0
        23    873.6668    970.7688 300.1783334 +22.9176510     151.5778     72.42385      1.070     2.32     3.567096     20.43297     45.57398         5     0.709     0.448  74.43   0
        24     52.0689    969.4193 299.9231402 +22.6707063     783.4877     72.42385      1.936     4.40     8.807895     20.43297     76.49691        13     1.287     0.956 -56.61   0
        25    448.1577    967.2214 300.0469793 +22.7889911     1106.451     72.46073      1.311     5.39     3.178413     20.43297     680.1256        11     1.747     0.469  41.94   0
        26    792.4110    964.8485 300.1549373 +22.8915861      381.526     72.44229      1.512     4.87     3.724918     20.43297       41.179        11     1.185     0.721  63.79   0
        27     42.2892    960.7061 299.9229385 +22.6652730     457.7318     72.58968      1.570     6.08     7.617639     20.43297     51.78973        11     1.371     0.796  46.54   0
        28    749.2390    959.6983 300.1431627 +22.8771608     1352.112     72.42385      1.403     2.83     3.798493     20.43297     154.5282        20     1.162     1.010   0.27   0
        29    932.7741    958.7131 300.2006838 +22.9319128     392.6052     72.36848      1.381     4.41      3.26466     20.43297     39.83039         7     0.861     0.643 -26.58   0
        30    601.4202    957.0434 300.0979913 +22.8320595     549.6462     72.46073      1.521     4.08     3.198574     20.43297      64.7234        11     1.163     0.648  14.90   0
        31    787.5419    953.3423 300.1571651 +22.8868243     861.7432      72.4976      1.573     3.07     3.692762     20.43297     103.2072        12     0.941     0.876  19.07   0
        32    544.9053    998.0957 300.0670364 +22.8268764     407.2106     72.58968      1.356     4.48     2.945099     20.43297     52.99433         8     0.866     0.658  35.83   0
        33    896.1207    950.3152 300.1919902 +22.9185134     314.4731     72.57127      1.357     5.09     3.465369     20.43297     36.02037         9     1.040     0.703 -80.85   0
        34    836.2193    944.5906 300.1751824 +22.8989099     480.6585      72.4054      1.264     2.77     3.604886     20.43297     66.19155        10     0.884     0.725  36.76   0
        35    687.2933    943.5192 300.1291330 +22.8539397     650.0804     72.57127      1.269     2.83     3.505413     20.43297     91.87589        13     1.002     0.797  31.20   0
        36    698.6954    940.3118 300.1337281 +22.8564395     621.3826     72.60809      1.281     2.68      3.60399     20.43297     76.26402        11     0.868     0.799 -25.58   0
        37    399.9344    939.8663 300.0408803 +22.7666758         4133     72.47917      1.371     2.73     3.413548     20.43297     485.5733        27     1.098     1.045  72.28   0
        38    178.6630    928.9063 299.9756524 +22.6971134     489.3922     72.51602      1.604     2.93     4.790849     20.43297     53.17778         7     0.845     0.564 -56.74   0
        39     61.7523    928.1289 299.9395843 +22.6617854     185.2346      72.4054      1.271     3.57     4.954854     20.43297     50.27012         6     0.918     0.576  58.81   0
        40    443.2363    927.8414 300.0582641 +22.7762229     285.0385      72.4976      1.252     2.23     3.329029     20.43297     52.89356         6     0.715     0.545 -47.29   0
        41    125.2422    925.6461 299.9601145 +22.6801393      670.528      72.4976      1.412     3.21     5.667521     20.43297     83.45712        12     1.033     0.861  30.99   0
        42    102.3023    922.8578 299.9538951 +22.6724521     1544.066     72.51602      1.535     2.69     6.025048     20.43297     197.0185        22     1.143     1.086 -49.38   0
        43     33.8371    923.8820 299.9322964 +22.6521853     457.3233     72.38695      1.545     5.23     3.889185     20.43297     49.55035         8     1.073     0.720 -33.93   0
        44    973.9988    911.3809 300.2289430 +22.9306840     2109.268     72.35002      1.446     3.02     3.479786     20.43297     214.7958        21     1.080     1.045  86.51   0
        45    633.5425    910.3626 300.1231843 +22.8283053     332.5244     72.42385      1.349     5.55     3.538228     20.43297     44.74615        10     1.391     0.624 -53.32   0
        46    928.3152    909.8986 300.2151807 +22.9165643     2179.278     72.58968      1.411     2.88     3.499949     20.43297     213.1089        21     1.143     0.956  86.81   0
        47    404.8917    909.5783 300.0522783 +22.7594794      224.781     72.35002      1.235     2.67      3.43432     20.43297     48.19204         7     0.830     0.728  65.03   0
        48    134.5045    904.3444 299.9699233 +22.6768163     480.3651     72.47917      1.501     3.28     5.025822     20.43297     70.21815         9     1.100     0.651  48.77   0
        49    711.8519    903.9789 300.1496497 +22.8499612     617.7385     72.42385      1.263     2.81     3.784188     20.43297      93.1949        10     0.883     0.757   9.97   0
        50    579.9440    897.9919 300.1105222 +22.8086788     4632.285      72.4054      1.265     2.20     3.410774     20.43297     748.3923        24     0.979     0.968  67.50   0
        51     69.5780    899.0760 299.9514679 +22.6558113     352.2797      72.4054      1.380     3.58     4.701628     20.43297     42.70911         8     0.882     0.653 -43.40   0
        52    947.0029    897.9047 300.2249104 +22.9187232     157.1905     72.33155      1.217     3.71     3.503103     20.43297      39.8569         5     0.692     0.572  89.90   0
        53    382.0844    895.0577 300.0499088 +22.7484716     624.9028     72.53445      1.214     2.83      3.47588     20.43297     84.78105         9     0.802     0.726  53.65   0
        54    130.2078    891.9964 299.9726058 +22.6719877     1312.758     72.23914      1.447     2.78     4.823159     20.43297     166.8026        20     1.058     0.997  62.97   0
        55    600.5827    890.5309 300.1193751 +22.8127296     737.0084     72.44229      1.171     2.29     3.494751     20.43297     115.4798        12     0.851     0.780  43.34   0
        56    398.5648    889.9124 300.0567091 +22.7519419     437.5851      72.4054      1.477     3.46     3.445162     20.43297     48.50463         6     0.902     0.682 -12.61   0
        57    149.3821    889.0566 299.9795197 +22.6769021     401.1573      72.4054      1.316     3.69     4.624285     20.43297     78.32843         8     1.098     0.601  79.42   0
        58    535.5793    881.0552 300.1022232 +22.7905118      1684.94      72.4054      0.594     0.60     3.360369     20.43297     927.3253         5     0.545     0.227  -2.89   0
        59    517.0203    881.0132 300.0964607 +22.7849320     253.8274     72.38694      1.106     2.11     3.360369     20.43297     54.58777         5     0.625     0.546 -89.83   0
        60    972.9033    877.6882 300.2395651 +22.9206826     1136.476     72.60809      1.405     2.89      3.49437     20.43297     122.4565        14     1.000     0.847 -89.39   0
        61    755.9077    877.6398 300.1719442 +22.8556148     4135.613     72.42385      1.273     2.30      3.85038     20.43297     575.6953        24     1.016     0.945  82.89   0
        62   1009.8622    877.6744 300.2510960 +22.9317558     451.2386     72.46073      1.636     4.21     3.453781     20.43297     43.34642         8     0.989     0.832 -30.19   0
        63    487.3272    874.6831 300.0892797 +22.7742080     222.6079     72.55286      1.071     2.82     3.379969     20.43297     50.02776         6     0.732     0.633  39.22   0
        64    164.5301    872.1034 299.9897420 +22.6765912     507.8751     72.55286      1.541     3.79     4.342721     20.43297     59.12652         7     0.954     0.485  81.75   0
        65    472.8899    870.2240 300.0862380 +22.7685976     543.7885     72.35002      1.190     2.38     3.398345     20.43297     111.8524         9     0.891     0.577  24.10   0
        66    119.4754    868.5099 299.9769122 +22.6620348     933.1678     72.57127      1.409     2.70     4.320244     20.43297     123.4223        13     0.927     0.844 -78.43   0
        67    269.0077    860.4341 300.0260110 +22.7046082     53105.39     72.42385      1.353     2.49     4.205288     20.43297     6523.229        86     1.251     1.209 -79.65   0
        68    534.6854    863.3907 300.1076921 +22.7851768     579.2592     72.35002      1.361     2.50     3.422213     20.43297     79.97608        10     0.895     0.698  46.42   0
        69    580.4456    861.2553 300.1226310 +22.7982910     207.0334     72.46073      1.364     4.47     3.539558     20.43297     30.95444         5     0.796     0.714 -22.67   0
        70    526.9009    859.4535 300.1065502 +22.7817122     1495.174     72.51602      1.157     2.23     3.437942     20.43297     251.8618        15     0.880     0.855 -57.44   0
        71    939.7969    858.5112 300.2354814 +22.9052539      898.218     72.33155      1.284     2.59     3.586383     20.43297      108.175        12     0.876     0.808  59.05   0
        72    197.4371    858.4266 300.0044175 +22.6825498     476.3668     72.44229      1.318     2.62     4.253953     20.43297     66.12778         9     0.859     0.709  13.73   0
        73    555.8495    855.3627 300.1168914 +22.7892227     901.4642     72.42385      1.238     2.54     3.503554     20.43297     122.8174        11     0.977     0.647  51.79   0
        74    566.6810    853.4319 300.1208912 +22.7919179     636.0689     72.42385      1.314     2.89     3.552404     20.43297     105.8966        11     0.988     0.778  83.70   0
        75   1007.5934    852.8788 300.2584560 +22.9239561     358.8192     72.35002      1.898     5.51     3.580277     20.43297     27.58242         6     1.250     0.685 -48.99   0
        76    886.9150    850.6589 300.2215494 +22.8871483     383.9699     72.53445      1.353     2.73      3.68836     20.43297     58.33999         7     0.863     0.604  55.66   0
        77    672.0144    849.8867 300.1548415 +22.8224932     422.7341     72.36848      1.224     2.88     3.939228     20.43297     77.33657        10     0.888     0.798 -45.62   0
        78    466.5656    847.6968 300.0915988 +22.7602393     316.0861     72.42385      1.241     2.91     3.428531     20.43297     57.60305         7     0.812     0.634   9.27   0
        79    709.7244    840.1905 300.1697411 +22.8310193     648.1483      72.4054      1.096     2.00     3.980924     20.43297     140.6423        11     0.902     0.703  82.39   0
        80    318.6779    837.6469 300.0488671 +22.7129822     31248.06     72.42385      1.281     2.24     4.007911     20.43297     4524.947        68     1.196     1.139  89.29   0
        81    332.9530    838.1734 300.0531348 +22.7174171     1949.491     72.46073      1.275     2.36     3.922585     20.43297     283.5352        19     0.992     0.884  55.54   0
        82    841.7651    833.2848 300.2131286 +22.8686262     2793.916     72.38695      1.224     2.27      3.87002     20.43297     399.5247        21     1.009     0.926 -45.41   0
        83    871.3141    831.9118 300.2227853 +22.8770900     416.8433     72.57127      1.473     2.51     3.793744     20.43297     55.95232         7     0.816     0.600 -15.27   0
        84    329.8764    831.9335 300.0542078 +22.7147047     700.2582     72.51602      1.356     2.99     3.980988     20.43297     86.57582        11     0.889     0.844  71.17   0
        85    435.8990    829.8682 300.0878570 +22.7459253     360.9974     72.51602      1.240     4.18     3.445362     20.43297     55.49723         8     1.023     0.651 -53.67   0
        86    599.7075    829.3586 300.1390041 +22.7949176     980.8621     72.42385      1.162     2.24      3.85355     20.43297      133.805        13     0.967     0.750  40.44   0
        87    201.2677    829.3354 300.0150710 +22.6753608     781.9758     72.47917      1.417     3.12      4.19418     20.43297       85.263        14     1.011     0.917  87.97   0
        88    446.7745    824.3436 300.0930376 +22.7476037     850.9713     72.42385      1.205     2.34     3.450972     20.43297     127.8196        12     0.953     0.732 -89.13   0
        89      6.1584    824.9481 299.9558856 +22.6155276     554.5931     72.42385      1.670     3.89     4.060298     20.43297      52.8303        10     0.994     0.833 -33.59  16
        90    845.8718    824.2344 300.2173526 +22.8672593     1276.051     72.42385      0.556     0.73     3.898077     20.43297     767.0791         5     0.425     0.405 -73.77   0
        91    847.8745    820.9836 300.2190343 +22.8669264     581.0841     72.42385      1.260     2.48     3.905107     20.43297     69.68272         9     0.768     0.721 -53.27   0
        92    595.6334    820.8398 300.1405068 +22.7912516     316.3286     72.46073      1.561     3.45     3.897981     20.43297     28.95892         5     0.789     0.436  71.86   0
        93    348.7151    820.6592 300.0637335 +22.7171249     251.9975     72.53445      1.151     2.58     3.986526     20.43297     55.23976         6     0.814     0.495 -44.02   0
        94    305.0562    820.3943 300.0502433 +22.7039476     222.5267      72.4054      1.350     3.43     4.147018     20.43297     46.24088         7     0.955     0.671  47.61   0
        95    392.6258    819.0176 300.0779248 +22.7298299     382.6637     72.44229      1.042     2.01     3.656924     20.43297     74.84386         7     0.690     0.624  87.99   0
        96     34.5612    818.9444 299.9666586 +22.6223357     419.8882     72.42385      1.486     3.64     4.094701     20.43297     58.02574         8     0.978     0.605  48.01   0
        97    601.1310    818.2423 300.1430633 +22.7921552     329.2932      72.4054      1.261     3.93     3.945779     20.43297     39.50331         6     0.793     0.558  44.22   0
        98    825.7288    816.1382 300.2137086 +22.8588968     372.7471     72.46073      1.190     4.18     4.003707     20.43297     58.10821         8     0.985     0.620  59.91   0
        99    198.9183    813.8646 300.0193728 +22.6702208     529.8176     72.53445      1.223     2.70      4.15715     20.43297     76.68465         9     0.864     0.694  68.54   0
       100    530.1183    803.1573 300.1258642 +22.7665282     182.6205     72.38695      1.183     4.91     3.687399     20.43297     37.22009         6     1.029     0.664  77.35   0
       101    521.9886    804.1224 300.1230200 +22.7643665     579.5713     72.42385      1.485     2.52     3.648144     20.43297     73.43162         8     0.789     0.661  49.23   0
       102    491.6850    802.3456 300.1141671 +22.7547668     697.7591      72.4976      1.155     2.26     3.520995     20.43297     121.6521        11     0.949     0.772  83.03   0
       103    400.8454    801.4843 300.0861843 +22.7272677      317.789      72.4054      1.073     2.54     3.647856     20.43297     64.10162         6     0.827     0.589  81.42   0
       104    908.1332    798.5938 300.2451011 +22.8785607     4508.449     72.42385      1.281     2.36       3.9544     20.43297     636.8301        29     1.087     0.979 -85.93   0
       105    513.5717    799.7481 300.1218232 +22.7605869     1452.961     72.44229      1.153     2.16     3.632335     20.43297     248.3501        15     0.876     0.841 -20.97   0
       106    433.2429    799.2836 300.0969786 +22.7363564      494.559     72.38695      1.382     2.37     3.494778     20.43297     69.92268         8     0.788     0.637 -50.27   0
       107    595.0821    794.5043 300.1489011 +22.7835302     354.1244     72.57127      1.320     1.92     4.055709     20.43297     56.47826         6     0.708     0.495   8.08   0
       108    896.6496    789.9492 300.2443329 +22.8726368      1680.51     72.46073      1.236     2.17     3.960536     20.43297     244.1962        17     0.955     0.896  81.69   0
       109    259.6332    784.1112 300.0479216 +22.6799130     828.5479     72.38695      1.320     2.46     4.220071     20.43297     140.9101        14     1.014     0.818 -10.49   0
       110    125.1199    785.2064 300.0057609 +22.6398539     286.0266     72.35002      1.326     5.09       4.0075     20.43297     33.96111         8     1.146     0.639 -11.50   0
       111    275.7853    784.1694 300.0529241 +22.6847768      207.577     72.42385      1.126     4.81     4.222975     20.43297     48.10585         7     0.867     0.755  66.70   0
       112    722.7568    781.3459 300.1929414 +22.8180391     2571.861     72.44229      1.203     2.13     4.062289     20.43297      363.902        19     0.916     0.865  41.13   2
       113    927.8141    780.0259 300.2572765 +22.8791277     1734.602     72.44229      1.279     2.23     4.004311     20.43297      242.265        17     1.024     0.861  22.09   0
       114    941.2617    770.2542 300.2646476 +22.8803518     242.5015     72.47917      1.237     3.71     4.042125     20.43297     33.27799         5     0.926     0.428  44.85   0
       115    108.1634    768.1419 300.0060420 +22.6298725     507.4509     72.42385      1.229     2.22     4.015706     20.43297     115.3474        11     0.959     0.767  69.46   0
       116    805.3593    766.9911 300.2233460 +22.8386822     514.1481     72.42385      1.207     2.62     4.131425     20.43297     82.54402        10     0.953     0.644  31.62   0
       117    387.5926    767.7795 300.0930234 +22.7136248     184.6638     72.38695      1.473     3.90     4.004358     20.43297      44.3787         5     1.102     0.394   7.14   0
       118    841.4058    758.2485 300.2374230 +22.8469771     147704.7      72.4054      1.195     2.02     4.014003     20.43297     22296.07       146     1.285     1.180  83.55   0
       119    603.7432    761.9880 300.1621727 +22.7767974      426.625      72.4054      1.329     2.30     4.117383     20.43297     74.30752         8     0.798     0.620  50.29   0
       120    988.3193    760.0475 300.2826415 +22.8915220     1276.691     72.44229      1.345     2.35     4.098946     20.43297     170.1269        15     0.962     0.848 -76.98   0
       121    693.7255    758.7142 300.1912587 +22.8028393     734.5283     72.53445      1.130     1.91     4.064776     20.43297     138.3703        12     0.956     0.739 -70.79   0
       122    874.0241    751.0933 300.2499169 +22.8546992     479.0017     72.35002      1.290     3.35     3.957104     20.43297     81.66605        11     1.065     0.733  46.53   0
       123    527.5803    747.2211 300.1432656 +22.7497190     1576.616     72.42385      1.099     1.87     4.109408     20.43297     296.0045        16     0.906     0.787  69.14   0
       124    708.8813    744.4572 300.2006157 +22.8032912     9393.179     72.46073      1.117     1.93     3.987615     20.43297     1564.669        31     1.004     0.915  83.68   0
       125    190.8553    746.2014 300.0388709 +22.6484027     325.8015     72.35002      1.309     3.98     4.102025     20.43297     45.49204         7     0.962     0.553  17.53   0
       126    210.4015    739.7205 300.0470530 +22.6524106     4786.206     72.33155      1.234     2.27     4.164442     20.43297     719.7661        29     1.050     0.991  62.09   0
       127    292.3872    737.7787 300.0731711 +22.6764559     1192.023      72.4054      1.128     2.23     4.256735     20.43297     176.8642        15     0.911     0.831   8.30   0
       128    168.0710    735.4663 300.0352807 +22.6384869     529.6763     72.46073      1.375     3.23     4.026048     20.43297     64.77651        10     0.894     0.811  18.18   0
       129    500.6576    733.0535 300.1394933 +22.7375795     716.2946     72.47917      1.189     3.00     4.265461     20.43297     145.8804        10     0.992     0.607  78.74   0
       130    492.3632    725.3209 300.1394264 +22.7328732     3287.418     72.36848      1.104     1.98     4.351563     20.43297     534.8454        20     0.924     0.847 -82.23   0
       131    553.4226    721.0795 300.1598095 +22.7499683     315.8353     72.36848      1.454     3.48     4.303783     20.43297     36.47298         5     0.775     0.452  71.55   0
       132    482.5797    718.9903 300.1384402 +22.7281226     1477.721      72.4054      1.156     1.95     4.416349     20.43297      255.942        15     0.883     0.797 -84.35   0
       133    411.3876    718.4949 300.1164508 +22.7066265     301.0341     72.35002      1.128     2.96     4.220315     20.43297      51.7398         6     0.867     0.433  19.50   0
       134    876.1839    716.6430 300.2617927 +22.8454544      628.016     72.44229      1.164     1.82     3.922711     20.43297     98.55521         7     0.722     0.563  28.14   0
       135    393.2617    716.1494 300.1115749 +22.7005164      333.723     72.47917      1.095     2.51     4.243473     20.43297      47.1258         6     0.734     0.544  46.27   0
       136    145.6949    715.3954 300.0348531 +22.6260170     672.1558     72.33155      1.372     2.54     4.003924     20.43297     110.8785        12     0.958     0.835  20.67   0
       137    160.1294    713.9893 300.0397955 +22.6299460     743.9073      72.4054      1.360     2.85     3.998443     20.43297     83.31481        10     0.881     0.745  64.83   0
       138    929.3342    710.0888 300.2804938 +22.8594996     435.5718     72.53445      1.124     2.63     4.041699     20.43297     81.10397        10     0.854     0.768  62.70   0
       139    407.2916    708.9153 300.1182911 +22.7026498     1804.179     72.58968      1.141     2.05     4.246933     20.43297     290.2339        17     1.022     0.781 -63.26   0
       140    185.8630    710.6776 300.0488692 +22.6367193     507.3708      72.4976      1.303     2.20      4.08188     20.43297     84.01489         9     0.824     0.656  75.19   0
       141    217.1861    710.6538 300.0586122 +22.6461122     498.1414     72.42385      1.456     2.29     4.186676     20.43297     57.35743         5     0.680     0.467 -10.49   0
       142    506.4981    709.2341 300.1490556 +22.7324969     480.9452      72.4054      1.160     2.26     4.486876     20.43297     72.86334         8     0.748     0.698  50.94   0
       143     61.3433    703.9741 300.0123609 +22.5974250     19822.76     72.42385      1.383     2.34     4.184576     20.43297     2798.994        58     1.242     1.189  57.83   0
       144    983.1562    705.9939 300.2986087 +22.8744503     704.6153     72.44229      1.208     2.24     4.092025     20.43297     146.9488        13     1.033     0.759  72.01   0
       145    492.3343    703.9689 300.1463596 +22.7267383     1032.737     72.42385      1.249     2.23     4.544566     20.43297     170.9487        14     0.907     0.828  80.00   0
       146    527.5894    703.2242 300.1575739 +22.7370977     412.2406     72.42385      1.229     2.59     4.528612     20.43297     58.72222         6     0.699     0.614  40.10   0
       147    409.8676    701.1745 300.1216092 +22.7012019     249.6331      72.4054      0.973     2.31     4.264922     20.43297     51.24766         6     0.734     0.537 -53.67   0
       148    546.8540    696.3348 300.1658100 +22.7408979      188.862     72.46073      1.282     4.69     4.575249     20.43297     36.25733         8     0.967     0.647 -19.75   0
       149    245.7601    695.9388 300.0722780 +22.6504667     309.0769     72.42385      1.132     2.45     4.256254     20.43297     52.15733         7     0.709     0.644 -70.59   0
       150    910.3219    690.2452 300.2810180 +22.8481037      1177.77      72.4054      1.187     2.24     3.948602     20.43297     171.0081        15     0.971     0.797  81.74   0
       151      7.3743    688.2501 300.0007110 +22.5767175     1436.262     72.44229      1.785     4.36     4.522694     20.43297     119.9128        24     1.478     1.045 -81.22  16
       152    858.0396    688.9725 300.2651336 +22.8320710     250.4823     72.47917      1.358     3.67     3.865929     20.43297     28.82792         5     1.004     0.386 -31.46   0
       153    777.0768    688.2513 300.2401366 +22.8075990     454.4697     72.42385      1.100     2.08      4.09506     20.43297     102.6841        10     0.841     0.686 -86.75   0
       154     73.2470    688.5299 300.0210789 +22.5965708     393.2251      72.4054      1.157     3.98     4.145729     20.43297       56.499         7     1.076     0.494   4.44   0
       155    455.5784    684.7939 300.1411559 +22.7102130      511.375      72.4054      1.003     2.70     4.558862     20.43297     91.63089         7     0.780     0.650 -29.65   0
       156    248.3904    684.1215 300.0769373 +22.6478670     174.1482     72.38695      1.064     2.89      4.26934     20.43297     61.23595         7     0.995     0.458  41.30   0
       157    850.6068    682.8364 300.2648118 +22.8280815     802.2823     72.42385      1.176     2.28     3.888096     20.43297     125.2915         8     0.821     0.611  71.50   0
       158    846.2230    682.4407 300.2635741 +22.8266541     485.0114     72.46073      1.582     2.85     3.910735     20.43297     70.81877         6     0.898     0.415  87.23   0
       159    594.6076    681.4591 300.1855122 +22.7509481     262.5534     72.38695      1.197     3.21     4.262224     20.43297      47.6292         6     0.912     0.433  17.95   0
       160    412.2888    677.0999 300.1301888 +22.6950216     691.5231     72.58968      1.149     2.06     4.326234     20.43297     128.6283        11     0.797     0.764  52.87   0
       161    560.5588    675.6237 300.1768092 +22.7390640     469.4677     72.46073      1.002     2.45     4.630358     20.43297     82.81037         9     0.795     0.712  48.43   0
       162    607.7338    674.1548 300.1919735 +22.7527873     460.6474     72.42385      1.106     2.07     4.137556     20.43297     103.8572         9     0.825     0.637 -79.56   0
       163    578.2335    673.7477 300.1829213 +22.7438253     574.8161     72.44229      1.136     2.06     4.462092     20.43297     114.4538        11     0.874     0.739 -64.36   0
       164    643.2840    672.3229 300.2036387 +22.7629199     246.5175     72.53445      1.025     3.82     4.126298     20.43297     44.19494         6     0.934     0.449  87.24   0
       165    456.6489    672.8741 300.1453639 +22.7071141     1017.736     72.42385      1.345     2.41     4.644668     20.43297     135.5557        15     1.018     0.795  10.93   0
       166    890.3088    668.2432 300.2819318 +22.8357880     3237.151     72.42385      1.145     1.91     3.885513     20.43297     567.2531        22     0.997     0.856  86.14   0
       167    422.1346    668.3886 300.1360836 +22.6954755     1783.158     72.38695      1.134     1.93     4.402462     20.43297      310.494        16     0.923     0.806  70.54   0
       168    988.5127    666.2623 300.3131968 +22.8646425     621.4846     72.51603      1.134     2.27     4.097158     20.43297     106.9276        12     0.915     0.708 -33.15   0
       169    787.2472    665.6239 300.2506617 +22.8041505     251.3582     72.44229      0.860     2.92     4.130474     20.43297     63.45625         5     0.778     0.516 -49.12   0
       170    772.1916    663.4891 300.2466645 +22.7990251     77.21046     72.35002      1.060     2.33     4.124999     20.43297     42.36912         5     0.706     0.473  17.93   0
       171    929.8134    658.2151 300.2975081 +22.8447446     346.3976     72.36848      1.071     2.43     3.998231     20.43297     75.54029         7     0.847     0.514  32.86   0
       172    285.5306    655.1860 300.0978895 +22.6507112     9244.707     72.44229      1.172     1.98     4.414359     20.43297      1473.97        36     1.044     0.987 -89.54   0
       173    407.9878    652.1463 300.1369621 +22.6865725     8784.978     72.44229      1.164     1.90     4.452889     20.43297      1720.08        32     1.011     0.909  62.92   0
       174    812.8804    649.4492 300.2639075 +22.8071881     292.7063     72.46073      1.185     3.87     4.122414     20.43297     46.98326         8     0.951     0.731  76.04   0
       175    172.5813    649.1562 300.0647399 +22.6150930     381.7575     72.44229      1.336     3.79      4.04319     20.43297     56.13125         8     0.980     0.807  80.86   0
       176   1012.5943    647.2017 300.3269039 +22.8663811     810.1581     72.23914      1.128     2.05     4.138257     20.43297     128.3743        11     0.779     0.753 -54.29   0
       177    654.2993    648.2037 300.2149094 +22.7592988     251.6569     72.31308      1.024     2.02     4.213762     20.43297     62.52222         5     0.698     0.438  75.86   0
       178    819.6246    645.8944 300.2671648 +22.8081885     1897.723     72.35002      1.155     1.89       4.1083     20.43297     336.9653        19     1.004     0.836 -87.46   0
       179    904.2669    643.2896 300.2943951 +22.8328034     12367.26     72.55286      1.137     1.85     4.018823     20.43297     2172.598        37     1.035     0.965  72.36   0
       180    468.5577    641.7474 300.1591872 +22.7017542      11400.2     72.42385      1.087     1.87     4.788061     20.43297     2026.757        37     1.030     0.943 -87.89   0
       181    638.1821    637.3447 300.2134200 +22.7513500     538.0747      72.4054      1.056     1.57     4.350588     20.43297     123.9326         9     0.771     0.689  51.77   0
       182    195.8926    637.1290 300.0758937 +22.6186387     1314.399     72.55286      1.237     2.07     4.166344     20.43297     222.0471        12     0.850     0.793  87.13   0
       183    353.9817    636.5583 300.1252300 +22.6659017     203.0251     72.44229      0.861     2.26     4.464628     20.43297     49.66484         6     0.732     0.497   0.78   0
       184    442.7365    634.6086 300.1534732 +22.6919622     365.3842      72.4054      1.002     2.19     4.679543     20.43297     82.96598         6     0.646     0.628 -61.24   0
       185    400.2439    629.9210 300.1417770 +22.6778732     4387.568      72.4054      1.150     1.98     4.562031     20.43297     792.5978        23     0.977     0.844  85.71   0
       186    743.0887    629.7177 300.2485746 +22.7806059     694.3315     72.53445      0.991     1.78     4.144625     20.43297     167.2643         9     0.747     0.608  86.49   0
       187    378.4698    628.3231 300.1355231 +22.6708842     1183.595     72.53445      1.079     2.00     4.536215     20.43297     189.3959        13     0.864     0.737  43.07   0
       188    132.8917    627.8809 300.0593214 +22.5970825     649.7002     72.55286      1.196     2.36     4.003836     20.43297     106.7905        10     0.815     0.736   2.50   0
       189    820.0648    625.1743 300.2740369 +22.8023701     1684.186      72.4054      1.310     2.71     4.168034     20.43297     219.9373        19     1.099     0.848 -63.95   0
       190    516.8558    617.4479 300.1821155 +22.7092639     201078.3     72.46073      1.094     1.83     4.867061     20.43297     35204.16       200     1.309     1.252 -75.96   0
       191     66.7988    625.6372 300.0395176 +22.5766049     299.5309     72.42385      1.286     3.89     4.214999     20.43297     46.24466         6     0.894     0.491 -46.49   0
       192    700.4611    622.2414 300.2377254 +22.7656828     860.2383      72.4054      1.027     2.01     4.152037     20.43297     143.9375        12     0.826     0.708  50.31   0
       193    340.2656    623.5410 300.1251950 +22.6580531     235.9736     72.46073      1.059     2.54     4.501887     20.43297     53.18763         5     0.715     0.441  24.31   0
       194    904.9037    618.6556 300.3026007 +22.8259186     257.1865     72.51602      1.118     2.51     4.116677     20.43297     61.08504         6     0.808     0.562  38.72   0
       195    202.9154    617.5687 300.0844333 +22.6151361     3412.858     72.42385      1.207     2.17     4.236566     20.43297     518.9371        26     0.992     0.968 -69.05   0
       196    769.9489    618.0011 300.2607515 +22.7852917     242.9295     72.38694      0.985     2.49     4.178531     20.43297      49.5748         5     0.649     0.541  89.98   0
       197    382.1598    613.8327 300.1413803 +22.6678335     299.6156     72.47917      1.304     2.49     4.606948     20.43297     59.71034         5     0.922     0.367 -29.19   2
       198    768.8173    613.3222 300.2619196 +22.7836090     534.2985     72.42385      1.100     2.33     4.183851     20.43297     94.28342         9     0.858     0.598  62.38   0
       199    787.7008    611.5480 300.2683802 +22.7887585     239.0138     72.51603      1.115     3.45     4.199646     20.43297     33.99831         5     0.765     0.451  20.00   0
       200    548.5886    603.8456 300.1964132 +22.7148744      235.686     72.42385      0.978     2.00     4.866359     20.43297     48.73166         5     0.664     0.473  73.20   0
       201    406.9823    601.8136 300.1530078 +22.6718295     449.7433     72.38695      1.365     3.62     4.694112     20.43297     71.06839         7     1.113     0.557  59.16   3
       202    407.4354    597.6912 300.1544884 +22.6707825     2533.164     72.38695      1.082     1.97      4.69731     20.43297     410.9565        18     0.923     0.796  87.30   2
       203    251.7370    600.0331 300.1053077 +22.6247536     397.4163     72.42385      1.194     2.29     4.454449     20.43297     66.25126         7     0.733     0.592 -80.18   0
       204    857.5829    597.4533 300.2947401 +22.8056507      312.883      72.4054      1.316     3.37     4.232609     20.43297     49.90062         5     0.760     0.444 -21.38   0
       205    564.1322    595.4001 300.2039965 +22.7171103     271.2365     72.36848      1.290     3.38     4.847909     20.43297     36.83638         5     0.759     0.436  21.17   0
       206    818.8962    594.0827 300.2837777 +22.7930908     421.9336     72.58968      1.279     3.06     4.243344     20.43297     70.96943         7     0.910     0.644 -19.16   0
       207    876.5703    588.0940 300.3037004 +22.8086513     963.0427     72.33155      0.838     1.29     4.234044     20.43297     261.5649         7     0.615     0.522 -50.65   0
       208    724.8295    586.3118 300.2569932 +22.7626701     440.4142     72.42385      1.096     2.58      4.25784     20.43297     79.99487         7     0.784     0.631  61.96   0
       209    804.3699    583.8469 300.2825772 +22.7857983     1798.452     72.44229      1.089     1.87     4.267036     20.43297     329.3966        16     0.900     0.741  64.18   0
       210    675.6373    581.5520 300.2432171 +22.7465600     2484.474     72.44229      1.012     1.90     4.399788     20.43297     441.4445        17     0.878     0.733  59.66   0
       211    313.6392    581.3881 300.1306131 +22.6379736     264.4288     72.42385      1.034     3.98     4.558617     20.43297     41.46996         6     1.025     0.442  34.72   0
       212    919.6106    578.7427 300.3201575 +22.8188596     375.1335     72.38695      1.082     2.40     4.217883     20.43297     78.88834        10     0.944     0.646  41.90   2
       213    918.8027    574.3884 300.3213206 +22.8173666      714.798     72.23914      1.146     2.10     4.232163     20.43297     112.1336        11     1.040     0.653  51.45   3
       214    885.0577    578.1572 300.3095754 +22.8083399     282.9992     72.38695      1.261     3.28     4.246045     20.43297     63.32986         7     1.129     0.485  81.61   0
       215    580.4645    578.2090 300.2146674 +22.7170720     493.9152      72.4054      1.024     1.91     4.816891     20.43297     98.15041         5     0.675     0.436  61.99   0
       216    462.7005    577.4290 300.1782672 +22.6815405     737.9265     72.35002      1.033     1.96     4.826026     20.43297     136.0674        11     0.830     0.691  69.61   0
       217    932.9196    575.3150 300.3254211 +22.8218618     1397.262     72.57127      1.144     1.84     4.224964     20.43297     227.7657        14     0.934     0.721 -59.17   0
       218    804.7629    574.3390 300.2857894 +22.7831854     2052.018     72.44229      1.090     1.83     4.288074     20.43297     377.6876        15     0.907     0.722 -88.29   2
       219    803.7553    570.6562 300.2866721 +22.7818258      558.268     72.44229      1.418     2.55      4.29485     20.43297     61.43943         7     0.784     0.640  28.91   3
       220    557.8676    571.9873 300.2096545 +22.7085117     815.4767     72.44229      1.106     1.70     4.834362     20.43297     139.7103         7     0.644     0.630 -79.74   0
       221    396.4751    570.9330 300.1597739 +22.6598175     392.0361      72.4976      1.068     2.16      4.69987     20.43297     81.41974         8     0.767     0.631  12.77   0
       222    842.7844    568.8940 300.2994085 +22.7930138     4309.237     72.35002      1.113     1.88     4.283212     20.43297     879.3709        22     0.934     0.828 -88.31   0
       223    343.9457    571.8537 300.1431359 +22.6443280     204.3301     72.46073      1.144     2.17     4.611378     20.43297     73.97279         5     0.774     0.446  53.55   0
       224    580.3388    565.4998 300.2187580 +22.7133859     277.7637     72.51603      0.937     2.75     4.803116     20.43297     59.39376         5     0.715     0.429  26.60   0
       225    503.6057    565.0280 300.1950262 +22.6902462     295.1777     72.42385      0.916     1.85     4.853587     20.43297     71.23429         6     0.698     0.488  87.85   0
       226    934.6263    559.4309 300.3311149 +22.8178098     714.1442     72.42385      1.041     2.18     4.274335     20.43297     135.2121        11     0.861     0.776  67.14   0
       227     74.8899    559.4989 300.0635217 +22.5600691     1027.439     72.58968      1.271     2.38     4.366333     20.43297     133.5833        13     0.893     0.806  69.53   0
       228    735.7247    553.0173 300.2712064 +22.7563744     249.4056     72.42385      1.150     2.09     4.334184     20.43297     65.47116         7     0.686     0.641  18.95   0
       229    122.0234    551.3870 300.0808002 +22.5718854     272.1475     72.42385      1.416     4.78     4.365646     20.43297     38.01404         7     0.969     0.667  -5.04   0
       230     67.5361    549.8520 300.0643716 +22.5550962     350.7822     72.47917      1.213     2.41     4.406662     20.43297     52.36793         6     0.740     0.497 -85.38   0
       231    931.0472    548.4833 300.3335562 +22.8135924     315.5297     72.42385      1.034     2.34      4.30376     20.43297     64.99829         6     0.752     0.499   1.93   0
       232    675.1119    543.5754 300.2553934 +22.7354983     508.1524     72.38695      1.272     2.69     4.729128     20.43297     79.14748         9     0.873     0.720 -61.94   0
       233    563.9418    541.2748 300.2215245 +22.7015163      341.854     72.47917      1.117     2.56     4.796091     20.43297     75.04842         7     0.895     0.533  78.96   0
       234    283.2554    541.8958 300.1339969 +22.6175302       164.34      72.4976      1.108     2.46     4.563322     20.43297     52.05778         6     0.730     0.562 -27.28   0
       235    616.1781    539.6467 300.2383168 +22.7167067     698.7692     72.46073      1.042     1.97     4.731585     20.43297     143.7298        10     0.862     0.666 -83.20   0
       236   1023.4596    536.9856 300.3661125 +22.8379677     799.4997     57.46861      0.976     1.96     4.400393     20.43297     181.7834         9     0.768     0.633  86.75  24
       237    930.7565    531.9564 300.3388354 +22.8087571     509.7111      72.4976      1.081     1.79     4.325157     20.43297     124.1624         7     0.691     0.590 -82.52   0
       238    677.0735    531.6594 300.2598759 +22.7326645     970.5048     72.46073      1.071     1.84     4.716198     20.43297     186.6019        10     0.780     0.669  49.58   0
       239    834.3337    527.6917 300.3101622 +22.7786470     990.7498     72.57127      1.077     1.92     4.325511     20.43297     220.3627        14     0.945     0.747 -79.22   0
       240    818.4307    524.0837 300.3063780 +22.7728461     609.0413     72.44229      1.073     2.04     4.331266     20.43297     112.5075         7     0.706     0.586  74.45   0
       241    799.2384    524.2761 300.3003344 +22.7671512     197.0204      72.4054      1.116     2.79     4.338501     20.43297     60.06027         7     0.871     0.565  37.46   0
       242    562.8087    522.3458 300.2273215 +22.6957425     3319.249     72.42385      1.064     1.77     4.758412     20.43297     633.1754        21     0.922     0.857  68.33   0
       243    923.3399    520.8757 300.3401230 +22.8033519     492.8014     72.47917      1.167     2.45     4.332273     20.43297     89.80286         8     0.835     0.618 -73.07   0
       244     39.0082    513.9903 300.0671603 +22.5362523     417.3392      72.2946      1.479     3.82     4.437354     20.43297     44.44013         9     0.965     0.761  51.06   0
       245    568.5044    509.8068 300.2331681 +22.6938499     257.1245     72.31308      1.050     2.23     4.724742     20.43297     59.47545         5     0.699     0.467  69.94   0
       246    334.5104    510.0024 300.1602961 +22.6237511     172.0542     72.33155      1.029     2.89     4.677289     20.43297     46.77871         6     0.770     0.499  86.93   0
       247    402.6536    509.1902 300.1817554 +22.6439518     441.8366     72.42385      1.058     2.00     4.744747     20.43297     68.39696         7     0.681     0.610  84.85   0
       248    974.1096    501.1253 300.3623711 +22.8128831     1345.242     72.58968      1.129     1.94     4.368384     20.43297     258.5136        13     0.836     0.751  -8.60   0
       249    846.0806    500.9901 300.3224982 +22.7744957     509.1644     72.36848      1.005     1.81     4.314521     20.43297     131.6054         6     0.701     0.488  64.75   0
       250    932.4217    499.9205 300.3497626 +22.8000513     1016.551     72.38695      1.118     2.07      4.35628     20.43297     175.0669        11     0.788     0.752 -39.70   0
       251    582.1810    498.3338 300.2411530 +22.6946553      267.431     72.38695      1.007     2.35     4.679967     20.43297     58.97183         6     0.713     0.575 -48.19   0
       252    673.5106    496.2203 300.2702792 +22.7214200     999.8999     72.36848      0.991     1.75     4.734474     20.43297     194.5679        13     0.828     0.725  73.11   0
       253    469.1328    496.9553 300.2064138 +22.6603720     407.0408      72.4054      1.104     2.18     4.680949     20.43297     96.20596         7     0.816     0.549  75.54   0
       254    177.4120    494.4897 300.1164949 +22.5721824     561.4096     72.36848      1.196     2.41     4.424664     20.43297     96.89069         9     0.912     0.589  86.55   0
       255     17.2202    492.9884 300.0672151 +22.5236920     287.9367      72.4054      1.333     4.43     4.451252     20.43297     33.88898         6     1.056     0.528 -10.03   0
       256    239.7673    490.3059 300.1372354 +22.5896856      3648.16     72.36848      1.152     1.96     4.568995     20.43297     610.3411        21     0.965     0.846  67.32   0
       257    972.7800    488.4760 300.3660656 +22.8088500     4399.033     72.42385      1.112     1.93     4.372114     20.43297     767.4197        26     0.973     0.914  79.79   0
       258    691.4275    485.1842 300.2794447 +22.7236197     223.7601     72.44229      0.970     1.85     4.615159     20.43297     51.37359         5     0.673     0.444  64.46   0
       259    327.7624    479.2799 300.1681769 +22.6129115     4755.712     72.38695      1.129     1.90     4.694975     20.43297     858.4718        24     0.960     0.875  74.76   0
       260    952.7858    479.4322 300.3627682 +22.8002632     1873.789     72.42385      1.120     1.94     4.371964     20.43297     347.0233        16     0.969     0.735  78.34   0
       261    571.9250    475.8987 300.2452475 +22.6851398     18283.69     72.55286      1.134     1.73     4.659072     20.43297     4095.351        48     1.069     0.942  75.52   0
       262    186.9818    485.1039 300.1225176 +22.5723606     7497.759     72.33155      1.242     2.01     4.453235     20.43297     1299.827        33     1.068     0.961  63.46   0
       263    589.6164    475.7439 300.2508057 +22.6903978     909.1067     72.38695      1.877     5.81     4.630073     20.43297      90.6925        18     1.562     0.791 -32.21   0
       264    419.1547    477.1877 300.1972841 +22.6397142     344.7253     72.42385      0.883     2.37     4.748014     20.43297     64.61353         5     0.735     0.481 -47.96   0
       265    198.6528    474.3347 300.1296428 +22.5727718     339.7192     72.46073      1.478     3.42     4.491694     20.43297     41.89109         6     0.837     0.525  47.96   0
       266    768.7571    466.0958 300.3097360 +22.7413070     379.0048     72.44229      0.946     1.69      4.29014     20.43297     91.95887         7     0.666     0.599 -88.73   0
       267    191.8024    462.7888 300.1312635 +22.5674047     413.5004     72.23914      1.178     2.21      4.47844     20.43297     78.21597         8     0.809     0.626 -86.28   0
       268    730.2080    461.1172 300.2993426 +22.7283274     126.8118     72.36848      1.301     2.45     4.328625     20.43297     47.52961         5     0.687     0.667 -67.68   0
       269    905.3797    458.3947 300.3548201 +22.7800200      807.916      72.4054      1.182     2.15     4.306846     20.43297     113.9969         9     0.853     0.583  78.85   0
       270    126.6700    456.2361 300.1131510 +22.5459880     2086.285      72.4054      1.202     2.02     4.408786     20.43297     334.2994        20     1.034     0.896  44.33   0
       271    615.5154    456.8115 300.2650189 +22.6927232     278.7921     72.36848      1.235     1.95      4.60638     20.43297     56.33854         5     0.671     0.468  68.54   0
       272    442.0175    457.0396 300.2109413 +22.6407853      539.683     72.44229      1.629     5.37     4.692552     20.43297     76.48517         8     1.385     0.588  69.08   0
       273    512.5817    445.3692 300.2366907 +22.6585875     6606.921      72.4054      1.041     1.86     4.650286     20.43297     1085.915        24     0.978     0.797  70.99   0
       274    926.2493    445.5240 300.3655074 +22.7825719     1033.796     72.42385      1.044     1.90      4.30606     20.43297      201.386        12     0.810     0.717  52.41   0
       275    227.3809    444.7339 300.1481858 +22.5728954     617.3536     72.38695      1.070     2.17     4.585648     20.43297       112.29        10     0.803     0.724  57.27   0
       276     85.0383    438.3014 300.1060407 +22.5283548     501.4235     72.42385      1.206     2.92     4.421896     20.43297     71.37371        10     0.921     0.719  41.08   0
       277    772.4064    437.2339 300.3202471 +22.7341094     325.5238     72.42385      1.048     2.08     4.271941     20.43297     58.98151         5     0.651     0.486  80.93   0
       278    626.3438    435.5059 300.2753103 +22.6898499      527.814     72.47917      1.050     2.08     4.617727     20.43297     91.12643         8     0.813     0.595 -86.71   0
       279    716.8170    434.2147 300.3039083 +22.7165880     1079.607     72.36848      1.157     1.95     4.406167     20.43297     188.5461        12     0.976     0.625  72.65   0
       280    200.0744    433.6355 300.1433020 +22.5615215     202.5868     72.36848      1.208     3.88     4.518333     20.43297     36.12972         5     1.239     0.348  47.23   0
       281    419.1849    431.6730 300.2120754 +22.6266588     6138.095     72.42385      1.134     1.87     4.747844     20.43297     1158.076        30     1.056     0.898  69.67   0
       282    996.8849    430.3462 300.3924647 +22.7993624     165.1526      72.4976      1.141     4.59     4.380217     20.43297      33.9405         6     1.012     0.591 -58.40   0
       283    858.5484    428.7900 300.3498359 +22.7574869     164.7921     72.42385      0.809     3.45     4.214683     20.43297     30.74013         5     0.748     0.459  71.00   0
       284    811.1188    425.7921 300.3360266 +22.7424190     1416.486     72.35002      1.093     1.72     4.256308     20.43297     322.2155        14     0.904     0.716  84.11   0
       285    908.5315    426.0937 300.3662936 +22.7716821     641.7274     72.57127      1.093     2.41     4.250516     20.43297     104.7238         7     0.778     0.572  59.75   0
       286    403.7392    420.1829 300.2110014 +22.6187301     385.7839     72.36848      1.057     1.98      4.75877     20.43297      78.0899         7     0.692     0.591  77.10   0
       287    486.4254    418.2500 300.2373571 +22.6429614     455.6434     72.44229      1.019     2.14     4.602536     20.43297     74.86887         5     0.684     0.455  67.67   0
       288    764.5474    417.2109 300.3243008 +22.7260029     393.8289     72.42385      1.303     1.65     4.258849     20.43297     65.91263         5     0.649     0.471  68.93   0
       289    466.8639    416.3575 300.2318841 +22.6365547     223.0977     72.42385      1.057     2.51     4.628455     20.43297     57.71627         5     0.740     0.424 -21.65   0
       290     29.3937    414.7663 300.0963983 +22.5049111     197.4099     72.42385      1.316     4.57     4.438843     20.43297     27.02689         5     0.820     0.724  20.68   0
       291    783.9181    413.6253 300.3315011 +22.7307755     586.9269      72.4054      1.116     2.05     4.258849     20.43297     94.39349        10     0.801     0.694 -88.55   0
       292    306.7109    410.9262 300.1838285 +22.5869828     2488.532     72.58968      1.162     2.01     4.790212     20.43297     446.8987        21     1.030     0.845  65.79   0
       293     25.2252    408.3015 300.0972027 +22.5018063     1066.157     72.36848      1.320     2.53     4.522502     20.43297     126.7208        16     0.996     0.888  25.19   0
       294    276.0862    400.3769 300.1777313 +22.5747726     29827.73     72.36848      1.172     2.02     4.779048     20.43297     4929.819        63     1.133     1.050  80.33   0
       295    810.8416    397.5922 300.3450977 +22.7342337     1469.172     72.44229      1.084     1.81     4.250644     20.43297     282.0812        14     0.817     0.795  64.13   0
       296    374.4829    385.8121 300.2130607 +22.6000932     404.0941     72.38695      1.134     3.16     4.778569     20.43297     81.39291         9     1.039     0.599  86.18   0
       297    150.3887    386.5926 300.1431352 +22.5331226     432.2473      72.2946      1.044     2.93     4.456074     20.43297     67.37246         7     0.903     0.470  80.31   0
       298    726.0148    386.3523 300.3223160 +22.7055946     557.6922     72.46073      1.015     1.70     4.335092     20.43297     110.6196         7     0.643     0.618  50.94   0
       299    686.4525    379.8933 300.3120892 +22.6918871     1883.111     72.47917      1.070     1.98     4.612337     20.43297     326.0603        14     0.931     0.673  78.97   0
       300    815.7479    375.6428 300.3537538 +22.7293965     346.1676     72.46073      1.367     3.44     4.252147     20.43297     36.80225         5     0.754     0.453  15.15   0
       301    494.8896    374.2532 300.2542769 +22.6328658     375.6978     72.46073      1.180     3.50     4.631507     20.43297     73.14687         7     1.122     0.462  73.55   0
       302    901.8343    372.6762 300.3815515 +22.7543253      645.823     72.42385      1.141     2.36     4.306243     20.43297     111.6522         9     0.839     0.597 -54.60   0
       303    755.3356    366.1525 300.3380096 +22.7085746     79.16274     72.46073      1.025     2.29     4.258849     20.43297     45.10302         5     0.725     0.432  70.85   0
       304    348.1991    364.6245 300.2117642 +22.5861317     2154.908     72.36848      1.340     2.71     4.789842     20.43297     320.5278        21     1.296     0.779  65.78   0
       305    560.3186    363.4699 300.2781437 +22.6493770      317.812     72.53445      1.142     2.54      4.77678     20.43297     45.32421         5     0.687     0.468  20.32   0
       306    787.3475    357.4435 300.3508120 +22.7156608     716.8524     72.46073      1.147     2.09     4.258849     20.43297     102.8318        11     0.823     0.727 -82.86   0
       307    779.4966    357.8523 300.3482328 +22.7134268     284.9544      72.4976      1.208     2.66     4.258849     20.43297      51.4112         5     0.737     0.445  67.18   0
       308    686.8101    354.7634 300.3203595 +22.6847753     248.9319     72.42385      0.980     2.82     4.605405     20.43297     71.11457         6     0.877     0.552 -70.36   0
       309    669.8604    355.1483 300.3149552 +22.6798080     365.4354     72.47917      0.972     1.68      4.69647     20.43297     90.10904         6     0.664     0.519 -63.88   0
       310    637.6682    354.1102 300.3052663 +22.6698651     439.0306     72.57127      1.159     2.83     4.632775     20.43297     69.50014         7     0.837     0.635  28.84   0
       311    748.5815    348.2722 300.3417102 +22.7014143     294.1481     72.42385      1.083     3.17     4.259522     20.43297      41.3927         5     0.711     0.479 -77.24   0
       312    424.2026    344.0667 300.2420808 +22.6030124     1189.739     72.42385      1.181     1.91     4.772717     20.43297       227.56        15     1.001     0.743  72.36   0
       313    231.2651    344.6898 300.1818756 +22.5453516     179.1899     72.53445      1.349     4.07     4.858256     20.43297     29.98833         7     1.357     0.349  45.20   0
       314    668.9034    335.8311 300.3209282 +22.6739721     2019.809     72.36848      1.109     1.79     4.769458     20.43297     459.5457        18     0.951     0.784  63.42   0
       315    930.2072    330.0139 300.4042486 +22.7505592     3144.394     72.31308      1.152     1.79     4.437029     20.43297     649.1534        20     0.938     0.814  86.19   0
       316    991.2217    324.8258 300.4249606 +22.7673349     289.0783      72.4054      1.007     1.90     4.458796     20.43297     78.38234         8     0.721     0.638  36.29   0
       317    377.1204    319.7339 300.2353322 +22.5819142     623.1997     72.53445      1.136     2.15     4.828383     20.43297     115.6234        10     0.804     0.706  69.57   0
       318    999.6529    317.9158 300.4298334 +22.7678724     1564.128     72.46073      1.118     2.09     4.466766     20.43297     276.7692        17     0.996     0.792  73.94   0
       319     52.3045    314.1546 300.1361758 +22.4829221     1412.968     72.44229      1.512     2.79     4.828166     20.43297     162.1658        22     1.291     0.929 -41.50   0
       320     83.0249    314.0295 300.1457596 +22.4920998     515.8183     72.42385      1.189     2.41     4.715073     20.43297     98.15733         9     0.773     0.714 -35.20   0
       321    946.0526    310.5614 300.4155043 +22.7497116     526.7318     72.42385      1.228     2.38     4.464236     20.43297     93.32906         9     0.896     0.588  66.11   0
       322    789.6964    307.3119 300.3678179 +22.7019589     232.0569     72.60809      1.034     2.47     4.286197     20.43297     58.07762         6     0.812     0.482  44.52   0
       323    136.1227    305.9653 300.1648745 +22.5057094     464.7614     72.38694      1.201     2.68     4.727963     20.43297     71.35367         8     0.821     0.622  52.02   0
       324    930.9423    303.1549 300.4131966 +22.7430586     354.5516     72.46073      1.320     2.49     4.472314     20.43297     59.69064         6     0.859     0.444  41.02   0
       325    812.2650    299.4858 300.3773915 +22.7064686     321.4323     72.51602      0.934     1.82     4.323662     20.43297     65.54675         5     0.653     0.449  27.50   0
       326    740.5209    297.1295 300.3558003 +22.6843052     692.2429     72.53445      1.113     2.31     4.261362     20.43297     115.7505         7     0.832     0.495 -84.23   0
       327    330.9749    297.0356 300.2283466 +22.5615657      365.002     72.44229      1.030     2.33     4.898858     20.43297     71.66744         5     0.603     0.591  86.37   0
       328    877.1017    290.1081 300.4006449 +22.7231882     78.28928     72.60809      0.910     2.75     4.482908     20.43297     39.11409         5     0.612     0.594 -42.22   0
       329    831.0928    290.1138 300.3863015 +22.7094132     312.4528     72.58968      0.898     1.77     4.387229     20.43297     85.51779         5     0.579     0.543 -74.39   0
       330    838.7172    286.1822 300.3899540 +22.7105663      2134.94     72.36848      1.105     2.01      4.43319     20.43297     368.6276        18     0.912     0.785 -88.36   0
       331    257.2585    283.7892 300.2097232 +22.5356650      2026.25     72.38695      1.144     2.02     4.967154     20.43297     355.2726        16     0.915     0.786  79.77   0
       332    335.1905    278.7263 300.2355998 +22.5575728     1070.121     72.42385      1.288     2.48       4.9052     20.43297     167.4478        14     0.910     0.854 -20.88   0
       333     86.8750    278.8959 300.1583578 +22.4831735     422.2037     72.57127      1.409     2.12     4.786224     20.43297     65.62214         8     0.793     0.615 -37.74   0
       334    776.6482    277.7753 300.3733387 +22.6895632     242.0732     72.42385      1.258     3.42     4.381093     20.43297      33.0435         5     0.747     0.453  75.28   0
       335    737.1210    277.7986 300.3610151 +22.6777322     499.7386     72.31308      1.100     2.06     4.374926     20.43297      124.248        10     0.844     0.663 -68.57   0
       336    844.1912    275.0567 300.3952711 +22.7090077     447.5996      72.4054      1.160     3.32     4.525329     20.43297     65.01575         7     1.042     0.497  54.69   0
       337    151.8738    271.0032 300.1811154 +22.5003993     817.3088     72.33155      1.350     2.75     4.835923     20.43297     110.6196        12     0.915     0.817  88.05   0
       338    269.8208    270.2812 300.2180126 +22.5355534     214.5598     72.38695      1.158     4.32     4.952386     20.43297     50.23194         8     1.230     0.512  72.86   0
       339    754.4844    267.2831 300.3698377 +22.6799105     611.8567     72.55286      1.174     2.39     4.484039     20.43297     81.05511         7     0.840     0.499 -88.28   0
       340    689.8067    267.6518 300.3495686 +22.6606455     1646.528     72.42385      1.084     1.80      4.85644     20.43297     340.4509        14     0.844     0.774  79.59   0
       341    173.4877    264.2296 300.1900306 +22.5049359     578.1976     72.42385      1.336     2.74     4.860468     20.43297     79.39687        11     0.870     0.849 -81.60   0
       342    961.1189    259.8408 300.4366650 +22.7396405     862.3938     72.38695      1.187     2.24     4.670887     20.43297     159.3707        13     0.981     0.680  89.44   0
       343    693.8565    259.1362 300.3535937 +22.6594117     770.8818     72.47917      1.182     1.93     4.859608     20.43297     146.8447        11     0.860     0.723  38.98   0
       344    463.3541    260.2181 300.2814775 +22.5906682      238.452     72.46073      1.004     2.16     4.744322     20.43297     58.38652         5     0.695     0.453  72.95   0
       345    614.3260    258.3904 300.3290664 +22.6353752      1133.77     72.42385      1.049     1.95     4.986222     20.43297     214.2815        13     0.853     0.734  63.94   0
       346    435.4734    255.0210 300.2744885 +22.5808210     410.8612     72.42385      1.190     2.20     4.832776     20.43297     58.33108         6     0.732     0.497 -85.24   0
       347    809.7225    249.7933 300.3927267 +22.6914255     1392.927     72.35002      1.132     1.86     4.612376     20.43297     285.4294        15     0.959     0.732  55.11   0
       348    540.6615    250.2138 300.3087850 +22.6109580     940.7706     72.38695      1.209     2.47     4.927359     20.43297     138.6546        11     0.904     0.737 -89.92   0
       349    821.8508    249.0126 300.3967600 +22.6948327      928.229     72.46073      1.169     2.22     4.651502     20.43297     147.7498        10     0.889     0.640  70.03   0
       350    982.6879    239.6567 300.4499420 +22.7402936      1735.53     72.47917      1.185     2.10     4.795318     20.43297     292.4921        17     1.012     0.789  88.93   0
       351    938.5916    238.9581 300.4364168 +22.7268931     992.4614     72.44229      1.148     2.03      4.80154     20.43297      182.229        14     0.941     0.781  77.15   0
       352    172.6331    232.6700 300.2000054 +22.4956215      735.308     72.42385      1.246     2.56     4.857383     20.43297     97.01825         9     0.857     0.686 -71.26   0
       353    841.3074    231.9736 300.4083535 +22.6957606      167.882     72.36848      1.176     4.45     4.822921     20.43297     29.29515         6     1.110     0.508  38.28   0
       354     34.5018    227.3574 300.1588118 +22.4526789     2071.456     72.42385      1.243     2.37     5.079755     20.43297     260.8961        19     1.038     0.893  73.14   0
       355    857.6176    224.0354 300.4160135 +22.6983620      838.933     72.42385      1.231     2.74     4.916187     20.43297     122.5678        12     1.005     0.757  83.92   0
       356    191.8640    220.7060 300.2098642 +22.4979527     5634.251     72.53445      1.234     2.11     4.859056     20.43297     930.1393        28     1.081     0.940  57.76   0
       357    175.2606    211.4713 300.2076998 +22.4903244     628.1879     72.46073      1.237     2.85     4.873907     20.43297     81.63486        10     0.914     0.693  84.08   0
       358    990.7175    207.8147 300.4627787 +22.7335409     18283.85      72.4054      1.159     2.02      4.91008     20.43297     3307.612        42     1.097     0.942  79.22   0
       359    835.9221    202.0117 300.4163967 +22.6855355     3524.178      72.4054      1.135     1.83     4.852123     20.43297     731.7916        25     1.022     0.859  65.11   0
       360    939.6071    200.6167 300.4491745 +22.7161732     2720.695     72.36848      1.056     2.02     4.912669     20.43297      479.492        20     1.013     0.797  77.35   0
       361    138.6121    198.1150 300.2006434 +22.4755036     202.0297     72.36848      1.249     2.89     4.900204     20.43297     59.70985        10     0.879     0.805 -39.72   0
       362    385.3023    197.3698 300.2775851 +22.5492303     591.2665     72.36848      1.096     2.09     4.918205     20.43297     107.5989         9     0.766     0.675  64.55   0
       363    309.4037    189.1094 300.2566580 +22.5241131     490.7984     72.33155      1.126     2.54     4.897119     20.43297     83.94263         9     0.809     0.729 -73.00   2
       364    313.4950    187.4918 300.2584551 +22.5248747     342.2234     72.60809      1.024     2.72       4.8977     20.43297     59.11882         5     0.699     0.489 -12.73   3
       365     75.7088    186.2658 300.1849428 +22.4532431     745.7675     72.55286      1.236     2.54     4.972651     20.43297     106.6247        11     0.926     0.739  70.37   0
       366    436.7064    184.5365 300.2977411 +22.5609472     1742.163     72.53445      1.124     2.05     4.904624     20.43297     299.3766        15     0.907     0.764  71.56   0
       367    364.9270    184.8299 300.2753151 +22.5395234     542.8275     72.42385      1.144     2.45     4.915087     20.43297     90.08018         9     0.880     0.623 -53.08   0
       368    498.2365    183.4723 300.3172343 +22.5790759     534.7001     72.36848      1.616     2.46     4.870798     20.43297     60.26384         6     0.665     0.634 -55.41   0
       369    260.9401    180.1223 300.2445037 +22.5070077     232.5549     72.47917      1.246     4.24     4.861228     20.43297     45.49947         7     1.005     0.640 -68.11   0
       370    180.2161    180.0895 300.2194204 +22.4828017     421.0227     72.35002      1.213     2.30     4.904053     20.43297     67.49315         7     0.710     0.624 -81.90   0
       371    653.3214    178.4187 300.3671581 +22.6240771     193.2503     72.42385      1.089     2.62     5.021383     20.43297     63.52676         5     0.930     0.460 -12.74   0
       372    725.0708    173.8331 300.3909954 +22.6442455     400.3097     72.42385      1.274     3.17      4.95046     20.43297     77.08392         9     1.041     0.697  87.68   0
       373    309.5941    169.7867 300.2629853 +22.5186217     201.8725      72.2946      1.175     3.10     4.890033     20.43297     32.40593         5     0.736     0.443  68.96   0
       374    871.0334    167.9554 300.4383903 +22.6862560     435.3197     72.46073      1.325     2.96     4.934982     20.43297     49.50768         6     0.739     0.572 -47.68   0
       375   1000.9881    165.2615 300.4797879 +22.7243774     3641.097     72.38695      1.244     2.16     4.967364     20.43297     598.7258        30     1.493     0.942 -22.58   0
       376    210.8574    164.5677 300.2339795 +22.4875305     5830.215     72.44229      1.225     2.23     4.852041     20.43297      898.194        28     1.107     0.901  71.26   0
       377    717.4203    164.6117 300.3916033 +22.6393043     260.4568      72.4054      1.001     2.32     4.961299     20.43297     82.45399         6     0.831     0.447  72.52   0
       378     61.8586    163.8887 300.1878987 +22.4426682      796.033      72.4976      1.419     2.57      5.02555     20.43297     101.9909        11     0.929     0.712  45.85   0
       379    840.3630    161.4096 300.4309531 +22.6751927      430.608     72.42385      1.047     2.05     4.851487     20.43297     79.26873         5     0.703     0.426 -66.57   0
       380    182.4707    158.6848 300.2270643 +22.4773328     147.5197     72.53445      1.019     2.65     4.918704     20.43297     54.52892         7     0.814     0.609  22.00   0
       381    686.6462    155.7813 300.3848812 +22.6275512     280.4929     72.46073      1.004     3.39     4.995979     20.43297     36.74251         5     0.726     0.463  77.73   0
       382    226.3417    155.9193 300.2415982 +22.4896886     308.3661     72.47917      0.980     2.07     4.822874     20.43297     72.76211         7     0.680     0.645  73.90   0
       383    456.8918    149.7378 300.3153103 +22.5569991     6104.883     72.51602      1.160     2.01     4.943156     20.43297     1139.163        27     1.050     0.862  83.03   0
       384    342.2918    149.6151 300.2796975 +22.5226275     550.0519     72.35002      1.059     2.27     4.911812     20.43297     112.0483         9     0.832     0.641  54.38   0
       385    513.8430    144.3846 300.3347711 +22.5725219     230.4904     72.44229      0.956     2.34     4.920379     20.43297     66.36746         7     0.804     0.560 -84.89   0
       386    650.4863    140.7900 300.3784813 +22.6124145     210.6292     72.36848      1.019     2.78     4.996945     20.43297     56.22981         6     0.709     0.635  44.76   0
       387    709.3634    139.2083 300.3973336 +22.6295903     826.8651     72.42385      1.227     2.23     4.970784     20.43297     130.2184        11     1.009     0.650 -58.37   0
       388    801.9343    137.7723 300.4266433 +22.6568930      587.651      72.4054      1.356     2.35      4.74297     20.43297     88.76408         8     0.868     0.588  85.89   0
       389    109.4366    136.1615 300.2116733 +22.4489739     330.1957      72.4976      1.770     4.17     4.999011     20.43297     28.13269         5     1.487     0.334 -48.68   0
       390    149.6163    133.6033 300.2249884 +22.4602841     392.8446     72.31308      1.069     2.28     4.957885     20.43297     70.03156         8     0.843     0.573  70.38   0
       391    508.2718    132.0450 300.3370393 +22.5673079     559.6171     72.38695      1.366     2.14     4.925229     20.43297     83.29355         8     0.773     0.608  57.38   0
       392    585.2000    129.7961 300.3617169 +22.5897032     5954.035     72.20214      1.148     1.93     4.975946     20.43297     1149.835        23     0.975     0.829  88.57   0
       393    360.1123    128.8535 300.2919742 +22.5220045     1457.836     72.46073      1.209     1.94      4.93134     20.43297     267.6183        13     0.943     0.734 -76.75   0
       394    626.4131    127.0049 300.3754553 +22.6012437     792.6591      72.2946      1.094     2.16     5.004745     20.43297     144.3733        11     0.992     0.655 -89.54   0
       395    696.0161    124.7698 300.3978588 +22.6214438     422.9633     72.42385      1.463     2.70     4.963468     20.43297        52.89         6     0.868     0.447  41.97   0
       396    642.0354    123.0552 300.3816015 +22.6047869     598.7879     72.44229      1.124     2.68     4.984162     20.43297     113.2211        10     0.898     0.692 -33.10   0
       397    109.0331    121.4535 300.2163179 +22.4446309     591.4131     72.44229      1.250     2.94     5.017353     20.43297     79.43497         8     0.777     0.693  73.64   0
       398    951.4102    120.3218 300.4789026 +22.6966161     355.5584     72.38695      1.196     3.02     4.969351     20.43297     53.11846         5     0.895     0.486  84.47   0
       399    912.2590    120.5073 300.4666341 +22.6849524      586.309     72.47917      1.163     2.04     4.966904     20.43297     96.31412        10     0.849     0.633  83.20   0
       400    680.9580    118.3748 300.3952424 +22.6150969     444.6517     72.47917      1.045     2.03     4.945508     20.43297     99.78306         9     0.776     0.650 -73.46   0
       401    270.4278    115.7135 300.2683445 +22.4913567     455.6754     72.42385      1.180     3.37     4.891455     20.43297     72.42165         9     1.029     0.663  68.08   0
       402    629.3663    114.6524 300.3803813 +22.5985781     2729.828     72.44229      1.099     2.01     4.994452     20.43297     438.9374        20     0.922     0.866 -83.03   0
       403    644.5654    113.2580 300.3855670 +22.6027288     799.2012     72.44229      1.529     4.60     4.969924     20.43297     117.6078        14     1.428     0.681  56.21   0
       404    715.8401    106.1315 300.4100793 +22.6220220     1519.329     72.38695      1.155     1.84      4.97907     20.43297     310.4443        17     1.045     0.744  67.57   0
       405    653.8588     99.1689 300.3930305 +22.6014623     715.8206     72.44229      1.144     1.98     4.937969     20.43297     131.9459         9     0.730     0.684 -83.18   0
       406    459.4769     98.8083 300.3326325 +22.5431426     1082.185     72.38695      1.077     1.95     4.947656     20.43297      165.872        12     0.823     0.705 -60.41   0
       407     32.4333     98.8330 300.1998568 +22.4151742     619.2863      72.4976      1.403     2.50     5.570515     20.43297     78.91488         9     0.819     0.717  76.73   0
       408    363.3420     96.9712 300.3033184 +22.5138148     814.1355     72.42385      1.152     2.22     4.947832     20.43297     148.7549        11     0.835     0.766  62.03   0
       409   1006.1862     93.5200 300.5046792 +22.7052987     2205.869      72.4054      1.174     1.97      4.97667     20.43297      407.853        19     1.006     0.869  74.83   0
       410    745.3610     95.1695 300.4228317 +22.6277090     413.6755     72.42385      1.165     3.99     4.991386     20.43297     71.64024         6     1.021     0.445  60.48   0
       411    134.7495     87.1713 300.2354258 +22.4424979     3844.967     72.44229      1.296     2.31     4.999987     20.43297     516.7715        27     1.148     0.964  48.76   0
       412    265.3282     87.9734 300.2757546 +22.4818623     199.5152      72.4054      1.125     3.95     4.916973     20.43297     36.39646         5     1.019     0.438  22.59   0
       413    702.7476     87.2235 300.4121325 +22.6126669     730.6536     72.44229      1.373     2.18     4.936972     20.43297     98.23663         8     0.761     0.627  54.16   0
       414    460.5763     84.2069 300.3377096 +22.5392770     216.7007     72.38695      0.967     2.86     4.953649     20.43297     55.09537         7     0.912     0.485  82.86   0
       415    556.9484     83.5807 300.3679091 +22.5679617     296.5677      72.4054      1.100     3.16     4.874587     20.43297     50.99517         7     0.861     0.587  77.42   0
       416    696.0645     79.2040 300.4126512 +22.6083608     859.3797     72.42385      1.063     1.86     4.897974     20.43297     175.9453        10     0.814     0.655  64.77   0
       417    250.6448     79.2306 300.2740242 +22.4749515       1097.4     72.46073      1.193     2.29     4.913626     20.43297     177.6399        14     0.929     0.786  55.13   0
       418    661.6713     78.7210 300.4020948 +22.5979243     213.7741     72.53445      1.094     2.57     4.853534     20.43297     58.00426         5     0.750     0.415  69.33   0
       419    789.5021     76.1861 300.4427424 +22.6354653     220.3633     72.31308      1.113     2.39     4.768074     20.43297     45.17363         5     0.712     0.454 -67.57   0
       420    733.6989     74.3785 300.4259404 +22.6182407      748.515     72.35002      1.553     3.55     5.026717     20.43297     88.66337        12     1.224     0.710  74.86   0
       421    477.5263     76.2682 300.3455587 +22.5420732     255.4263      72.4976      1.174     2.54       4.9562     20.43297     48.12312         5     0.695     0.476 -72.55   0
       422    657.4096     74.0667 300.4022767 +22.5953105     477.7861     72.42385      1.077     2.14     4.851117     20.43297     98.17418         8     0.712     0.673  83.12   0
       423    753.8318     70.5704 300.4334481 +22.6231730     2199.093     72.42385      1.068     1.88     4.949224     20.43297     415.6169        15     0.862     0.765  72.38   0
       424    459.4866     68.9918 300.3423041 +22.5345791     429.8217     72.33155      1.013     2.73     4.960522     20.43297     72.34502         6     0.760     0.471  73.82   0
       425    511.8076     66.2698 300.3594704 +22.5494680     190.4417      72.4054      1.227     4.48     4.865839     20.43297     37.63293         5     1.202     0.475 -61.71   0
       426    137.3902     65.9721 300.2431201 +22.4372029     1058.023     72.42385      1.411     2.84     5.036835     20.43297     143.4538        15     1.026     0.869 -57.53   0
       427    928.8825     63.8128 300.4902037 +22.6736226     723.3931      72.4054      1.066     1.91      4.97667     20.43297     154.5359        11     0.781     0.761  50.42   0
       428    702.3142     62.9820 300.4198583 +22.6055686     982.7137     72.36848      1.204     2.08     4.885342     20.43297     158.1286        13     0.892     0.779 -45.61   0
       429    409.3612     61.5158 300.3291313 +22.5174164     305.5792      72.4054      1.016     2.94     4.967927     20.43297     55.95291         5     0.707     0.481 -15.03   0
       430    124.1087     61.1171 300.2405671 +22.4318283     343.5403     72.55286      1.702     3.77     5.060948     20.43297     39.36336         5     1.050     0.388  33.07   0
       431    459.8297     55.6295 300.3467435 +22.5308426     179.1599     72.38695      1.253     3.93     4.966295     20.43297      47.0069         6     1.212     0.364  85.38   0
       432    152.4433     55.9230 300.2510563 +22.4388293     375.9939      72.4054      1.455     3.20     5.042827     20.43297     43.69738         5     0.731     0.629 -19.06   0
       433    286.8107     52.5582 300.2939175 +22.4781283     452.8738     72.42385      1.150     2.87     5.025127     20.43297     62.73981         7     0.843     0.576  74.03   0
       434    554.6457     48.0297 300.3787196 +22.5570556      753.696     72.46073      1.101     2.02     4.734809     20.43297     144.5635         9     0.768     0.658  31.26   0
       435    164.0083     45.2437 300.2581128 +22.4392289     520.5659     72.44229      1.289     2.69      5.05941     20.43297     72.51363        10     0.886     0.709  75.53   0
       436    125.1792     45.6188 300.2459245 +22.4276994     147.0788     72.42385      1.515     4.40     5.082117     20.43297       29.642         5     1.160     0.476 -57.25   0
       437    689.8572     45.2089 300.4217406 +22.5967300     277.9576      72.4054      1.155     2.60       4.7771     20.43297     55.83966         5     0.755     0.487  50.20   0
       438    289.1838     45.6588 300.2968924 +22.4768577     266.5352     72.38695      1.053     2.44     5.045357     20.43297      54.0925         5     0.727     0.437 -18.54   0
       439    717.8544     42.7447 300.4312612 +22.6044030     727.6461     72.46073      1.128     2.31     4.942455     20.43297     128.2153        10     0.868     0.667  60.33   0
       440    526.5163     40.9810 300.3722482 +22.5466060      1836.19     72.35002      1.149     2.20     4.746087     20.43297     287.7454        19     1.096     0.846 -79.31   0
       441    249.2467     38.5531 300.2867783 +22.4628505     567.4499     72.42385      1.173     2.19     4.972997     20.43297     103.9019        10     0.824     0.715  88.73   0
       442    483.7940     34.8734 300.3609309 +22.5320562      1366.09     72.36848      1.212     2.05     4.956107     20.43297     240.7393        15     0.912     0.812  64.85   0
       443    589.1791     31.5579 300.3948118 +22.5626624     1360.911     72.46073      1.166     1.97     4.862019     20.43297     245.7045        15     0.993     0.742  71.26   0
       444    184.0084     30.6620 300.2690563 +22.4410354     610.1915     72.36848      1.426     3.07     5.042992     20.43297     78.87022        10     0.904     0.793  83.59   0
       445    233.2237     28.6421 300.2850098 +22.4552030        484.9     72.47917      1.380     3.28     4.949968     20.43297     59.32412         8     0.923     0.595  82.68   0
       446    409.5059     25.5156 300.3408481 +22.5071170     2141.509     72.60809      1.187     2.24     4.988596     20.43297     292.2104        20     1.077     0.817  75.07   0
       447     56.7175     23.4186 300.2318508 +22.4008058     1465.294     72.38695      1.374     2.42     5.401058     20.43297     194.6494        17     1.008     0.939  58.35   0
       448    540.3173     19.8818 300.3833848 +22.5446754     611.4473     72.55286      1.430     3.80     4.600613     20.43297     74.07784         9     0.904     0.814 -26.96   0
       449    199.3629     17.4940 300.2780976 +22.4418550     365.1381      72.4054      1.324     3.20     5.026662     20.43297     53.05579         5     0.919     0.445  76.85   0
       450    884.4212     14.0393 300.4924789 +22.6460023     312.7447     72.46073      1.024     1.65     4.985347     20.43297     80.03992         6     0.687     0.483 -78.16   0
       451     43.0497   1004.1417 299.9090382 +22.6779438     4458.288     72.47917     18.226    48.30     12.23961     20.43297     88.22313       653    16.316     3.967 -11.22  19
       452    381.3556   1009.0890 300.0125712 +22.7809441      513.051     72.44229      1.335     4.14      3.31071     20.43297     58.99442        12     0.976     0.921  14.09   0
