#   1 NUMBER                 Running object number                                     
#   2 X_IMAGE                Object position along x                                    [pixel]
#   3 Y_IMAGE                Object position along y                                    [pixel]
#   4 ALPHA_J2000            Right ascension of barycenter (J2000)                      [deg]
#   5 DELTA_J2000            Declination of barycenter (J2000)                          [deg]
#   6 FLUX_APER              Flux vector within fixed circular aperture(s)              [count]
#   7 FLUXERR_APER           RMS error vector for aperture flux(es)                     [count]
#   8 FLUX_RADIUS            Fraction-of-light radii                                    [pixel]
#   9 FWHM_IMAGE             FWHM assuming a gaussian core                              [pixel]
#  10 BACKGROUND             Background at centroid position                            [count]
#  11 THRESHOLD              Detection threshold above background                       [count]
#  12 FLUX_MAX               Peak flux above background                                 [count]
#  13 ISOAREA_IMAGE          Isophotal area above Analysis threshold                    [pixel**2]
#  14 A_IMAGE                Profile RMS along major axis                               [pixel]
#  15 B_IMAGE                Profile RMS along minor axis                               [pixel]
#  16 THETA_IMAGE            Position angle (CCW/x)                                     [deg]
#  17 FLAGS                  Extraction flags                                          
         1    214.1335     13.3256 300.2354539 +22.4425005     3934.528     72.50594      1.553     2.91     5.283723     20.43532     385.9178        37     1.424     1.140  35.91   0
         2    781.9987     13.8193 300.4120832 +22.6126206     555.5504     72.35835      1.400     3.79     5.591805     20.43532     76.97887        11     1.082     0.690 -88.47   0
         3    266.7793     11.3880 300.2524533 +22.4577101     202.1314     72.41373      1.076     3.48      4.73558     20.43532     23.94195         5     1.221     0.286  54.38   0
         4    539.7234     10.3811 300.3377183 +22.5391357     393.7577     72.43218      1.394     4.04     4.181626     20.43532     43.43082         7     0.983     0.552  24.08   0
         5    330.0973      5.4436 300.2740747 +22.4749618     1337.995     72.43218      1.515     2.75     5.001103     20.43532     152.7411        19     1.235     0.905  71.22  16
         6    775.3434      5.7570 300.4126213 +22.6083101     848.4908     72.39527      1.312     2.56     5.661918     20.43532     114.7979        12     0.933     0.773  41.06  16
         7    741.0889      5.1739 300.4021340 +22.5978945      267.841     72.02515      1.009     2.63     5.722741     20.43532     52.21323         8     0.822     0.627  36.02  16
         8    556.1133      3.0354 300.3452022 +22.5419288     234.7733     65.16785      1.133     3.67     4.329545     20.43532     41.92766         5     0.637     0.607  -6.29  16
         9    812.9858      1.3639 300.4257788 +22.6183066      370.971     56.49026      1.304     3.91     5.539754     20.43532     52.44023         6     1.001     0.438  12.72  24
        10    776.6396    997.2511 300.0910655 +22.8936369     581.1853     72.43218      1.707     5.53      3.10907     20.43532     51.88485        13     1.167     0.887 -65.18   0
        11    338.5688   1021.9794 299.9466271 +22.7693464     782.8229     65.08577      1.683     3.89     13.85172     20.43532     79.80846        18     1.248     1.003 -67.88  24
        12    293.2564   1021.9261 299.9325516 +22.7557342     763.4926     65.33169      2.485     8.14     45.55773     20.43532     44.84611        15     1.651     1.122  83.66  24
        13    144.9280   1021.4769 299.8865853 +22.7110878     4237.984     67.22692      6.205    25.88     89.51191     20.43532     109.7258       206     6.480     2.870   7.99  27
        14    125.4208   1016.2802 299.8822140 +22.7037426      4744.33     72.41373      9.731    43.79     80.11246     20.43532     100.4182       582     8.632     6.574  67.15  27
        15    122.7322    959.7409 299.8997730 +22.6867284     5333.972     72.46907     23.621    81.87     35.22065     20.43532     110.7718      3293    18.386    16.299 -41.59  19
        16    119.5960    927.1948 299.9093850 +22.6764568     4117.899     72.26595     18.786    62.08     10.07577     20.43532     88.61587      1075    14.173     7.547 -24.30   3
        17    589.6805   1001.1816 300.0315452 +22.8387080     2356.658     72.43218      1.871     4.35      2.89205     20.43532     144.3822        28     1.369     1.262   3.48   0
        18    676.4044    996.4849 300.0600836 +22.8633658     8792.916     72.35835      1.998     4.72     2.902624     20.43532     494.1407        52     1.565     1.528 -16.60   3
        19    189.1457    965.4545 299.9185556 +22.7082991     1305.318     72.46907      4.820    11.89     46.25772     20.43532     52.70802        29     2.976     1.323  64.60   2
        20    185.0802    964.9396 299.9174594 +22.7069313     1137.225     72.48751      6.892    11.43      46.3004     20.43532      54.8956        20     2.247     1.620  59.62   3
        21    172.3238    966.1721 299.9130933 +22.7034563      1819.45     72.43218      7.376    10.82     47.28785     20.43532     49.33144        33     2.222     1.469 -38.65   3
        22    168.1991    960.7775 299.9135662 +22.7006717     1813.494     72.35835      9.768    12.78     43.09289     20.43532     43.45678        45     2.844     1.597  25.09   3
        23     18.9538   1009.4024 299.8513747 +22.6698090     1329.078     72.45063      9.938    14.77     -9.28387     20.43532     37.89722        32     2.802     2.166   3.47  19
        24    694.6197    963.4835 300.0764958 +22.8593554     6870.006     72.37681      1.856     3.96     2.969721     20.43532     414.7997        46     1.478     1.411  55.55   0
        25    281.1359    984.1613 299.9410700 +22.7412682     8293.124     72.41373      9.500    34.20     35.51558     20.43532     166.9733       847    11.618     5.162  62.33  19
        26    574.1475    956.9330 300.0411052 +22.8213530      577.268     72.45063      1.800     5.22     2.913544     20.43532     44.99158         7     1.700     0.452  54.25   0
        27     12.3658    999.4119 299.8525788 +22.6649680     1968.492     72.41373     15.291    20.96    -13.74027     20.43532     50.51065        87     5.235     2.332 -89.97  19
        28    681.8432    994.1695 300.0625313 +22.8643320     9070.064     72.46907      1.901     4.57       2.9194     20.43532     546.3365        49     1.539     1.418  69.24   3
        29    286.5481    957.1982 299.9515250 +22.7351601     17.16281     72.39527      1.156     3.40     20.45175     20.43532     33.06659         5     0.760     0.440 -67.92   0
        30    602.9745    954.1464 300.0509883 +22.8291975     1612.768     72.45063      1.962     4.55     2.932191     20.43532     112.0792        27     1.409     1.243  -3.15   0
        31     25.5314    982.1537 299.8622829 +22.6639747     795.1957     72.41373      3.042     5.11   -0.2907068     20.43532     50.00617         9     1.482     0.499  89.19   0
        32    496.9058    950.4380 300.0191713 +22.7963248     1043.927     72.41373      1.794     4.80     3.056625     20.43532      81.5607        23     1.353     1.206 -20.67   0
        33    427.5117    948.6396 299.9981595 +22.7749949     6497.934     72.41373      1.829     3.98     3.694673     20.43532     443.7501        41     1.406     1.367 -17.28   0
        34    460.2620    935.5212 300.0126187 +22.7810547      474.458     72.50594      1.758     4.03     3.298827     20.43532     44.48363         7     1.135     0.409 -15.71   0
        35    973.8439    927.3762 300.1752850 +22.9326740     2088.116     72.46907      2.000     5.06     3.411525     20.43532     108.6448        31     1.539     1.293 -32.88   0
        36    623.8779    924.7593 300.0670581 +22.8270313     565.3642     72.41373      1.941     4.54     2.988152     20.43532      42.7897        10     1.215     1.011  57.76   0
        37    762.5089    916.6033 300.1129000 +22.8662490     838.8867     72.33987      1.969     8.20     3.178119     20.43532     46.53852        23     1.751     1.103  71.55   0
        38      4.6431    981.4681 299.8560180 +22.6575071     1420.782     70.94088     14.580    17.55    -13.95138     20.43532     35.26428        40     3.521     2.429  34.95  27
        39      5.1281   1012.8324 299.8459645 +22.6666408     2507.929     71.96947     16.333    45.51    -24.35043     20.43532     57.37598       372    11.603     4.955  79.92  27
        40    574.7675    911.3752 300.0561182 +22.8084651     525.6766     72.43218      1.908     6.65     3.010684     20.43532     36.83454        11     1.280     0.971 -77.04   0
        41    797.4133    910.7474 300.1256831 +22.8750293     1109.306     72.46907      1.823     3.82     3.249624     20.43532      81.2413        19     1.126     1.091 -40.04   0
        42    206.6100    978.5359 299.9197287 +22.7172908     831.8051     72.39527     12.891    10.06     58.13486     20.43532      44.0391        19     3.034     0.930  50.86   3
        43      7.0690    907.8329 299.8807230 +22.6371309     452.1419     72.41373      1.537     5.72      3.36252     20.43532     54.61197         9     1.354     0.851 -22.65  16
        44    819.7345    904.2632 300.1347496 +22.8798571     11224.61     72.46907      1.807     3.93     3.312221     20.43532     671.2006        53     1.472     1.410 -30.78   0
        45   1009.8676    903.9989 300.1941271 +22.9367514     361.9567     72.39527      1.672     5.87     3.580514     20.43532      38.8834         7     1.337     0.726 -80.58   0
        46    865.4141    904.3659 300.1489566 +22.8935758     383.4731     72.41373      1.604     6.04     3.348314     20.43532     38.36535        12     1.187     0.863  21.17   0
        47    210.2496    989.4561 299.9173074 +22.7215140      1086.61     72.46907      2.516     7.67     66.75114     20.43532     51.40441        22     1.714     1.087 -39.07   3
        48    173.6796   1017.4972 299.8968162 +22.7185771     1475.569     72.56121      3.202    12.95      90.5923     20.43532     62.32296        47     2.957     1.577 -24.69  16
        49    131.0782    895.8464 299.9231489 +22.6709150     1153.904     72.43218      4.979     5.39     8.688282     20.43532     59.63579        16     1.452     1.123 -50.01   0
        50    871.4060    891.9243 300.1548716 +22.8917984     325.5838     72.35835      1.432     5.74     3.410419     20.43532     38.39716        10     1.210     0.768  -8.20   0
        51    525.3145    892.3663 300.0469040 +22.7881812     452.9159     72.39527      1.597     2.37     2.999282     20.43532     60.92596         5     0.720     0.430  22.10   0
        52    210.9221    986.0479 299.9186253 +22.7207387     1000.578     72.43218      3.280     6.04     64.15879     20.43532      51.5406        16     1.823     0.935  16.84   3
        53    262.4022    994.6036 299.9318473 +22.7386409     5517.266     72.21045     10.207    41.22     51.44826     20.43532     102.4599       528     8.920     5.285 -59.04  19
        54    828.3666    886.3478 300.1432676 +22.8772996     1348.983     72.45063      1.767     4.06     3.425916     20.43532     109.6739        22     1.228     1.186 -50.67   0
        55    969.4089    979.8755 300.1568210 +22.9464232     799.8875     72.41373      2.138     7.53     3.060774     20.43532     43.55255        20     1.609     1.227 -14.24   0
        56    679.8204    883.7690 300.0978159 +22.8320368     462.5619     72.43218      1.665     6.05     3.303818     20.43532     38.20972        11     1.405     0.734 -15.49   0
        57    866.4285    879.9496 300.1572145 +22.8868679     803.7829     72.45063      1.701     3.99     3.479864     20.43532      61.1996        16     1.178     0.940 -34.58   0
        58    541.5704    985.2172 300.0217601 +22.8196990     486.3748     72.41373      1.793     4.74     2.912879     20.43532     42.04501         6     1.175     0.541  64.39   0
        59    914.8420    870.8751 300.1752617 +22.8987678     463.5482     72.41373      1.599     4.74     3.510194     20.43532     43.32695        10     1.081     0.924  19.57   0
        60    766.3527    869.7717 300.1293301 +22.8539548     790.7691     72.45063      1.803     5.04     3.517806     20.43532     56.34714        16     1.166     1.081 -78.10   0
        61    777.3957    866.9373 300.1336935 +22.8564505     590.5836     72.41373      1.731     5.99     3.536333     20.43532     51.06553        13     1.072     0.941 -31.89   0
        62    478.6760    866.2524 300.0408792 +22.7667020     4389.898     72.43218      1.693     3.47     3.050753     20.43532      350.035        38     1.353     1.257   5.72   0
        63    257.8944    855.2674 299.9757668 +22.6973294     257.1306     72.57963      1.526     4.03     5.397838     20.43532     45.84513         5     0.818     0.572 -76.55   0
        64    204.2178    852.0034 299.9601395 +22.6802894      598.882     72.35835      1.511     4.19     6.385301     20.43532     74.59382        13     1.165     0.883  -9.49   0
        65    181.1350    849.0557 299.9539226 +22.6725183     1594.305     72.48751      1.789     3.84     6.267809     20.43532     134.9315        24     1.378     1.111 -30.59   0
        66    112.0430    849.7120 299.9322358 +22.6519745     475.6954     72.43218      2.051     6.46     4.856121     20.43532     38.59747        10     1.406     0.832  20.43   0
        67     56.3504    838.8281 299.9184704 +22.6321407     373.1521     72.45063      1.657     5.17      4.29533     20.43532     31.51524         7     1.221     0.619  52.26   0
        68   1007.0201    836.6506 300.2151431 +22.9165503     2128.999     72.41373      1.872     4.82     3.551367     20.43532     122.2589        29     1.392     1.293  39.44   0
        69    712.8621    836.9360 300.1233403 +22.8284951     393.7896     72.46907      1.748     6.28     3.402364     20.43532     31.17353         9     1.208     0.918 -60.91   0
        70    790.6816    830.7731 300.1495947 +22.8500472     585.0549     72.41373      1.698     5.77     3.519371     20.43532     54.54606        14     1.065     0.950  10.07   0
        71    213.5180    830.5656 299.9700013 +22.6769312     364.0096     72.39527      1.403     4.49     5.541316     20.43532     47.99919         7     0.942     0.800 -86.78   0
        72    658.7658    824.5355 300.1105197 +22.8087206     4782.053     72.43218      1.603     3.26     3.357724     20.43532     400.3111        35     1.289     1.211 -37.52   0
        73    148.7998    825.1870 299.9516328 +22.6559713     453.3405     72.24745      1.596     4.24     5.138834     20.43532     49.05972         7     0.938     0.673  -8.49   0
        74    461.0870    821.6161 300.0499193 +22.7486185     731.4883     72.37681      1.533     4.15       3.4176     20.43532     62.40342        14     1.077     0.923   1.23   0
        75    208.8882    818.1744 299.9725907 +22.6719882     1375.565     72.37681      1.725     3.76      5.02118     20.43532     110.5237        23     1.280     1.144  -9.07   0
        76    679.5193    816.7784 300.1195069 +22.8127140     748.6096     72.39527      1.615     3.75     3.318277     20.43532      71.0496        13     1.104     0.820  41.75   0
        77    228.5605    815.1340 299.9796952 +22.6770178     463.0634     72.39527      1.620     4.58     4.858825     20.43532     43.76796         7     1.059     0.562  66.47   2
        78    834.7970    804.3586 300.1719347 +22.8556798     4276.731     72.45063      1.677     3.39     3.601447     20.43532     323.3778        35     1.309     1.256  -9.66   0
        79    242.9875    798.4505 299.9896047 +22.6765601     453.4448     72.48751      1.522     4.51     4.312682     20.43532     47.36257         8     1.036     0.562 -19.62   0
        80    551.8685    796.5687 300.0863222 +22.7686480     531.8837     72.41373      1.360     3.19       3.4455     20.43532     82.22428        13     1.056     0.887  23.09   0
        81    198.2657    794.3913 299.9770203 +22.6619798     932.4503     72.39527      1.626     3.35     4.322028     20.43532     116.4168        18     1.165     1.024 -39.00   0
        82    613.0042    790.0533 300.1074777 +22.7851042     474.2754     72.41373      1.437     5.45     3.459422     20.43532     57.07894        11     1.093     0.768  64.01   0
        83    347.8063    786.6628 300.0260356 +22.7046177     53577.77     72.39527      1.628     3.29     3.675449     20.43532     4842.041       103     1.476     1.417  32.16   0
        84    605.7618    785.7582 300.1066186 +22.7817002     1756.864     72.52437      1.575     3.11     3.479914     20.43532     176.1211        20     1.194     1.004  -5.00   0
        85   1018.5234    785.0621 300.2355062 +22.9051729     853.3445     72.48751      1.814     5.48     3.617303     20.43532     65.35089        17     1.342     1.026  70.37  16
        86    275.7671    784.7595 300.0042484 +22.6824652     487.3871     72.48751      1.528     5.15     4.233227     20.43532     54.93051         6     1.084     0.693  59.15   0
        87    634.4082    781.5985 300.1168927 +22.7890924     937.0634     72.24745      1.552     3.97     3.450093     20.43532     91.62678        17     1.252     0.876  38.22   0
        88     34.1058    781.6083 299.9301618 +22.6090589     764.2559      72.3214      1.653     4.88     4.368017     20.43532     83.30827        12     1.417     0.845 -29.79   0
        89      1.8854    781.6592 299.9201368 +22.5994043     418.0485     59.55344      1.302     2.92     4.415555     20.43532     75.06381        10     0.962     0.727 -75.29  24
        90    645.5161    780.1025 300.1208389 +22.7919922     559.6738     72.59804      1.461     3.97     3.438814     20.43532     58.05506        15     1.092     0.935  72.24   0
        91    750.5316    776.1868 300.1548298 +22.8223397     435.9026     72.45063      1.612     5.73      3.45796     20.43532     46.51096         9     1.198     0.771  39.52   0
        92    788.7350    766.7042 300.1698186 +22.8310635     736.1883     72.54279      1.510     3.62     3.662783     20.43532     75.09766        16     1.109     0.991 -33.26   0
        93    397.5320    763.8925 300.0489077 +22.7129956     31597.64     72.56121      1.587     3.17     3.777456     20.43532     3302.604        75     1.385     1.355  -5.26   0
        94    411.7365    764.4368 300.0531506 +22.7174111     1987.844     72.43218      1.638     3.25     3.801574     20.43532     195.3478        23     1.157     1.087  49.78   0
        95    920.6779    760.0474 300.2131183 +22.8686791     2835.278     72.43218      1.672     3.57     3.927636     20.43532     208.0747        26     1.231     1.174  36.46   0
        96    408.9136    758.5962 300.0541707 +22.7148885     645.0238     72.35835      1.616     3.83     3.824994     20.43532     51.84695        10     1.038     0.722   2.88   0
        97    678.4006    755.7923 300.1389853 +22.7948674     952.1694     72.24745      1.537     3.41     3.527558     20.43532     106.0122        16     1.125     0.906  36.68   0
        98    514.8179    756.0903 300.0879461 +22.7459213     439.4886     72.35835      1.770     4.00     3.622351     20.43532     46.50476         8     1.122     0.667   1.30   0
        99    280.0585    755.5340 300.0150829 +22.6753677     880.0215     72.46907      1.512     3.25     4.089353     20.43532     109.0719        13     1.092     0.791  64.95   0
       100     84.7597    751.4474 299.9557024 +22.6156093     523.0211     72.48751      1.678     5.29     4.216201     20.43532     40.01652         8     1.091     0.725 -25.03   0
       101    525.6469    750.8025 300.0930361 +22.7476497      928.028     72.43218      1.598     3.07     3.620063     20.43532      98.8588        15     1.064     0.868   0.45   0
       102    926.7648    748.0033 300.2189317 +22.8670419     518.1365     72.43218      1.538     4.39     4.010502     20.43532     47.74692        10     1.024     0.793 -50.58   0
       103    471.3194    745.3791 300.0778877 +22.7298061     438.6989     72.39527      1.534     3.75     3.744535     20.43532     51.27683         9     1.116     0.767  38.94   0
       104    383.8393    746.2079 300.0503957 +22.7038147     412.8096     72.45063      1.508     4.73     3.835304     20.43532     43.30036         8     0.981     0.704  28.05   0
       105    113.4295    745.2299 299.9666320 +22.6224279     560.2673     72.39527      2.154     4.50     4.163652     20.43532     58.99205         9     1.046     0.906 -38.85   0
       106    679.6996    745.3593 300.1427813 +22.7922608     370.8326     72.41373      1.557     4.85     3.588995     20.43532     40.55088         6     0.981     0.679  15.80   0
       107    904.4006    742.6571 300.2136953 +22.8588071     435.0733     72.35835      1.666     4.15      3.99399     20.43532     48.12807         8     1.087     0.615  14.67   0
       108    277.7249    739.9426 300.0194248 +22.6701944     560.1536     72.46907      1.590     5.78     4.017075     20.43532     49.29351        11     1.128     0.833  31.48   0
       109    601.0087    730.9266 300.1229620 +22.7645330     453.8404     72.41373      1.362     2.75     3.654495     20.43532     51.56998         9     0.791     0.732  24.72   0
       110    570.6614    728.7748 300.1142112 +22.7548193     595.3999     72.43218      1.383     3.19     3.669837     20.43532     92.76923         9     0.946     0.708 -40.01   0
       111    479.9599    727.7235 300.0863156 +22.7273286     366.6369     72.39527      1.424     4.33     3.787254     20.43532     44.99884         8     1.081     0.623  64.52   0
       112    987.1013    725.2461 300.2451485 +22.8785738     4685.661     72.45063      1.721     3.54     3.894773     20.43532     341.8898        39     1.375     1.326  81.43   0
       113    592.4719    726.2042 300.1218384 +22.7606184     1395.824     72.37681      1.483     3.09     3.675633     20.43532     135.9234        17     1.042     0.932  14.17   0
       114    512.4099    725.6984 300.0970749 +22.7364751     301.5061      72.3214      1.325     3.89     3.745716     20.43532     41.60412         7     0.981     0.596 -63.71   0
       115    673.5168    720.9461 300.1487903 +22.7833972     328.9613     72.46907      1.611     5.00     3.645843     20.43532     40.37053         7     0.964     0.733 -24.00   0
       116    975.5161    716.8260 300.2442714 +22.8726846     1700.189     72.41373      1.706     3.73     3.958695     20.43532     142.3933        25     1.201     1.181 -69.93   0
       117    338.3177    710.4154 300.0478669 +22.6798930     758.9951     72.41373      1.432     3.42     3.871351     20.43532     98.02863        15     1.122     0.937 -38.34   0
       118    801.8365    707.9821 300.1929896 +22.8181214     2541.931     72.43218      1.570     2.95     3.872846     20.43532     259.5987        31     1.345     1.145  12.95   0
       119   1006.6063    706.6938 300.2572634 +22.8790833     1702.061      72.3214      1.861     4.01     3.909053     20.43532     119.6705        28     1.366     1.226  77.35   0
       120     24.5853    697.9999 299.9543770 +22.5822267     760.6058     72.28444      1.529     3.89     4.397716     20.43532     97.78281        14     1.265     0.925  72.06   0
       121    884.4283    693.9775 300.2232895 +22.8388384     625.0485     72.43218      1.681     3.99     4.097013     20.43532     61.63781        12     1.110     0.830  30.49   0
       122    187.1239    694.1740 300.0061290 +22.6298894      616.601     72.45063      1.513     3.75     4.083977     20.43532     61.86168         9     0.941     0.695 -29.95   0
       123    920.3228    684.8625 300.2374450 +22.8469700     148920.5     72.50594      1.610     3.24     4.135873     20.43532     12308.81       162     1.513     1.499 -63.10   0
       124    682.3730    688.4912 300.1620969 +22.7767303     313.5131     72.37681      1.271     3.89     3.683829     20.43532     54.46119         6     0.898     0.482  86.91   0
       125    427.1801    689.3787 300.0823508 +22.7004989     186.4538     72.43218      1.423     3.53     4.045543     20.43532     29.18711         5     0.798     0.451  15.83   0
       126    772.5607    685.1096 300.1912982 +22.8027804     736.2599     72.43218      1.343     3.61     3.833442     20.43532     76.85197        11     0.983     0.850  20.44   0
       127    953.5428    677.5972 300.2501668 +22.8548309      370.267     72.39527      1.386     4.93     4.114067     20.43532     46.56886         9     1.029     0.669 -26.56   0
       128    606.5541    673.5778 300.1433266 +22.7497275     1587.716     72.46907      1.403     2.80     3.843688     20.43532     197.1242        18     1.057     0.970  65.25   0
       129    787.7657    671.0034 300.2006212 +22.8032832     9210.423     72.43218      1.468     2.78     3.875631     20.43532     1033.843        43     1.232     1.183  15.44   0
       130    269.7045    672.5199 300.0388410 +22.6484432     306.2966     72.54279      1.661     3.32     3.829838     20.43532      42.4207         5     1.023     0.312  70.02   0
       131    289.2565    665.9456 300.0470576 +22.6524197      4941.92     72.48751      1.510     3.01     3.781877     20.43532      541.441        33     1.249     1.140  35.73   0
       132    371.2369    664.1297 300.0731483 +22.6764795     1205.289     72.41373      1.581     3.17     4.026223     20.43532     129.8745        19     1.090     1.050  15.78   0
       133      3.0830    664.2654 299.9586588 +22.5661006     1504.981     65.39302      1.723     3.47     4.418866     20.43532     164.2839        23     1.287     1.176  41.78  24
       134    246.8719    661.6141 300.0352845 +22.6384667     474.6389     72.43218      1.496     5.96     3.866883     20.43532     57.18442        13     1.193     0.923 -75.90   0
       135    579.7352    659.5717 300.1395259 +22.7376683      750.787     72.43218      1.521     3.26     3.999947     20.43532     79.38682        13     1.050     0.805  29.07   0
       136    571.2175    651.7992 300.1393990 +22.7328838     3257.024     72.33987      1.395     2.68     4.102398     20.43532     398.6523        28     1.188     1.035  44.40   0
       137    561.5547    645.6010 300.1384040 +22.7282081     1423.316     72.43218      1.422     2.99     4.204799     20.43532     187.5429        18     1.084     0.973  -7.88   0
       138    954.8146    643.8129 300.2615417 +22.8455024      518.266     72.35835      1.435     4.30     4.181517     20.43532     61.19446         7     0.935     0.562  10.90   0
       139    472.2418    642.8629 300.1114892 +22.7006536     381.0111     72.41373      1.461     3.93      4.20827     20.43532     38.61394         6     0.802     0.553 -46.37   0
       140    224.7582    641.6074 300.0349087 +22.6260942     780.1292     72.45063      1.696     3.93     3.863677     20.43532     78.22976        18     1.236     1.056 -56.22   0
       141    239.1365    639.9421 300.0399203 +22.6299281     544.5515     72.48751      1.415     3.71     3.840353     20.43532     67.93981        10     0.966     0.846 -81.05   0
       142   1008.1948    636.7686 300.2804823 +22.8594612     479.4622     72.41373      1.618     6.06      4.03751     20.43532     37.75809        11     1.189     0.867  61.85   0
       143    264.7383    636.7995 300.0489023 +22.6367035     600.7299     72.39527      1.551     3.85     3.802749     20.43532     61.78731        13     1.088     0.857  57.78   0
       144    585.1337    636.0333 300.1488549 +22.7325267     317.8351     72.43218      1.171     2.88      4.13707     20.43532     58.64125         7     0.848     0.554  40.35   0
       145    486.3334    635.3124 300.1183285 +22.7027095     1752.469     72.52437      1.391     2.74     4.256987     20.43532     188.8538        20     1.047     0.982  67.58   0
       146    140.2195    630.0571 300.0123814 +22.5974263     20043.32     72.45063      1.633     3.16     4.037107     20.43532     2152.358        68     1.440     1.380  26.49   0
       147     61.3029    631.8674 299.9872703 +22.5742743     731.7728     72.52437      1.930     4.55     4.151392     20.43532     71.62241        14     1.296     0.913  19.09   0
       148    571.1324    630.5243 300.1462847 +22.7267489     1129.626     72.50594      1.547     2.95     4.278593     20.43532     140.3829        15     1.038     0.884  83.22   0
       149    606.5383    629.8549 300.1575280 +22.7371664     387.9197     72.50594      1.127     2.59     4.002262     20.43532     80.77941         6     0.885     0.490  26.34   0
       150    942.8970    626.5825 300.2634230 +22.8369817     248.4928     72.33987      1.159     3.82     4.257136     20.43532     40.14994         5     0.874     0.478   9.55   0
       151    324.4946    622.5234 300.0721250 +22.6505235      283.302     72.56121      1.697     5.64     3.927344     20.43532     46.64103         7     1.330     0.711   9.10   0
       152    989.1947    616.8942 300.2810122 +22.8480597     1070.989      72.3214      1.538     3.22     4.098265     20.43532     106.3625        17     1.165     0.925  -9.15   0
       153     86.2508    614.2616 300.0007410 +22.5767073     1657.369     72.48751      2.044     4.52     4.091558     20.43532     136.1216        29     1.631     1.146 -86.27   0
       154    855.8209    614.9312 300.2400549 +22.8075570     331.2061     72.43218      1.364     5.37     4.328529     20.43532     40.31055        10     0.954     0.855  60.76   0
       155    152.9890    615.1340 300.0211981 +22.5969745     323.4423     72.37681      1.315     3.77     3.973879     20.43532     38.60983         5     0.817     0.499 -55.80   0
       156    534.5208    611.1496 300.1411794 +22.7102134     515.1923     72.43218      1.474     4.19     4.659141     20.43532     52.49758         8     0.882     0.695 -32.94   0
       157    929.4622    609.6559 300.2647321 +22.8280939     925.8608     72.48751      1.968     2.85     4.362764     20.43532     84.66187        14     1.040     0.822  48.44   0
       158    327.4295    610.2084 300.0770385 +22.6478687     395.1896     72.43218      1.285     2.55     3.952256     20.43532     49.79125         6     0.715     0.618 -27.65   0
       159    491.2268    603.4182 300.1302131 +22.6950184     757.7062     72.43218      1.391     2.94     4.417235     20.43532     96.67295        13     1.011     0.802  68.92   0
       160    639.3051    602.2269 300.1767091 +22.7390493     541.7819     72.35835      1.372     2.85     4.130116     20.43532     75.10124        10     0.877     0.754 -39.80   0
       161    686.5297    600.4766 300.1919889 +22.7526950     461.3271     72.54279      1.432     3.45     4.083007     20.43532     59.74565         7     0.957     0.475  79.41   0
       162    657.3015    599.8637 300.1830826 +22.7437624     658.4551     72.54279      1.594     3.90     4.122622     20.43532      65.7622        10     0.975     0.772 -86.77   0
       163    535.5306    599.5273 300.1452693 +22.7071785     899.5236     72.50594      1.320     2.87     4.724427     20.43532     96.98752        14     0.960     0.867 -15.89   0
       164    969.3143    594.8880 300.2819598 +22.8357819     3415.247     72.56121      1.567     3.06     4.196616     20.43532     331.8932        31     1.216     1.165  56.76   0
       165    501.1991    594.7532 300.1361321 +22.6955190     1760.071     72.43218      1.387     2.72     4.494942     20.43532     212.5731        19     1.043     0.981 -53.99   0
       166    866.9761    592.7159 300.2507499 +22.8045137      344.436     72.39527      1.508     4.32      4.42105     20.43532     38.12547         6     1.130     0.471  65.01   0
       167    476.6467    589.8482 300.1300827 +22.6867522     253.0244     72.45063      1.297     4.43     4.351777     20.43532     36.32115         6     0.997     0.559  24.50   0
       168     62.9065    588.1516 300.0019685 +22.5622148      5099.94     72.46907      1.685     3.31     4.221595     20.43532     473.3914        40     1.399     1.289  34.55   0
       169    322.1090    586.5656 300.0830634 +22.6394872     219.5032     72.41373      1.105     3.47     3.991961     20.43532     34.66998         5     0.784     0.444 -19.94   0
       170   1008.6613    584.8762 300.2974869 +22.8446840     364.8549     72.48751      1.568     5.08     4.028029     20.43532     37.46309         8     1.037     0.810   0.50   0
       171    530.2178    585.4105 300.1482009 +22.7015325     416.6188     72.39527      1.664     4.31     4.740045     20.43532     47.66038         6     0.853     0.624  30.38   0
       172    364.4884    581.4340 300.0979136 +22.6507186     9006.136     72.41373      1.438     2.63     4.225945     20.43532     1101.989        43     1.231     1.183  54.88   0
       173    486.9155    578.4962 300.1369665 +22.6865701     8960.819     72.61644      1.373     2.62     4.402535     20.43532     1115.237        41     1.173     1.138  25.98   0
       174    733.7031    575.0060 300.2149610 +22.7595090     321.0519     72.33987      1.435     2.33      4.16866     20.43532     47.53249         5     0.760     0.466  26.14   0
       175    898.6360    572.6219 300.2671493 +22.8082193     1856.294     72.45063      1.487     2.86     4.424144     20.43532     197.3891        24     1.145     1.091  65.42   0
       176    983.2797    569.9597 300.2944140 +22.8327972     12740.52     72.41373      1.562     3.12     4.150533     20.43532     1135.776        49     1.301     1.285 -33.12   0
       177    547.5421    568.0899 300.1592207 +22.7017496     11694.65     72.50594      1.390     2.55     4.930987     20.43532     1387.506        42     1.191     1.139  78.02   0
       178    717.0436    564.1140 300.2133078 +22.7513894     424.0503     72.41373      1.212     3.37     4.236491     20.43532      57.0276         9     0.829     0.725  35.76   0
       179    274.7621    563.4749 300.0758373 +22.6186646     1441.199     72.37681      1.551     3.27     3.850017     20.43532     147.6757        21     1.192     1.016  19.77   0
       180    432.6921    563.2089 300.1250552 +22.6659296     314.5621     72.35835      1.358     3.16     4.351777     20.43532     44.81916         5     0.923     0.399   5.35   0
       181    521.8707    561.2546 300.1534481 +22.6920940     472.4829     72.46907      1.483     2.75     4.751988     20.43532     56.46313         7     0.818     0.558  21.39   0
       182    479.1979    556.2092 300.1418029 +22.6778573     4414.122     72.24745      1.355     2.59     4.351777     20.43532     485.9832        31     1.169     1.099 -88.74   0
       183    822.2839    556.5793 300.2485546 +22.7807447     899.3544     72.37681      1.468     2.51     4.480646     20.43532     91.31763        13     0.904     0.819 -30.31   0
       184    457.4593    554.6782 300.1355339 +22.6709029     1282.831     72.46907      1.411     2.35     4.351777     20.43532       178.05        15     0.963     0.829  44.63   0
       185    211.7051    554.1633 300.0592540 +22.5970861     585.4672     72.43218      1.363     4.50     3.960614     20.43532     82.28667        14     1.228     0.949  -7.86   0
       186    898.9661    551.9476 300.2739675 +22.8023759     1596.804     72.45063      1.507     3.11     4.453388     20.43532     158.6158        25     1.224     1.117 -53.26   0
       187    145.4971    551.4824 300.0395433 +22.5764637      219.711     72.59804      1.031     3.61     4.128207     20.43532     41.62817         6     0.929     0.403  69.34   0
       188    999.9930    550.9699 300.3057961 +22.8323415     339.5939     72.43218      1.626     5.30      4.09006     20.43532      26.2948         5     1.476     0.537 -13.07   0
       189    595.8405    543.8387 300.1821370 +22.7092556     201388.7     72.50594      1.407     2.57     5.062026     20.43532      27563.4       199     1.449     1.410  -9.24   0
       190    779.5649    548.9033 300.2377319 +22.7657452     599.9214     72.43218      1.281     2.95     4.445683     20.43532     97.62325        13     1.016     0.839 -67.71   0
       191    419.6396    550.1373 300.1252387 +22.6582643     424.4697     72.43218      1.448     2.98     4.351777     20.43532      57.3134         8     0.939     0.577  25.56   0
       192    872.6206    547.1729 300.2673032 +22.7931149     81.86774     72.43218      1.111     3.40     4.518572     20.43532     31.97347         5     0.781     0.428 -69.49   0
       193    281.8586    543.7783 300.0844410 +22.6151385     3517.724     72.43218      1.487     2.74      3.87762     20.43532     417.7791        28     1.186     1.087  48.51   0
       194    461.0564    540.9011 300.1411278 +22.6680247     326.8529     72.52437      1.435     3.35     4.351777     20.43532     37.40557         7     0.835     0.673 -53.84   0
       195    848.0867    540.1812 300.2619246 +22.7837590     514.4214     72.37681      1.375     2.82     4.540201     20.43532     59.10514         8     0.844     0.603 -43.64   0
       196    866.5615    538.7029 300.2681648 +22.7888662     223.4749     72.41373      1.263     4.06     4.536402     20.43532        32.23         6     0.882     0.535 -48.79   0
       197    627.7217    530.4686 300.1964085 +22.7149662     184.8701     72.54279      1.089     2.98     4.836662     20.43532     42.68959         5     0.713     0.468 -18.74   0
       198    486.3976    524.4760 300.1543496 +22.6709018     2840.885     72.33987      1.581     2.60     4.404619     20.43532     335.5152        31     1.605     0.979 -86.57   0
       199    330.7001    526.2444 300.1053263 +22.6247464     451.9219     72.45063      1.478     2.65     4.234724     20.43532     60.44796         7     0.822     0.574  64.52   0
       200    803.8553    512.8114 300.2570244 +22.7626477     367.9817     72.43218      1.383     3.19     4.537697     20.43532     57.48729         8     0.944     0.620  13.83   0
       201    883.4199    510.4228 300.2826056 +22.7857854     1521.911     72.43218      1.345     2.44     4.494179     20.43532     201.6989        19     1.089     0.932  53.56   0
       202    754.5477    507.9997 300.2432188 +22.7464987     2710.556     72.39527      1.408     2.61     4.394342     20.43532     320.2922        26     1.168     1.066 -84.60   0
       203     13.6771    508.7909 300.0124463 +22.5246812      726.908     72.39527      1.404     3.12     4.693408     20.43532     89.85268        12     1.079     0.748  59.08   0
       204    113.8036    508.3988 300.0436834 +22.5545964     331.8657     72.21045      1.555     3.72     4.169475     20.43532     36.31325         5     1.075     0.489  -0.91   0
       205    964.4138    505.0940 300.3095961 +22.8085015     242.2535     72.35835      1.462     5.41     4.135809     20.43532     35.51702         7     1.191     0.694 -87.24   0
       206    997.6689    501.5986 300.3211052 +22.8174512     1092.914     72.37682      2.139     4.94     3.886874     20.43532     87.89078        18     1.619     0.855  78.10   2
       207    659.6281    504.7673 300.2146933 +22.7171403     466.2447     72.43218      1.131     2.97      4.48015     20.43532     75.85003         7     0.848     0.734 -37.47   0
       208    542.2108    504.1699 300.1783192 +22.6817933     763.8935     72.43218      1.297     2.61     4.972173     20.43532      110.323        13     0.933     0.844 -28.43   0
       209   1012.0493    502.1191 300.3254227 +22.8219053     1216.491     72.46907      1.455     3.05      3.78778     20.43532     132.2705        22     1.416     0.970 -27.87   0
       210    883.8376    500.6666 300.2859041 +22.7831060     2113.072     72.41373      1.561     2.94     4.490125     20.43532     250.1667        26     1.348     1.015  78.96   0
       211    637.0804    498.7095 300.2096367 +22.7086458     743.3929     72.54279      1.587     2.13     4.713327     20.43532     86.33702         7     0.685     0.649 -30.10   0
       212    475.5535    497.3011 300.1597983 +22.6598479     319.5628     72.45063      1.354     2.40     4.351777     20.43532     57.49118         6     0.818     0.459  -1.04   0
       213    562.9458    494.8929 300.1877878 +22.6853407     164.4554     72.48751      1.318     4.37     4.991883     20.43532     33.97568         6     1.000     0.554  78.47   0
       214    921.8923    495.6127 300.2994125 +22.7930463     4348.527     72.37681      1.435     2.53     4.390788     20.43532     577.4525        30     1.145     1.100  64.08   0
       215    659.2889    492.3287 300.2186266 +22.7134649      175.151     72.59804      1.132     3.45     4.486403     20.43532     41.78851         5     1.123     0.306 -53.31   0
       216    582.1719    491.6312 300.1948339 +22.6901636     282.7451     72.43218      1.332     2.13     4.988469     20.43532     64.17602         5     0.735     0.401 -25.82   0
       217    153.9013    485.8772 300.0634581 +22.5601563     1118.707     72.56121      1.548     3.90     4.081306     20.43532     120.9208        21     1.306     1.060  59.28   0
       218   1013.4636    485.9501 300.3311144 +22.8176794     770.9862     72.48751      1.454     3.54     3.684529     20.43532     77.34905        13     1.058     0.855  37.28   0
       219    784.1915    483.0389 300.2605629 +22.7482027     179.7947     72.45063      1.218     3.73     4.486463     20.43532     43.08775         5     1.131     0.353  80.70   0
       220    814.4660    479.9087 300.2710161 +22.7563685     266.5361     72.56121      1.188     3.34       4.5341     20.43532     46.30447         5     0.780     0.576 -10.32   0
       221    420.3438    478.8746 300.1485983 +22.6380120     262.1779     72.46907      1.716     4.12     4.349762     20.43532     37.73767         5     0.950     0.694 -14.85   0
       222    200.9140    477.9648 300.0806414 +22.5719804     211.8757     72.41373      1.291     4.68     4.077182     20.43532     29.36183         5     1.229     0.505 -22.45   0
       223    146.5921    476.1416 300.0643469 +22.5551706     455.2077     72.41373      1.363     4.45      4.09037     20.43532     66.15622         8     1.008     0.655 -24.80   0
       224   1010.3755    475.1250 300.3336659 +22.8136424     265.3735     72.45063      1.369     4.02     3.695233     20.43532     48.65098         8     0.842     0.694 -10.97   0
       225    753.9457    470.1059 300.2553355 +22.7354285     462.7854     72.48751      1.336     3.88     4.387841     20.43532     60.97187         8     0.986     0.622  28.39   0
       226    643.1316    467.9619 300.2215051 +22.7016242     336.7517     72.39527      1.357     2.24     4.575338     20.43532     63.14021         8     0.768     0.713  89.30   0
       227    695.2230    466.0182 300.2383643 +22.7166677     792.1918     72.43218      1.383     2.92     4.345606     20.43532       87.417        11     0.893     0.806 -28.92   0
       228    483.5524    463.7909 300.1731682 +22.6526201     184.4963     72.45063      1.441     4.52     4.345602     20.43532     30.83516         5     1.184     0.491  85.77   0
       229   1010.0199    458.7499 300.3388717 +22.8088272     593.7632     72.41373      1.330     3.28     3.736148     20.43532     70.71988        11     0.929     0.831  42.45   0
       230    756.0404    458.2576 300.2598351 +22.7326507     725.5894     72.41373      1.224     2.74     4.382122     20.43532     105.0845        13     1.003     0.799  17.15   0
       231    913.4243    454.6305 300.3100782 +22.7787293     902.9613     72.43218      1.373     3.31     4.318172     20.43532     119.2077        14     1.121     0.824 -36.87   0
       232    897.6811    450.9400 300.3063668 +22.7729554     550.6254     72.48751      1.286     2.46     4.325558     20.43532     75.43587         9     0.843     0.659 -18.99   0
       233    878.7410    451.3434 300.3003297 +22.7674014     164.0545     72.50594      1.298     3.41     4.352608     20.43532     34.51141         5     0.754     0.447 -15.21   0
       234    641.9641    448.8226 300.2273551 +22.6957752     3194.412     72.45063      1.304     2.24     4.485517     20.43532     489.5388        24     1.035     0.958  59.36   0
       235   1002.4531    447.3535 300.3402110 +22.8032853     507.2364     72.46907      1.471     4.88     3.816543     20.43532     56.40751        13     1.259     0.868  82.17   0
       236    118.0405    440.1134 300.0671688 +22.5362697     241.0628     72.41373      1.297     2.96     4.283492     20.43532      43.3871         5     0.786     0.501 -54.07   0
       237    647.2827    436.5212 300.2330053 +22.6938335     188.6243     72.56121      1.105     4.08     4.411315     20.43532     46.10622         6     1.060     0.448  54.23   0
       238    482.0814    435.8627 300.1817768 +22.6441575     221.5853     72.54279      1.190     2.32     4.280717     20.43532     55.18505         6     0.727     0.547 -36.92   0
       239    413.3179    436.4224 300.1601937 +22.6237149     243.4154     72.39527      1.411     3.45     4.306093     20.43532     32.32734         5     0.771     0.447  19.49   0
       240    925.2264    427.6172 300.3225287 +22.7744954     449.7012     72.45063      1.233     2.94     4.218352     20.43532     68.02324         9     0.884     0.701  14.27   0
       241   1011.5056    426.4792 300.3498120 +22.7999917     1111.929     72.56121      1.629     3.61     3.810898     20.43532     105.1791        20     1.231     1.024  44.65   0
       242    661.8500    424.6161 300.2414079 +22.6947754     326.3219     72.45063      1.181     2.58      4.35156     20.43532      69.4556         7     0.881     0.556 -84.40   0
       243    752.6262    422.6382 300.2703345 +22.7213909     1101.174     72.45063      1.243     2.39     4.350106     20.43532     177.8788        17     1.120     0.841  86.80   0
       244    548.1987    423.3073 300.2064363 +22.6603582     507.5898     72.33987      1.153     2.17     4.353735     20.43532     77.01987         6     0.678     0.580  40.12   0
       245    256.3044    421.0848 300.1163286 +22.5722556     634.0384     72.61644      1.468     2.76     4.213185     20.43532     73.04189         9     0.911     0.646  58.65   0
       246    318.8081    416.5330 300.1372457 +22.5896816     3719.235     72.43218      1.400     2.52     4.305668     20.43532     503.2892        32     1.203     1.103  76.11   0
       247    266.0240    411.3073 300.1225247 +22.5723615      7558.39     72.35835      1.433     2.67     4.257921     20.43532     826.7976        40     1.228     1.166  72.57   0
       248    644.6440    410.3778 300.2406697 +22.6855308     384.3163     72.48751      1.636     2.54     4.320608     20.43532     55.29165         5     0.722     0.475 -83.26   0
       249    406.8188    405.5787 300.1681829 +22.6129090     4800.237     72.43218      1.362     2.47     4.329573     20.43532     675.4894        31     1.177     1.027  64.15   0
       250    651.0636    402.3206 300.2452847 +22.6851380     18561.18     72.54279      1.335     2.40     4.320681     20.43532      2502.01        52     1.203     1.154  88.11   0
       251    668.7583    402.2936 300.2508058 +22.6904294      815.889     72.45063      1.922     5.45     4.331468     20.43532      78.9875        16     1.451     0.947 -52.31   0
       252    894.5521    398.8932 300.3222866 +22.7570548     228.6787     72.45063      1.263     4.22     4.149212     20.43532     42.05084         5     0.780     0.652  20.01   0
       253    847.9384    392.7646 300.3097413 +22.7413393      376.734     72.45063      1.245     3.75     4.206171     20.43532     48.16298         7     0.763     0.635   9.91   0
       254    271.1627    389.4216 300.1312259 +22.5676175     369.7676     72.45063      1.248     3.62     4.281878     20.43532     51.66819         6     0.792     0.488  -7.13   0
       255    984.6594    385.1093 300.3548653 +22.7800600     711.0903     72.50594      1.529     3.52     3.904029     20.43532     83.57153        14     1.117     0.902 -40.96   0
       256    521.4521    384.0953 300.2108360 +22.6410806      404.924     72.50594      1.338     3.30      4.29669     20.43532     41.70308         7     0.899     0.599  35.61   0
       257    694.5301    382.9948 300.2650989 +22.6926005     315.8969     72.39527      1.435     3.80     4.294624     20.43532     46.25455         6     0.966     0.497  86.89   0
       258    205.8309    382.3218 300.1132151 +22.5459979     2018.403     72.41373      1.486     2.67     4.091736     20.43532     230.8582        25     1.144     1.131  40.52   0
       259    591.7062    371.7895 300.2367057 +22.6585876     6613.518     72.37681      1.319     2.28     4.295025     20.43532       985.62        36     1.170     1.040  80.32   0
       260   1005.4351    372.2944 300.3655061 +22.7825917     1169.387     72.43218      1.457     2.90     3.844063     20.43532     144.5408        19     1.101     0.997  86.39   0
       261    306.4757    370.9916 300.1481901 +22.5729080     532.1592     72.41373      1.244     3.11     4.349974     20.43532     74.89003        11     1.022     0.668  42.96   0
       262    164.1090    364.2534 300.1061081 +22.5283047     538.7202     72.48751      1.357     3.39     4.098545     20.43532     59.41064        10     0.973     0.775 -42.38   0
       263    851.9858    363.5329 300.3204906 +22.7341464     319.2543     72.41373      1.238     4.49     4.178617     20.43532     49.67036         8     0.917     0.664 -52.82   0
       264     11.4741    361.9421 300.0594272 +22.4818826     1212.928     72.46907      1.519     3.48     4.700877     20.43532     151.0513        19     1.185     1.051   2.31   0
       265    705.6557    361.8450 300.2754294 +22.6898530     586.9231     72.46907      1.378     4.06     4.243423     20.43532     79.29536        10     0.932     0.800  87.71   0
       266    795.9391    360.8119 300.3039012 +22.7165864     1161.259     72.39527      1.391     2.81     4.185007     20.43532     143.1056        14     0.949     0.874  74.65   0
       267    498.3696    358.0072 300.2121163 +22.6266711     6236.004     72.43218      1.352     2.51     4.334734     20.43532     740.0558        33     1.169     1.044  60.10   0
       268    987.8562    352.8047 300.3663471 +22.7717258     527.4044     72.39527      1.357     2.97     3.855437     20.43532     64.60811        11     0.911     0.806  37.22   0
       269    890.3813    352.3797 300.3360823 +22.7424319     1360.656     72.43218      1.412     2.75     4.075845     20.43532     174.5656        18     1.068     0.950  78.88   0
       270    482.8906    346.2860 300.2111014 +22.6186669     553.3616     72.59804      1.349     3.56     4.351624     20.43532     70.35442        10     1.110     0.651  63.99   0
       271    565.5945    344.7771 300.2373402 +22.6430051     491.3861     72.41373      1.276     2.01     4.305628     20.43532     69.28595         6     0.656     0.597 -26.35   0
       272    843.3197    343.6009 300.3242571 +22.7258214     261.1417      72.3214      1.188     4.81     4.158669     20.43532     38.58935         7     0.912     0.718  69.59   0
       273      9.8374    343.3560 300.0649495 +22.4760576     893.9244     72.50594      1.482     3.12      4.78139     20.43532     99.63966        17     1.065     0.975  23.76   0
       274    546.0892    342.5326 300.2319948 +22.6365182     173.9328     72.57963      0.977     2.37     4.305388     20.43532     50.65418         6     0.748     0.499  -0.65   0
       275    863.0320    340.2744 300.3314826 +22.7307652     509.7726     72.43218      1.259     2.52     4.170901     20.43532     69.04574        10     0.844     0.724  75.13   0
       276    367.7476    339.7225 300.1773978 +22.5822869     201.3948     72.45063      1.507     3.88     4.429301     20.43532     39.98265         5     0.851     0.508  45.73   0
       277    385.8721    337.1880 300.1838595 +22.5869891     2483.876     72.45063      1.356     2.55     4.484435     20.43532     318.1197        21     1.095     0.928  44.25   0
       278    104.4506    334.6320 300.0971771 +22.5019180     960.8257     72.46907      1.518     2.58     4.508453     20.43532     127.6441        14     0.948     0.904 -32.34   0
       279    734.0615    332.2030 300.2938998 +22.6898372     232.9925     72.41373      1.209     3.78     4.222239     20.43532     33.61247         5     0.836     0.490  61.14   0
       280    355.1838    326.6077 300.1777443 +22.5747556     29794.69     72.35835      1.392     2.50     4.414686     20.43532     3763.453        72     1.318     1.238  58.64   0
       281    889.8699    324.2630 300.3450468 +22.7341935      1349.48     72.46907      1.382     2.68     4.074174     20.43532     168.9799        19     1.035     0.963  76.26   0
       282     51.4929    314.3918 300.0872880 +22.4802326     4935.531     72.33987      1.663     2.96      4.79615     20.43532     559.9931        39     1.387     1.215  47.78   0
       283    229.3263    313.2865 300.1429211 +22.5332172     451.5283     72.56121      1.285     3.83     4.282141     20.43532     52.32116        11     1.010     0.793 -24.05   0
       284    805.2005    313.2073 300.3222358 +22.7056722     526.1185     72.24745      1.286     2.72     4.037913     20.43532     75.84637         7     0.798     0.644  50.78   0
       285    453.7895    311.9626 300.2131801 +22.6000886     524.2377     72.43218      1.225     3.00     4.419993     20.43532      67.4325         8     0.872     0.604 -80.44   0
       286    765.6580    306.4389 300.3121066 +22.6918894     1953.018     72.43218      1.334     2.34      4.15969     20.43532     275.3297        22     1.086     0.986 -62.67   0
       287    573.4927    301.1353 300.2539600 +22.6328290     288.0281     72.54279      1.255     2.53     4.366305     20.43532     56.07896         5     0.728     0.440  65.85   0
       288    980.9197    299.6268 300.3814389 +22.7543547     555.8771     72.43218      1.338     2.54      3.90644     20.43532     80.63574         9     0.847     0.674 -71.01   0
       289    503.4248    300.1370 300.2324673 +22.6115578     370.2715     72.41373      1.426     3.44      4.33118     20.43532     35.07031         5     0.748     0.458  71.60   0
       290    427.3655    291.0992 300.2117249 +22.5861792     2078.788     72.41373      1.364     2.67     4.485275     20.43532     241.7195        20     1.219     0.851  74.23   0
       291    639.7236    289.7006 300.2782978 +22.6493748     360.1649     72.56121      1.535     3.22     4.373628     20.43532     51.16412         6     0.919     0.653  70.82   0
       292    866.6687    283.9362 300.3508964 +22.7156527     656.0661     72.48751      1.236     3.07     4.187198     20.43532     89.17857        11     0.941     0.826  13.65   0
       293    749.2073    282.0064 300.3149064 +22.6799404     493.4166     72.28444      1.679     5.71     4.268699     20.43532     58.02571        12     1.530     0.797  64.80   0
       294      1.1354    281.4527 300.0823291 +22.4556810     222.3776     55.24646      0.918     2.18     5.254444     20.43532       60.378         5     0.849     0.333 -84.20  24
       295    717.2908    280.8148 300.3053469 +22.6700434      297.248     72.35835      1.368     4.46     4.333098     20.43532      37.7099         6     0.970     0.582  61.40   0
       296    217.5294    271.6555 300.1527584 +22.5177268      248.796     72.45063      1.378     5.66     4.375426     20.43532     34.39785         7     1.115     0.809  59.69   0
       297    503.3587    270.3604 300.2421067 +22.6029816     1104.475     72.52437      1.274     2.41     4.332788     20.43532     152.0919        15     0.975     0.837  72.66   0
       298    310.2522    270.6398 300.1819240 +22.5452177     352.4177     72.43218      1.562     3.74     4.499207     20.43532      36.8499         6     0.740     0.646  69.88   0
       299   1014.8857    266.6813 300.4027245 +22.7550398     330.4524     72.57963      1.260     2.41     3.892699     20.43532     50.42885         5     0.835     0.464  -3.26   0
       300    886.7073    263.9800 300.3636190 +22.7159103     382.1478     72.35835      1.434     3.06     4.152595     20.43532     39.89946         7     0.716     0.680  67.56   0
       301    748.2946    262.3839 300.3209876 +22.6740253     2159.458     72.35835      1.321     2.44     4.295107     20.43532     315.4091        21     1.049     1.013  83.20   0
       302   1009.4470    256.8177 300.4042273 +22.7505750     3172.436     72.46907      1.489     2.59     3.882422     20.43532     365.4748        33     1.345     1.096  72.29   0
       303    456.5025    246.4375 300.2352810 +22.5820740     677.0547     72.43218      1.284     2.83     4.387593     20.43532     84.65688        14     1.033     0.795  65.50   0
       304    162.2733    240.1342 300.1458038 +22.4921163     629.0616     72.46907      1.457     4.42     4.378685     20.43532     68.87143        11     1.215     0.785  67.49   0
       305    131.4915    240.2389 300.1362018 +22.4829217     1381.415     72.43218      1.799     3.10     4.475729     20.43532     126.9037        22     1.214     1.081 -35.47   0
       306    868.9258    234.3329 300.3676913 +22.7020623     303.8126     72.50594      1.434     4.46     4.395858     20.43532     50.64841         6     0.889     0.638  86.30   0
       307    215.5331    232.5033 300.1648368 +22.5058843     460.8037     72.52437      1.175     2.85     4.374067     20.43532      60.0968         6     0.854     0.440 -19.01   0
       308     71.0775    230.0069 300.1207452 +22.4618775     278.9954     72.35835      1.289     3.79     4.766762     20.43532     37.26986         5     0.816     0.506 -28.99   0
       309    891.3477    226.3734 300.3772648 +22.7064823     328.5439     72.45063      1.300     2.92     4.217966     20.43532     51.41868         6     0.863     0.476  89.09   0
       310    819.9719    223.7195 300.3558709 +22.6843602     689.9462     72.45063      1.360     3.21     4.365139     20.43532     112.5371        15     1.110     0.885  61.62   0
       311    409.9056    223.1295 300.2283387 +22.5614205     371.5927     72.54279      1.390     3.24     4.477301     20.43532     53.99393         8     0.941     0.680  22.41   0
       312    918.0039    212.9529 300.3899307 +22.7105978     2096.851     72.41373      1.395     2.79     4.072996     20.43532     258.9693        22     1.083     0.980  62.31   0
       313    336.5493    210.0306 300.2097624 +22.5356844     2078.003     72.46907      1.376     2.61     4.485393     20.43532      260.892        21     1.085     0.955  73.37   0
       314    414.5362    205.0347 300.2356481 +22.5576080     997.2805     72.43218      1.366     2.80     4.431382     20.43532     110.7424        15     1.119     0.811 -69.94   0
       315    816.3073    204.4638 300.3609737 +22.6777256     500.2915     72.54279      1.383     2.84     4.413404     20.43532     67.17577         9     0.884     0.690 -45.90   0
       316    166.5196    205.3400 300.1584079 +22.4833966     364.3075     72.48751      1.817     3.86     4.380456     20.43532      35.0363         6     0.903     0.474  -0.31   0
       317    923.7440    201.5915 300.3954057 +22.7090469      297.983     72.41373      1.201     4.64     4.141733     20.43532     41.95137         8     0.866     0.759 -49.21   0
       318     12.7613    198.8236 300.1127391 +22.4354457     352.6848     72.45063      1.296     2.24     5.125268     20.43532     44.53764         6     0.696     0.565  37.67   0
       319    231.0782    197.3403 300.1810739 +22.5004422     769.2314     72.46907      1.469     3.16     4.392748     20.43532     78.05228        11     0.999     0.769 -80.31   0
       320    349.2170    196.7433 300.2180124 +22.5356614     255.0468     72.39527      1.202     3.77     4.485393     20.43532     38.63198         7     0.862     0.601  29.90   0
       321    769.0703    194.2546 300.3495603 +22.6606530     1766.417     72.46907      1.370     2.32     4.379282     20.43532     221.5936        22     1.143     0.978  43.60   0
       322    834.0283    193.9646 300.3699033 +22.6800088     473.7834     72.45063      1.205     2.49     4.473112     20.43532      86.7934        10     0.860     0.705  68.97   0
       323    252.8866    190.4489 300.1900903 +22.5049964     508.2279     72.43218      1.310     3.55     4.429223     20.43532     73.40666        10     0.946     0.866  75.16   0
       324    773.0670    185.3165 300.3537046 +22.6592786     785.4042     72.54279      1.568     4.86     4.401074     20.43532     86.26532        14     1.337     0.782 -85.69   0
       325    693.7362    185.0929 300.3290550 +22.6354710     1300.292     72.54279      1.261     2.27     4.335959     20.43532     180.2167        15     1.031     0.804 -12.07   0
       326    514.8668    181.1036 300.2746383 +22.5807756     474.5167     72.56121      1.425     2.91     4.301091     20.43532     54.46973         8     0.851     0.693  81.73   0
       327    619.9642    176.8126 300.3087580 +22.6110074     1017.742     72.41373      1.359     2.41     4.341141     20.43532     148.7235        12     1.009     0.738  62.62   0
       328    889.1722    176.6000 300.3927287 +22.6915140      1472.57     72.37681      1.339     2.34      4.49413     20.43532     211.2681        16     0.980     0.887  -4.42   0
       329    901.0912    175.7390 300.3967249 +22.6948324     794.0346     72.52437      1.368     3.11     4.471128     20.43532      109.865        14     1.068     0.889  30.10   0
       330   1017.9847    165.9280 300.4363700 +22.7269780     1106.921     72.43218      1.477     3.39     4.518477     20.43532     116.8376        17     1.117     0.986  -1.95  16
       331     41.4932    162.7240 300.1333706 +22.4336921     446.4442     72.57963      1.570     3.55     5.019238     20.43532     57.33054         9     1.071     0.597 -26.87   0
       332    251.8149    159.0295 300.1999447 +22.4956496     789.0097     72.43218      1.526     4.09     4.440998     20.43532     75.62625        11     1.075     0.751  -8.50   0
       333    113.7719    153.4219 300.1588468 +22.4526804     2108.135     72.43218      1.537     2.87     4.837884     20.43532     254.4439        28     1.313     1.105  48.71   0
       334    936.9637    150.6045 300.4160632 +22.6983332     689.0534     72.45063      1.429     3.34     4.641266     20.43532     106.8878        15     1.213     0.831  54.04   0
       335     63.4855    150.6323 300.1441241 +22.4368106     575.1715     72.39527      1.595     3.30     5.002795     20.43532     50.23447         9     0.938     0.670  39.41   0
       336    271.1500    146.8865 300.2098948 +22.4979531     5623.249     72.43218      1.463     2.89     4.485716     20.43532     596.7996        33     1.230     1.113  72.00   0
       337    253.2809    147.9314 300.2039988 +22.4929005     309.6563     72.54279      1.364     4.32     4.483167     20.43532     38.29676         5     0.873     0.609  -7.31   0
       338     55.4914    141.3306 300.1446558 +22.4317439     1233.887     72.56121      1.574     2.95     5.019022     20.43532     134.6213        21     1.210     1.022 -83.86   0
       339    254.7371    137.7139 300.2077643 +22.4904013     635.1419     72.54279      1.490     3.15     4.518392     20.43532     69.72479        10     0.946     0.693 -80.52   0
       340    915.3785    128.5562 300.4164797 +22.6855325     3574.245     72.48751      1.511     2.56     4.794808     20.43532     473.5336        32     1.203     1.147  88.73   0
       341   1018.9890    127.3385 300.4491958 +22.7161736     2716.446     72.37681      1.498     2.75     4.761282     20.43532     356.7116        26     1.179     1.130 -54.23  16
       342    464.6877    123.7831 300.2776024 +22.5492753      608.195     72.35835      1.420     3.51     4.289644     20.43532     76.35462        10     1.073     0.658  57.10   0
       343    217.7406    123.8172 300.2007649 +22.4753264      386.503     72.37681      1.506     4.60     4.660439     20.43532     46.08652         8     1.020     0.589 -73.99   0
       344    579.1645    121.8766 300.3138628 +22.5829997      460.963     72.39527      1.479     1.95     4.279505     20.43532     54.60281         6     0.698     0.538 -34.73   0
       345    389.0607    115.3593 300.2567966 +22.5242085     727.0037     72.43218      1.644     3.24     4.501359     20.43532     68.19346        12     0.992     0.806 -35.35   2
       346    393.2325    114.0621 300.2585153 +22.5250850     379.8132     72.43218      1.445     2.42     4.478345     20.43532     46.48772         5     0.619     0.597 -84.89   2
       347    154.9995    112.4495 300.1849440 +22.4532649     556.4421     72.41373      1.337     3.86     4.956102     20.43532     78.88929         9     1.021     0.664  76.38   0
       348    516.2273    111.0803 300.2977651 +22.5610547     1773.862     72.45063      1.380     2.82     4.230998     20.43532     210.0071        21     1.090     0.956  75.62   0
       349    444.2936    111.7181 300.2751659 +22.5397010     482.5585     72.57963      1.307     2.10     4.300887     20.43532     73.75001         5     0.713     0.424 -15.22   0
       350     53.5725    111.2632 300.1538065 +22.4225343     290.6608     72.43218      1.571     4.24     5.044386     20.43532     30.95189         5     0.815     0.689  44.35   0
       351    577.6398    110.3428 300.3171271 +22.5792272     402.3755     72.41373      1.448     2.58     4.271911     20.43532     55.95589         7     0.853     0.544 -32.56   0
       352    259.6075    106.3733 300.2194389 +22.4828559     474.5909     72.43218      1.692     3.56     4.608971     20.43532     55.03231         9     0.962     0.765 -45.73   0
       353    339.9947    106.2348 300.2444882 +22.5068925     298.3844     72.41373      1.313     3.85     4.715352     20.43532     27.15214         5     0.828     0.513  56.62   0
       354    653.0371     97.2137 300.3448677 +22.5980196     248.2816     72.43218      1.425     4.71     4.663637     20.43532     27.78329         5     0.933     0.676 -28.54   0
       355    388.5519     95.7366 300.2629992 +22.5184166     224.9191     72.45063      1.408     6.04     4.548449     20.43532     33.90711         8     1.169     0.879 -19.88   0
       356    950.0683     95.1933 300.4381157 +22.6863094     243.9126     72.39527      1.445     3.88     4.986676     20.43532     32.11294         5     0.860     0.502  55.07   0
       357    290.1095     90.7775 300.2339808 +22.4875106     6123.755     72.35835      1.490     2.72     4.485213     20.43532     702.7593        37     1.310     1.128  50.95   0
       358    141.3494     90.1654 300.1879242 +22.4427744     780.8209     72.45063      1.655     3.73     5.132482     20.43532     72.72745        14     1.107     1.004 -36.42   0
       359    919.4489     88.5355 300.4307235 +22.6752349     371.7574     72.45063      1.593     3.33     5.010903     20.43532     44.63603         5     0.901     0.547 -43.55   0
       360    262.1942     84.6215 300.2272940 +22.4773809     363.8383     72.41373      1.558     3.69     4.649649     20.43532      50.2632         6     1.186     0.330 -61.38   0
       361    766.5648     82.2172 300.3851047 +22.6276796     78.93021     72.43218      0.934     2.99     5.044347     20.43532     39.37396         5     0.715     0.476 -75.13   0
       362    305.7497     82.5058 300.2415268 +22.4898179      257.425     72.50594      1.266     2.36     4.588088     20.43532     48.91635         5     0.694     0.469  19.65   0
       363     51.8555     81.2789 300.1629919 +22.4134086     429.6416     72.46907      1.295     3.41     5.067217     20.43532     62.63271         7     0.978     0.544  20.81   0
       364    900.1099     78.8087 300.4278451 +22.6666514     5947.551     72.35835      0.994     2.43      5.02156     20.43532     1836.038        12     1.079     0.503   5.04   3
       365    904.3553     77.5114 300.4295896 +22.6675480     6448.972     72.45063      0.817     1.87     5.019317     20.43532     2510.712         9     0.674     0.480  24.12   3
       366    536.2019     76.1152 300.3153184 +22.5569822     6288.877     72.35835      1.388     2.56     4.193521     20.43532     767.9051        34     1.232     1.080  69.00   0
       367    421.6136     75.8089 300.2797471 +22.5225887     639.7947     72.33987      1.401     2.95     4.360701     20.43532     79.15027        10     0.903     0.767  54.01   0
       368    593.3232     71.0933 300.3347343 +22.5726362     351.9507     72.57963      1.293     4.70     4.445094     20.43532     49.88273         6     1.059     0.592 -33.48   0
       369    729.9056     67.9095 300.3783172 +22.6125950     266.0531     72.59804      1.290     3.94     5.086287     20.43532     33.02466         6     0.759     0.585  39.43   0
       370    788.9594     65.8489 300.3973906 +22.6296714     858.7155     72.46907      1.558     2.72     5.217299     20.43532     107.7149        11     0.933     0.767  45.02   0
       371    881.4567     64.7945 300.4265707 +22.6570393     457.4427     72.39527      1.246     2.48     5.032217     20.43532     71.38802         9     0.842     0.724 -77.24   0
       372    228.9291     60.1402 300.2248839 +22.4603833     352.3559     72.46907      1.276     3.63     4.984354     20.43532      68.0697         8     1.075     0.508 -44.32   0
       373    904.1190     59.8528 300.4352397 +22.6623962     1041.521     72.45063      0.521     2.10     5.019317     20.43532     677.1422         5     0.420     0.322  83.59   0
       374    587.6044     58.7989 300.3369380 +22.5673893     561.8478     72.24745      1.387     3.53     4.477864     20.43532     68.63387         9     1.112     0.549  21.96   0
       375    664.6263     56.2451 300.3617575 +22.5897060     6309.032     72.45063      1.383     2.51     4.973083     20.43532     817.2955        37     1.245     1.109  82.31   0
       376    837.8295     56.8366 300.4155467 +22.6416991         1611     72.45063      0.577     0.89     5.149054     20.43532     1105.272         7     0.454     0.411  25.37   0
       377    439.5265     55.2526 300.2919846 +22.5220430     1369.845     72.45063      1.348     2.61     4.340014     20.43532     166.0938        16     1.033     0.884  71.26   0
       378    705.7858     53.3168 300.3755308 +22.6011804     911.9243     72.39527      1.546     4.25     5.146759     20.43532     121.9312        15     1.354     0.825  81.07   0
       379    721.7816     49.5623 300.3817321 +22.6048868     615.8981     72.43218      1.370     2.63     5.227101     20.43532     76.78933        11     0.958     0.715 -72.60   0
       380    991.4917     47.4323 300.4665193 +22.6849533      591.111     72.37682      1.548     3.61     4.950326     20.43532     62.43373        11     1.036     0.797  11.11   0
       381    188.1469     48.0073 300.2161355 +22.4446820     532.8089     72.43218      1.345     3.28     5.182274     20.43532     89.01787        12     1.110     0.715  -5.67   0
       382    760.1359     45.4434 300.3950201 +22.6151777     371.8369     72.43218      1.023     2.72     5.346184     20.43532      60.4627         6     0.759     0.494   5.54   0
       383    724.0195     40.1406 300.3854830 +22.6028463     902.5541     72.37681      1.743     4.65      5.32395     20.43532     86.70344        19     1.526     0.926  45.31   0
       384    708.8591     41.1852 300.3804203 +22.5986105     2629.922     72.39527      1.359     2.52     5.250769     20.43532      369.541        27     1.207     1.059  47.61   0
       385    349.4804     41.9569 300.2682729 +22.4912603     416.9496     72.41373      1.221     2.50     5.073606     20.43532     54.43108         8     0.807     0.631   4.99   0
       386      2.3590     35.4259 300.1624742 +22.3854088     743.2123     61.92947      1.480     4.36     4.900387     20.43532     77.97313        13     1.191     0.770  57.40  24
       387    795.3516     32.8253 300.4100862 +22.6220833     1474.091     72.45063      1.441     2.30     5.450269     20.43532     223.0806        19     1.122     0.936  75.61   0
       388    277.7217     28.6288 300.2502698 +22.4659416     253.9389     72.43218      1.507     3.49     4.582103     20.43532     42.39477         5     1.045     0.337 -20.50   0
       389    733.2628     26.0254 300.3929380 +22.6015515     749.3245     72.43218      1.455     2.71      5.49826     20.43532     108.8152        13     0.921     0.903  55.99   0
       390    538.6777     25.3382 300.3325458 +22.5431236     1222.146     72.50594      1.512     2.37     4.183614     20.43532     156.7677        16     1.170     0.881  30.37   0
       391    111.6803     25.2686 300.1997344 +22.4152439     517.4487     72.54279      1.304     2.47     5.322224     20.43532     66.30682         8     0.887     0.561  14.43   0
       392    442.6158     23.2300 300.3033238 +22.5137622     784.9395     72.43218      1.339     2.53     4.355253     20.43532     118.8084        14     1.004     0.851  47.46   0
       393    824.8368     22.1290 300.4227444 +22.6278263     440.4075     72.41373      1.572     3.84     5.340809     20.43532     62.00759        10     1.158     0.695  71.97   0
       394    275.3243   1009.4913 299.9310214 +22.7467875     2905.644     72.57963      5.868    35.57     51.69767     20.43532     88.35281       227    11.693     3.004 -16.59  19
       395    242.8493    995.9949 299.9253150 +22.7331722     4274.108     72.41373      8.411    36.75     62.71974     20.43532     85.62185       372     8.623     4.346 -89.77  27
       396    215.7524   1002.3455 299.9148244 +22.7268610     1853.837     72.46907      5.333    17.66     77.99368     20.43532     52.37959        59     3.733     2.321 -54.58  19
       397    636.7839     10.7335 300.3678331 +22.5682846     392.3969     72.41373      1.203     3.54     5.095918     20.43532     45.89864         6     1.018     0.383 -13.52   0
       398    212.7403   1007.2325 299.9122980 +22.7273580      1510.49     72.46907      3.301     7.55     82.30525     20.43532     65.28134        26     1.971     1.287 -51.14   3
       399    191.0617   1016.3697 299.9025860 +22.7234711     149.6903     72.45063      1.512     4.35     89.89178     20.43532       36.158         5     1.160     0.464   7.26  16
       400    529.5865   1010.9165 300.0096672 +22.8234780     374.0059     72.39527      1.512     4.92     2.994113     20.43532     29.95574         5     1.425     0.480  85.34   0
       401    398.6724   1007.8599 299.9699189 +22.7833303     607.9092     72.46907      1.975     4.46     4.044683     20.43532     52.06689         8     1.151     0.647 -56.61   0
       402    217.7799   1009.0774 299.9132644 +22.7293995     2388.497     72.43218      5.400    20.25     84.06448     20.43532     66.71993        91     3.940     2.892  62.51  19
