#   1 NUMBER                 Running object number                                     
#   2 X_IMAGE                Object position along x                                    [pixel]
#   3 Y_IMAGE                Object position along y                                    [pixel]
#   4 ALPHA_J2000            Right ascension of barycenter (J2000)                      [deg]
#   5 DELTA_J2000            Declination of barycenter (J2000)                          [deg]
#   6 FLUX_APER              Flux vector within fixed circular aperture(s)              [count]
#   7 FLUXERR_APER           RMS error vector for aperture flux(es)                     [count]
#   8 FLUX_RADIUS            Fraction-of-light radii                                    [pixel]
#   9 FWHM_IMAGE             FWHM assuming a gaussian core                              [pixel]
#  10 BACKGROUND             Background at centroid position                            [count]
#  11 THRESHOLD              Detection threshold above background                       [count]
#  12 FLUX_MAX               Peak flux above background                                 [count]
#  13 ISOAREA_IMAGE          Isophotal area above Analysis threshold                    [pixel**2]
#  14 A_IMAGE                Profile RMS along major axis                               [pixel]
#  15 B_IMAGE                Profile RMS along minor axis                               [pixel]
#  16 THETA_IMAGE            Position angle (CCW/x)                                     [deg]
#  17 FLAGS                  Extraction flags                                          
         1    212.1750     12.7017 300.2354144 +22.4424714     3845.167     72.31155      1.527     2.63     4.887892     20.41689      442.064        34     1.372     1.115  65.61   0
         2    780.1323     13.3521 300.4120139 +22.6126974     648.6707     72.36687      1.450     3.40     5.238942     20.41689     83.86014        12     1.054     0.821  64.19   0
         3    634.6843      9.8593 300.3678249 +22.5681662     365.7373     72.47739      1.368     4.50     5.015888     20.41689     54.19491         9     1.367     0.733 -36.76   0
         4    773.4737      5.4317 300.4125049 +22.6084268     903.5371     72.36687      1.264     2.43     5.283154     20.41689     114.2251        13     0.988     0.790  49.02  16
         5    328.1062      4.8656 300.2740084 +22.4749434      1214.41     71.53259      1.397     2.65     4.862929     20.41689     162.5067        16     1.047     0.917  60.89  16
         6    259.7487      5.0013 300.2527027 +22.4545092     245.8506     71.70023      1.355     3.83     4.904449     20.41689     33.11522         5     1.243     0.339 -24.36  16
         7    554.9428      1.9872 300.3455407 +22.5420341     252.0275     59.90193      1.260     2.65     5.190558     20.41689     35.66916         5     0.624     0.585  -0.87  24
         8    811.6460      1.3974 300.4257107 +22.6186875     386.7521     56.67518      1.115     3.85     5.181765     20.41689     58.75372         7     1.075     0.476   6.81  24
         9    212.7648   1001.1324 299.9146829 +22.7263015     1237.263     72.36687      7.326     8.43     76.02615     20.41689      56.1056        23     2.294     0.866  87.64   3
        10    774.6912   1022.4833 300.0826342 +22.9010120     359.9437     62.70879      1.870     5.36     2.113615     20.41689     39.43957         7     1.224     0.662  85.56  24
        11    242.1253    995.0252 299.9257975 +22.7333639      4550.38     72.38531      8.517    31.33     59.49944     20.41689     90.80969       344     6.873     4.209 -77.24  19
        12    209.4077    985.8855 299.9185996 +22.7209233     1724.639     72.29311      3.793     9.69     63.47457     20.41689     51.43002        23     1.711     1.531 -18.37   2
        13    260.9408    994.3058 299.9318816 +22.7388052     6106.695     72.44057     14.340    54.99     46.08413     20.41689     106.0162       829    12.294     7.544 -63.93  19
        14    278.9457    982.9113 299.9411870 +22.7409424     8583.696     72.40373     11.504    49.89     29.71974     20.41689     185.0672      1121    14.960     5.638  71.46  19
        15    679.9327    993.4980 300.0625418 +22.8642788     9267.665     72.45898      1.884     4.41     2.415309     20.41689     576.1065        46     1.485     1.384  41.02   3
        16    538.6862    984.2361 300.0215699 +22.8192572     396.1647     72.34844      1.835     4.96     2.561174     20.41689     30.42276         7     1.037     0.673 -76.87   0
        17     22.4855    982.8172 299.8615151 +22.6639254     1150.895        72.33      6.091     8.78    -3.768821     20.41689     44.66182        16     2.069     1.041 -23.19   1
        18    966.9490    979.2712 300.1566340 +22.9462423     743.9878     72.36687      2.044     7.19     3.372534     20.41689     40.64897        16     1.734     0.835 -37.52   0
        19    115.9151    927.0061 299.9086943 +22.6759812     4151.976     72.29311     17.618    29.69     10.50306     20.41689     478.6886      1213    15.994     8.454 -35.46   3
        20     10.9873    999.2610 299.8525945 +22.6651844     2233.866        72.33     10.660    15.57    -16.79021     20.41689     58.56312        67     3.056     2.206  68.12  19
        21    186.6554    964.5535 299.9184665 +22.7079788     1534.776     72.40373      4.982     9.56     46.41496     20.41689     46.79779        24     2.275     1.120  35.76   2
        22    692.7333    962.8449 300.0765021 +22.8593213     6977.132     72.36687      1.843     3.95     2.691272     20.41689     421.0944        48     1.503     1.404  16.05   0
        23      5.4204   1015.5585 299.8455635 +22.6681821     3104.354     72.40373     17.294    59.57    -28.90178     20.41689     68.26704       579    16.765     5.873 -89.19  26
        24    222.9613   1005.9245 299.9162936 +22.7307359     321.8176        72.33      2.399     3.80     80.31809     20.41689     31.70651         5     1.042     0.398  58.17   1
        25    572.2740    957.1353 300.0408435 +22.8215573     432.0594     72.40373      1.523     4.25     2.772341     20.41689     47.75345         8     1.208     0.702 -70.36   0
        26    121.2975    957.3920 299.9004837 +22.6863064      5207.03     72.23773     23.316    80.42     34.85939     20.41689     102.6317      2829    17.833    15.603  -9.99  19
        27    601.0308    953.5096 300.0509772 +22.8291419      1608.63     72.31155      1.765     4.75      2.83858     20.41689     123.6477        21     1.227     1.152   8.06   0
        28    494.8060    949.8436 300.0190992 +22.7962284     1035.045     72.38531      1.844     5.63     3.152558     20.41689     77.15295        20     1.363     1.140  39.18   0
        29    425.5764    948.0325 299.9981436 +22.7749403     6593.627     72.36687      1.813     3.93      3.36006     20.41689     485.9358        45     1.471     1.374 -29.15   0
        30    777.8685    951.3024 300.1067837 +22.8815350     391.9336     72.49579      2.250     4.51     3.001997     20.41689     31.49733         5     0.822     0.704  31.96   0
        31     18.5846    997.9484 299.8553812 +22.6670897      1107.29     72.38531      5.192     4.26    -8.782763     20.41689     36.98803         5     1.058     0.693 -71.68   3
        32    458.3191    935.0294 300.0125621 +22.7810335     403.3765     72.38531      1.429     3.81     3.371903     20.41689      39.9552         8     0.973     0.633 -15.46   0
        33    143.8851   1021.4841 299.8866527 +22.7114568     4436.724     67.14645      6.614    27.47      90.2001     20.41689     124.2508       231     6.699     3.127   9.79  27
        34    161.7676    925.5614 299.9234136 +22.6893308     1323.377     72.40373      9.631    10.69     17.70273     20.41689     36.83461        19     2.504     1.271 -50.04   3
        35    622.0503    924.2497 300.0670407 +22.8270498     408.4416     72.40373      1.630     3.85     2.980609     20.41689     33.02044         6     0.904     0.470  37.01   0
        36    471.6374    922.7377 300.0207049 +22.7815028       159.82     72.38531      1.256     3.33     3.389975     20.41689     39.92424         5     0.725     0.679  25.14   0
        37    761.3080    916.0951 300.1130754 +22.8664643     985.9293     72.55097      2.160     8.13     3.315765     20.41689     65.20088        19     1.766     1.047  54.23   0
        38    795.5618    909.9495 300.1257493 +22.8749687     962.6569     72.36687      1.743     5.63     3.412944     20.41689     67.93179        17     1.357     0.951  46.13   0
        39    124.0819   1016.7006 299.8820551 +22.7041403     4572.921     72.53258     10.083    46.51      85.1568     20.41689      92.9136       576    10.227     5.869  71.89  27
        40      6.3120    906.9426 299.8811698 +22.6373265     388.4296     72.44057      1.348     3.39     3.401462     20.41689     53.07754         5     0.782     0.426 -73.86   0
        41    817.7833    903.6156 300.1347354 +22.8798115     11403.15        72.33      1.781     4.00     3.441384     20.41689     741.5439        54     1.477     1.390 -10.57   0
        42   1007.5616    903.2526 300.1940317 +22.9365823      408.857     72.38531      1.812     5.12     3.362625     20.41689     49.81623         7     1.089     0.682  32.45   0
        43    863.3096    903.5062 300.1489629 +22.8934260     442.2733     72.53258      1.707     4.81     3.432226     20.41689     48.14523         7     0.924     0.708   6.03   0
        44    971.9158    926.8146 300.1752485 +22.9326677     2251.429        72.33      2.032     4.86     3.438418     20.41689     119.0941        34     1.676     1.284 -22.74   0
        45    204.3210    976.1879 299.9201731 +22.7166165     863.9258     72.34844      6.759    10.63     55.18934     20.41689     43.80444        20     2.783     1.132  71.40   2
        46    129.5734    895.2662 299.9232607 +22.6709828     1056.032     72.34844      5.856     6.15     9.295117     20.41689     71.67432        19     1.654     1.189 -74.19   0
        47    522.9475    891.9090 300.0467022 +22.7880488     504.6393     72.42215      1.699     5.68     3.234653     20.41689      47.6978        10     1.128     0.901  54.27   0
        48    869.2482    891.9275 300.1545802 +22.8918814     277.9396     72.36687      1.456     4.70     3.474438     20.41689     37.87025         7     1.365     0.459  39.55   0
        49     98.9054    889.2422 299.9156900 +22.6600504     644.0145     72.38531      3.698     6.04     5.759479     20.41689     31.42127         9     1.499     0.685 -27.19   0
        50    826.3461    885.7370 300.1432192 +22.8772452     1504.621     72.42215      1.759     4.09     3.505766     20.41689     100.9763        22     1.273     1.108 -75.85   0
        51    774.3063    996.5394 300.0909561 +22.8934508     792.8604     72.45898      2.055     7.03     2.430616     20.41689     40.54103        16     1.363     1.015 -35.39   0
        52   1008.6218    884.7947 300.2003658 +22.9315985     512.3121     72.34844      2.051     5.75     3.306398     20.41689     35.24601         8     0.980     0.950 -79.93   0
        53    678.8858    883.0247 300.0981512 +22.8322611     398.8951     72.31155      1.409     5.23     3.149845     20.41689     41.86095         8     1.087     0.710   6.56   0
        54    864.4469    879.3522 300.1571732 +22.8868315     875.6555     72.38531      1.850     4.37     3.515971     20.41689     63.73922        17     1.137     1.072  39.62   0
        55    975.3755    875.6857 300.1929575 +22.9190207     447.0628     72.31155      2.268     4.00      3.39057     20.41689     30.16411         6     0.790     0.581 -38.48   2
        56    914.0000    871.0792 300.1753142 +22.8993064     275.2047     72.23773      1.153     4.62     3.548954     20.41689     43.31557         7     1.018     0.596 -77.48   3
        57    911.6612    869.8392 300.1749881 +22.8982495     451.7755     72.36687      1.687     5.27     3.550981     20.41689      35.6292        10     1.310     0.600 -79.47   2
        58    763.9376    869.4215 300.1290744 +22.8538542     905.2645     72.34844      1.822     5.01     3.599778     20.41689      65.2522        17     1.198     1.040  -5.85   0
        59    775.5139    866.7021 300.1335663 +22.8565436     662.7716     72.53258      1.594     4.72     3.603966     20.41689     53.90923        14     1.193     0.889 -20.56   0
        60    476.8921    865.5920 300.0409249 +22.7666849     4268.048     72.27465      1.625     3.50     3.580736     20.41689     396.6415        37     1.380     1.245  -5.07   0
        61     24.3431    867.4330 299.8996176 +22.6314163     358.8006     72.38531      1.355     3.63     4.079808     20.41689     57.46159         5     0.890     0.427  45.94   0
        62    674.4261    995.6346 300.0601313 +22.8632405     9054.691     72.36687      1.969     4.36     2.370723     20.41689     493.2064        46     1.562     1.399  15.69   3
        63    520.8213    853.8069 300.0584306 +22.7764786      343.598     72.34844      1.578     4.77     3.389304     20.41689      32.6285         6     1.114     0.579 -24.44   0
        64    202.1409    851.5676 299.9600245 +22.6802335      856.054     72.38531      1.802     4.70     6.680622     20.41689     73.41901        21     1.354     1.164  45.95   0
        65    179.2530    848.2256 299.9539965 +22.6724067     1442.756     72.38531      1.770     3.81     6.524901     20.41689     126.1535        24     1.245     1.227   8.69   0
        66     54.3744    838.4405 299.9183727 +22.6321210     385.5003     72.42215      1.509     4.67      3.95701     20.41689     55.13227         8     1.276     0.484 -31.50   0
        67   1005.2280    836.0674 300.2151532 +22.9165854     2069.914     72.34844      1.836     4.85     3.401917     20.41689     166.5121        30     1.462     1.252  -5.82   0
        68    711.0035    836.3334 300.1233400 +22.8284875     426.7485     72.34844      1.738     4.97     3.610943     20.41689     34.31373         7     1.161     0.700 -89.26   0
        69    481.8480    835.4310 300.0522743 +22.7595176     265.6324     72.40373      1.514     3.50     3.575055     20.41689      34.7562         5     1.018     0.347 -84.55   0
        70    788.6216    829.9893 300.1495893 +22.8499320     648.2802     72.34844      1.808     4.71     3.640061     20.41689     54.78604        14     1.132     1.001 -42.00   0
        71    211.3315    829.9952 299.9698951 +22.6768055     342.7132        72.33      1.534     2.85     5.538064     20.41689     46.70087         5     0.807     0.498 -30.82   0
        72    656.8546    823.8602 300.1105270 +22.8086738     4688.658     72.42215      1.542     3.32     3.544822     20.41689     426.0357        34     1.247     1.185   0.22   0
        73    458.8958    820.8500 300.0498716 +22.7484503     510.2731     72.44057      1.378     3.39     3.640395     20.41689     66.49306        11     0.901     0.846 -34.96   0
        74    207.0639    817.5363 299.9726189 +22.6719522     1236.043     72.40373      1.634     3.40     4.929846     20.41689     138.5425        22     1.243     1.109  15.08   0
        75    677.4552    816.4913 300.1193399 +22.8127344     851.4279     72.42215      1.709     4.09     3.654873     20.41689     67.47287        15     1.190     0.861  22.01   0
        76    226.4406    815.3421 299.9793560 +22.6771371     303.9991     72.34844      1.375     5.10     4.752201     20.41689     44.82282         7     0.899     0.819  89.61   0
        77    832.9003    803.6758 300.1719460 +22.8556466     4091.282     72.49579      1.597     3.32     3.607873     20.41689     362.1984        31     1.242     1.173  14.53   0
        78    241.3718    798.0202 299.9896292 +22.6766493     490.7435     72.36687      1.484     3.37     4.048556     20.41689     63.02125         7     0.869     0.589 -57.78   0
        79    549.9318    796.0485 300.0862718 +22.7686333     592.4954     72.36687      1.460     4.27     3.604137     20.41689     69.88995        15     1.290     0.931  39.27   0
        80    196.1457    793.9658 299.9768870 +22.6619167     1032.364     72.38531      1.749     3.57     4.041098     20.41689     117.6535        18     1.259     1.016  -4.85   0
        81    345.8739    786.0740 300.0260114 +22.7045732      53992.1     72.42215      1.569     3.14     3.905628     20.41689     5056.861        87     1.413     1.353  15.47   0
        82    611.7223    789.3818 300.1076795 +22.7852463     474.6212     72.36687      1.293     2.90      3.65155     20.41689     61.08058         8     0.880     0.640  -1.73   0
        83    603.8394    785.1833 300.1065895 +22.7816778     1726.283     72.38531      1.538     3.22     3.666444     20.41689     170.6585        22     1.099     1.091 -86.51   0
        84   1016.5014    784.3781 300.2354759 +22.9051136     920.2345     72.29311      1.854     5.09     3.597721     20.41689     66.29528        18     1.286     1.022 -67.01  16
        85    274.2340    784.2419 300.0043261 +22.6825568     532.7173     72.42215      1.813     5.18     4.007602     20.41689     51.96038        12     1.157     0.931 -52.01   0
        86    632.7021    781.1244 300.1168977 +22.7891657     853.8102     72.51419      1.475     3.78     3.756068     20.41689     89.88581        18     1.172     1.016  40.06   0
        87     32.0251    780.9102 299.9301313 +22.6089205     852.2319     72.31155      2.083     4.29      3.33658     20.41689     75.48364        14     1.271     0.996 -19.85   0
        88    643.6350    779.5976 300.1207992 +22.7920049     598.7109     72.34844      1.604     3.32     3.791775     20.41689     63.24753        12     1.027     0.788 -48.13   0
        89    965.3504    777.8159 300.2216531 +22.8879052     278.0644     72.40373      1.251     3.39     3.642312     20.41689     33.53909         5     0.751     0.444 -73.25   0
        90    749.1801    775.7156 300.1549426 +22.8225272     339.7237     72.31155      1.237     2.99     3.787801     20.41689     59.86174         9     0.875     0.702  62.39   0
        91    395.6055    763.3199 300.0488788 +22.7129616     31847.96     72.29311      1.566     3.02     3.908936     20.41689     3139.011        73     1.366     1.318  23.43   0
        92    786.8745    766.1797 300.1697895 +22.8310859     663.3999     72.36687      1.447     3.61     3.763963     20.41689       71.285        14     1.189     0.759   7.09   0
        93    409.8726    763.8820 300.0531352 +22.7174018     1931.293     72.49579      1.504     3.10     3.889804     20.41689     211.6543        24     1.122     1.070  41.14   0
        94    918.7088    759.3831 300.2130987 +22.8686369     2707.394     72.29311      1.629     3.45     3.742257     20.41689     229.3911        27     1.215     1.163   0.70   0
        95    406.3915    757.9795 300.0539705 +22.7146642     751.8632        72.33      1.701     4.21     3.914328     20.41689     71.36078        12     1.181     0.696 -20.44   0
        96    676.4474    755.3655 300.1388967 +22.7948842      958.196     72.40373      1.493     3.14     3.973238     20.41689     99.85024        16     1.036     0.963 -52.27   0
        97    278.2770    754.8691 300.0151304 +22.6753443      730.216     72.47739      1.504     2.76     3.922768     20.41689     106.7064        15     1.013     0.933  -9.49   0
        98    523.6176    750.3763 300.0929255 +22.7476352     846.8384     72.36687      1.502     3.75      3.88591     20.41689     91.64475        16     1.206     0.900 -20.67   0
        99     82.7883    750.9284 299.9556461 +22.6155596     557.3007     72.38531      1.763     4.39     3.823991     20.41689      50.5164         9     1.015     0.852 -69.24   0
       100    925.0647    746.9131 300.2191341 +22.8669590     552.3065     72.45898      1.520     4.61     3.790046     20.41689     52.25256        13     1.229     0.809 -43.67   0
       101    513.2578    755.5060 300.0880332 +22.7460011     497.4687     72.42215      1.532     3.34      3.84645     20.41689     63.02171         8     0.974     0.580 -38.10   0
       102    425.9445    746.0254 300.0639399 +22.7170980     307.2411     72.36687      1.364     3.31     3.936689     20.41689     37.62446         5     0.655     0.569   0.76   0
       103    381.8056    746.1750 300.0501578 +22.7039035     398.8501     72.34844      1.587     3.37     3.977422     20.41689     36.07779         5     0.966     0.341  44.78   0
       104    469.3398    744.9479 300.0777948 +22.7298021     395.2661     72.42215      1.580     5.46     3.908452     20.41689      47.3457         9     1.436     0.586  33.14   0
       105    111.6670    744.1307 299.9668286 +22.6222765     551.7214     72.42215      1.480     3.37     3.930266     20.41689       65.165        11     1.028     0.766  76.49   0
       106    903.0372    742.3068 300.2137623 +22.8590365     383.3391     72.34844      1.449     3.11     3.809958     20.41689     40.92554         7     0.824     0.605 -25.55   0
       107    275.7550    739.5319 300.0193308 +22.6701882     587.8966     72.34844      1.778     3.86     3.878888     20.41689     53.55892         8     1.067     0.713  17.26   0
       108    599.2058    730.1339 300.1230395 +22.7644865     435.8908     72.36687      1.358     2.68     3.960968     20.41689     69.32063         8     0.850     0.681   2.72   0
       109    568.9814    728.2175 300.1142508 +22.7548756     660.8296     72.34844      1.455     3.12     3.973032     20.41689     72.77369        11     0.990     0.729  -7.59   0
       110    985.1648    724.6559 300.2451132 +22.8785684     4712.166     72.38531      1.659     3.49     3.785762     20.41689     363.7059        38     1.315     1.268  40.96   0
       111    477.9859    727.4781 300.0861635 +22.7273810     407.1556     72.38531      1.437     1.81     3.950486     20.41689     54.80486         6     0.703     0.499  -2.87   0
       112    590.5704    725.5440 300.1218421 +22.7605802     1342.175     72.36687      1.454     2.94     3.969647     20.41689     159.6783        17     1.030     0.970  13.42   0
       113    510.0277    725.2015 300.0968770 +22.7363350      341.312     72.31155      1.489     4.46     3.964547     20.41689     39.80057         7     0.963     0.588 -18.12   0
       114    973.7892    716.0740 300.2443540 +22.8726953     1694.064     72.38531      1.651     3.65     3.839256     20.41689      118.636        25     1.270     1.141  -0.82   0
       115    577.8881    711.1930 300.1225568 +22.7526586     5279.121     72.27465      0.521     0.84     3.991701     20.41689     3614.907         8     0.426     0.378 -79.60   0
       116    336.6824    709.9272 300.0479006 +22.6799699     750.5281     72.49579      1.374     2.86     4.021706     20.41689     114.8968        14     1.037     0.840 -63.23   0
       117   1004.9379    706.2003 300.2572796 +22.8791881     1760.723     72.31155      1.724     4.07     3.861235     20.41689      150.073        27     1.399     1.144 -37.85   0
       118    800.0138    707.2362 300.1930424 +22.8180954     2601.867     72.36687      1.546     3.08     3.888906     20.41689     254.1491        28     1.311     1.109  -8.03   0
       119     22.2583    697.6315 299.9541607 +22.5821127     928.3584     72.38531      1.914     5.15     3.646564     20.41689     84.18282        16     1.355     1.079 -27.07   0
       120    882.4785    693.3576 300.2232603 +22.8388161     633.2857     72.34844      1.831     7.20     3.918642     20.41689     47.68156        15     1.359     1.068  41.79   0
       121    185.2711    693.4069 300.0061872 +22.6298131     770.6315        72.33      1.820     5.63     4.008021     20.41689      65.6946        17     1.326     1.156  60.01   0
       122    918.4244    684.2438 300.2374307 +22.8469660     148666.3     72.40373      1.585     3.10     3.962947     20.41689      13786.9       157     1.465     1.442  17.91   0
       123    680.8536    688.1455 300.1621152 +22.7769042     373.0755     72.40373      1.417     3.77     4.054433     20.41689     41.00463         8     0.850     0.653  34.27   0
       124    770.8584    684.6578 300.1912928 +22.8028745     761.7253     72.44057      1.395     3.33     3.962595     20.41689     88.11111        14     1.147     0.785 -33.37   0
       125    950.9528    677.2134 300.2498598 +22.8546896     507.7522     72.38531      1.613     4.95     3.997765     20.41689     45.24319         9     0.874     0.859 -46.11   0
       126    604.5975    673.1162 300.1432470 +22.7497334     1685.005     72.29311      1.370     2.55      4.06075     20.41689     233.2173        18     1.007     0.952  52.55   0
       127    785.9174    670.3747 300.2006271 +22.8032843     9352.578     72.34844      1.440     2.69     3.971222     20.41689     1094.921        42     1.209     1.169 -20.36   0
       128    287.4179    665.3638 300.0470579 +22.6524083     4884.997     72.36687      1.518     2.84     4.078621     20.41689     594.8972        32     1.186     1.161  38.25   0
       129      1.8899    663.9067 299.9587910 +22.5663302     1086.738     59.58936      1.246     2.65     3.973962     20.41689     177.9482        12     1.004     0.731 -89.30  24
       130    369.3890    663.5772 300.0731351 +22.6764786     1114.632     72.36687      1.450     2.82     4.090256     20.41689     129.4051        17     1.095     0.918  28.07   0
       131    245.0011    661.6782 300.0350654 +22.6386287     504.2013      72.2562      1.673     4.82      4.13715     20.41689     49.60704         9     1.079     0.726 -51.54   0
       132    577.7860    659.0988 300.1394523 +22.7376724     741.3602     72.27465      1.446     2.99      4.07106     20.41689     101.5502        14     1.091     0.856 -60.76   0
       133    569.3145    651.1929 300.1393830 +22.7328633     3290.461     72.29311      1.376     2.61     4.086768     20.41689     363.7062        27     1.139     1.022  32.85   0
       134    559.6817    645.0020 300.1383950 +22.7281985     1488.948     72.27465      1.350     2.49     4.100503     20.41689     213.1888        16     1.012     0.875  65.48   0
       135    488.2142    644.5980 300.1162775 +22.7066588     333.2287     72.20079      1.354     3.50     4.079303     20.41689     34.16491         5     0.787     0.450 -17.58   0
       136    953.4843    643.2197 300.2616947 +22.8456801     556.3126     72.29311      1.621     4.34     4.156304     20.41689     43.25678        10     0.995     0.692  -1.51   0
       137    222.8087    640.8953 300.0349171 +22.6260097     710.4843      72.2562      1.545     3.50       4.3047     20.41689     82.95215        13     1.131     0.878 -19.75   0
       138    237.3344    639.3401 300.0399385 +22.6299203     501.2315     72.40373      1.343     3.09     4.307831     20.41689     69.83183        13     1.061     0.800  54.69   0
       139    122.7910    639.3016 300.0043459 +22.5955498     484.4873      72.2562      2.177     6.49     4.084027     20.41689     37.68964         9     1.294     0.913 -70.46   0
       140   1006.6190    636.2454 300.2805352 +22.8595890     486.6631     72.40373      1.661     5.44     4.201604     20.41689     37.60421         9     1.085     0.768  -3.21   0
       141    294.2495    636.3383 300.0586121 +22.6461289     405.8237     72.42215      1.544     3.34     4.245135     20.41689     46.57655         6     0.734     0.628 -48.63   0
       142    262.7601    636.4901 300.0487702 +22.6367285     503.5689     72.36687      1.366     3.50     4.286367     20.41689     66.32265         8     1.020     0.500  -1.15   0
       143    583.5452    635.3846 300.1489500 +22.7325900     380.2133     72.34844      1.171     4.08     4.124881     20.41689     53.65763        10     1.240     0.556  12.12   0
       144    484.4235    634.5681 300.1183560 +22.7026432     1758.421     72.36687      1.328     2.47     4.114215     20.41689     245.8792        17     1.013     0.889  47.39   0
       145    517.8465    633.8045 300.1290080 +22.7124434     251.2798     72.34844      1.343     5.09     4.125819     20.41689     30.68332         7     1.048     0.699  58.63   0
       146    138.2899    629.4227 300.0123716 +22.5973657     19752.74     72.29311      1.634     3.00     4.088786     20.41689     2373.774        59     1.407     1.315  37.16   0
       147     59.3804    631.1613 299.9872870 +22.5741906     592.4006     72.40373      1.459     3.37     4.212066     20.41689     77.88077        11     0.986     0.878  -6.21   0
       148    569.1326    629.9022 300.1462432 +22.7266960     998.0347     72.45898      1.304     2.55     4.138921     20.41689     132.7122        15     1.089     0.783  42.26   0
       149    604.5387    629.1793 300.1575035 +22.7371004     392.3992        72.33      1.435     3.17     4.132376     20.41689     45.51398         6     0.995     0.438 -31.49   0
       150    624.0609    622.6069 300.1657185 +22.7410639     243.9389     72.34844      1.323     3.88     4.122614     20.41689     27.63346         5     0.884     0.488   0.50   0
       151    322.7512    621.1043 300.0724253 +22.6503047     300.9117     72.42215      1.403     4.56     4.334414     20.41689     35.70559         6     1.029     0.629  39.11   0
       152    987.4575    616.3992 300.2810052 +22.8481472     1100.257     72.31155      1.535     3.42     4.287543     20.41689     121.3451        18     1.180     0.967 -20.53   0
       153     84.3436    613.6125 300.0007432 +22.5766469     1563.765     72.36687      1.961     4.15      4.16724     20.41689     125.0593        30     1.557     1.196  89.35   0
       154    854.0855    614.1130 300.2401552 +22.8075444     433.3548     72.49579      1.279     3.64     4.002847     20.41689     54.18937         8     0.834     0.739  78.06   0
       155    150.3067    613.9590 300.0211294 +22.5965346     451.2583     72.38531      1.486     3.21     4.095925     20.41689     51.64417         7     0.847     0.691  24.74   0
       156    532.9847    610.7659 300.1412048 +22.7103669     517.1236     72.34844      1.446     2.57     4.202169     20.41689     69.19731         8     0.891     0.596 -59.14   0
       157    325.4760    609.7035 300.0769761 +22.6478501     230.7416     72.51419      1.230     3.43     4.393641     20.41689     35.57883         5     0.735     0.463 -70.95   0
       158    927.7672    608.9036 300.2648225 +22.8281170      1037.55     72.34844      2.295     3.94     4.314165     20.41689     89.56434        17     1.160     1.085 -32.30   2
       159    671.6598    607.1890 300.1855532 +22.7509005     321.9928        72.33      1.417     3.83     4.082284     20.41689     40.57746         6     0.948     0.546  22.81   0
       160    489.4663    602.7756 300.1302531 +22.6950281        821.2     72.34844      1.430     2.65     4.230214     20.41689     105.9862        14     1.003     0.821  46.42   0
       161    637.7034    601.4825 300.1768296 +22.7390861     452.8931     72.53258      1.171     2.21     4.178227     20.41689     71.58707         5     0.668     0.480 -17.33   0
       162    684.7696    599.8712 300.1920143 +22.7527271     591.7657     72.36687      1.650     2.57     4.124706     20.41689     79.79423         9     0.937     0.606  54.66   0
       163    655.1183    599.5185 300.1828921 +22.7437408     651.0608     72.51419      1.300     2.31     4.163421     20.41689     99.80717         9     0.852     0.660 -72.63   0
       164    533.5983    598.7203 300.1453086 +22.7070923     971.2571     72.27465      1.556     2.83     4.260578     20.41689     112.6891        14     1.047     0.800 -22.36   0
       165    499.1985    594.1082 300.1360978 +22.6954571     1772.719     72.27465      1.383     2.66     4.268078     20.41689     214.9491        22     1.127     1.018 -86.80   0
       166    967.5213    594.2827 300.2819710 +22.8358210     3332.712     72.49579      1.506     2.98     4.325795     20.41689     344.1423        26     1.189     1.076  -0.55   0
       167    863.8908    591.2781 300.2506299 +22.8039206      328.023     72.51419      1.333     3.32     4.150002     20.41689     40.30102         5     0.715     0.685 -17.35   0
       168     61.0567    587.5917 300.0019592 +22.5621972     5002.364     72.34844      1.660     3.25     4.423566     20.41689     586.5341        37     1.382     1.245  30.28   0
       169   1006.6601    584.5231 300.2973504 +22.8447361     422.5084     72.42215      1.512     3.65     4.328305     20.41689     47.72636         7     0.919     0.532  62.53   0
       170    528.2964    585.0980 300.1480826 +22.7015920     379.2307     72.55097      1.414     3.36       4.3284     20.41689      52.8288         6     0.882     0.506  52.22   0
       171    362.5991    580.8665 300.0978903 +22.6507050     8926.912     72.34844      1.396     2.52      4.39238     20.41689     1284.704        38     1.166     1.129  65.52   0
       172    485.0765    577.9210 300.1369595 +22.6865767     9027.669     72.47739      1.340     2.56     4.316301     20.41689     1208.574        36     1.122     1.078  73.53   0
       173    124.2397    580.0574 300.0240389 +22.5789900     180.5996     72.34844      1.150     3.82     4.302174     20.41689     27.61043         5     0.840     0.498  34.19   0
       174    731.5718    574.1940 300.2149365 +22.7593746     223.3177     72.36687      1.185     3.22     4.123339     20.41689     46.80684         6     0.746     0.645  28.25   0
       175    896.8836    572.0468 300.2671637 +22.8082763     1776.454     72.34844      1.400     2.75     4.322455     20.41689     203.2703        24     1.147     1.032  32.29   0
       176    981.4043    569.3595 300.2943970 +22.8328153      12438.5     72.38531      1.545     2.88     4.336051     20.41689     1318.284        47     1.270     1.255 -81.26   0
       177    545.6348    567.5338 300.1591852 +22.7017453     11740.38     72.36687      1.349     2.41     4.438038     20.41689     1598.752        41     1.168     1.097  50.51   0
       178    715.1259    563.3055 300.2133486 +22.7513197     391.4524     72.51419      1.153     2.45      4.23509     20.41689     64.89436         7     0.693     0.660  43.12   0
       179    273.0960    562.7310 300.0759413 +22.6186630     1327.224     72.49579      1.444     3.03     4.547776     20.41689      169.973        19     1.173     0.918  33.43   0
       180    430.9752    562.3268 300.1251863 +22.6658823     170.5724     72.40373      1.198     2.32     4.338059     20.41689     44.58101         5     0.834     0.469  -1.45   0
       181    519.8970    560.5555 300.1534386 +22.6920276     449.1768     72.38531      1.302     2.60     4.434738     20.41689     71.50556         8     0.853     0.628  52.14   0
       182    477.3079    555.6924 300.1417606 +22.6778661     4459.041     72.53258      1.355     2.50     4.383393     20.41689     565.9073        30     1.098     1.076  -6.85   0
       183    820.2592    555.8484 300.2485353 +22.7806718     779.2034     72.42215      1.259     2.33     4.445144     20.41689     103.5043        11     0.837     0.784 -66.12   0
       184    455.5809    553.9968 300.1355490 +22.6708667     1217.418     72.29311      1.340     2.52     4.380492     20.41689     177.3531        18     1.078     0.957  47.39   0
       185    209.9131    553.4729 300.0593022 +22.5970589     730.2609     72.51419      1.371     3.62     4.585386     20.41689     87.51945        12     0.978     0.931 -14.17   0
       186    897.0842    551.3239 300.2739567 +22.8023813     1672.269     72.47739      1.458     2.75      4.41484     20.41689     180.5442        21     1.093     1.038  -2.29   0
       187    593.9393    543.2493 300.1821129 +22.7092477       201542     72.42215      1.348     2.51     4.597814     20.41689     25129.85       192     1.411     1.374  -2.59   0
       188    777.7333    548.3109 300.2377282 +22.7657678     833.2468     72.47739      1.320     3.13     4.378464     20.41689     108.2961        12     0.960     0.877 -36.82   0
       189    417.9861    549.5194 300.1253035 +22.6583118     423.3977     72.34844      1.439     2.76     4.379033     20.41689     51.59269         6     0.762     0.491  -9.25   0
       190    554.8057    544.4360 300.1695418 +22.6978611     235.2924     72.40373      1.184     2.79     4.573088     20.41689     51.04639         5     0.839     0.537 -50.33   0
       191    280.0033    543.0809 300.0844705 +22.6150950     3460.203     72.27465      1.440     2.86     4.583527     20.41689     371.4074        29     1.248     1.081  57.26   0
       192    845.9927    539.6190 300.2618281 +22.7837161     580.9702        72.33      1.728     3.27     4.485171     20.41689     58.56178        10     0.900     0.820 -13.30   0
       193    864.5360    537.4026 300.2683291 +22.7886329     130.5389     72.34844      1.252     4.31     4.429339     20.41689     28.21423         5     0.969     0.546  46.77   0
       194    625.5418    530.0596 300.1962382 +22.7149292     304.4732     72.44057      1.331     3.69     4.635327     20.41689     42.33607         5     0.938     0.554 -11.17   0
       195    484.5460    523.7858 300.1543747 +22.6708745     2761.547     72.36687      1.438     2.69     4.431794     20.41689     336.7224        30     1.474     1.026 -85.80   0
       196    328.8989    526.0584 300.1052055 +22.6248696     433.3639     72.45898      1.351     3.05     4.477979     20.41689     49.26214         6     0.725     0.583 -42.95   0
       197    934.1656    523.6110 300.2945205 +22.8055212     269.0455     72.34844      1.373     5.24     4.349152     20.41689     30.72354         7     1.119     0.693 -33.86   0
       198    640.6948    521.4421 300.2037562 +22.7169943     284.5746     72.38531      0.970     3.49     4.654931     20.41689      29.6813         5     1.073     0.327  21.46   0
       199    896.4958    520.0909 300.2839161 +22.7932292     373.0186     72.55097      1.262     3.58     4.278969     20.41689     44.62895         8     0.831     0.709  39.66   0
       200    715.1361    519.1776 300.2276823 +22.7386462     391.9554     72.34844      1.512     4.35     4.414094     20.41689     38.49331         7     0.880     0.638  48.07   0
       201    801.6670    512.1462 300.2569319 +22.7625459     311.0143     72.38531      1.235     4.25     4.498929     20.41689     54.58678         7     0.767     0.672 -61.38   0
       202    881.5140    509.8464 300.2825712 +22.7857984     1638.597     72.34844      1.344     2.66     4.155679     20.41689     208.3511        16     1.035     0.852  51.14   0
       203    768.2676    510.3609 300.2471018 +22.7520289      341.355        72.33      0.946     2.53     4.414997     20.41689     43.75694         5     0.696     0.466  12.79   0
       204    752.7546    507.4624 300.2432084 +22.7465494     2709.928     72.40373      1.350     2.41     4.385725     20.41689     368.6296        22     1.093     0.982  62.86   0
       205     11.5688    508.3960 300.0123017 +22.5246348     729.4713     72.34844      1.846     4.10     4.867478     20.41689     74.10619        15     1.236     1.067  17.02   0
       206    997.3014    505.1819 300.3201982 +22.8191277     600.4609     72.29311      2.097     4.82     4.349123     20.41689     47.38935         9     1.110     0.699 -12.32   2
       207    995.8032    500.8564 300.3211353 +22.8174357     776.0273        72.33      1.622     3.60      4.34954     20.41689     91.16817        14     1.207     0.898  52.32   2
       208    962.0931    504.5938 300.3094063 +22.8084173     280.3401      72.2562      1.393     3.48     4.348239     20.41689     40.05787         6     0.759     0.613  53.18   0
       209    657.5437    503.9777 300.2146753 +22.7170258     472.4921     72.38531      1.296     3.31      4.69196     20.41689     57.90068         9     1.000     0.667   1.70   0
       210    540.0073    503.0986 300.1783572 +22.6815553     826.6026      72.2562      1.402     2.85     4.577131     20.41689     99.73093        11     0.860     0.829 -59.33   0
       211   1010.0308    501.4367 300.3253855 +22.8218621     1252.287     72.38531      1.475     3.19      4.35007     20.41689      150.682        18     1.060     1.017 -86.80   0
       212    881.8666    499.7791 300.2859500 +22.7830107     2195.668     72.34844      1.619     3.99     4.062067     20.41689     240.5269        29     1.509     1.051  70.96   0
       213    635.2837    497.9755 300.2096904 +22.7086325     739.8482        72.33      1.648     2.87     4.705029     20.41689     84.00623        13     0.990     0.847  37.56   2
       214    920.0638    494.9442 300.2994311 +22.7930591     4351.992     72.42215      1.438     2.82     4.282986     20.41689     518.2095        34     1.217     1.149 -32.78   0
       215    473.2348    496.9167 300.1595781 +22.6597692     458.4483        72.33      1.325     3.43       4.4191     20.41689     65.29021         8     1.009     0.591 -20.29   0
       216    560.8698    494.6900 300.1875830 +22.6853921     320.3759     72.53258      1.341     4.26     4.623974     20.41689     45.76462         6     0.934     0.570  62.57   0
       217   1012.0032    485.4435 300.3311939 +22.8178548     871.5236     72.38531      1.603     3.83     4.352723     20.41689     99.02508        16     1.162     1.122   8.97   0
       218    151.9642    485.0495 300.0635047 +22.5600465      987.631     72.38531      1.428     3.57       3.9966     20.41689     133.1336        16     1.287     0.861  11.10   0
       219    813.0420    479.1529 300.2711902 +22.7564719     384.1948     72.38531      1.410     3.85     4.338419     20.41689     65.01456         8     1.003     0.688 -20.09   0
       220    418.5490    478.2462 300.1486206 +22.6380180     300.5912     72.40373      0.943     2.48     4.402105     20.41689     50.51435         5     0.703     0.452 -67.23   0
       221    199.3591    477.5878 300.0806597 +22.5721177     317.7078     72.36687      1.609     3.45      4.33171     20.41689     41.78924         5     0.758     0.455 -18.09   0
       222    143.2395    476.7395 300.0634907 +22.5550455     1687.746     72.36687      0.508    -1.95     3.978431     20.41689     1344.117         9     0.925     0.352 -41.09   0
       223   1008.3395    475.1382 300.3333968 +22.8137953      328.739     72.40373      1.345     3.38     4.376328     20.41689     42.60391         5     1.112     0.297  -9.41   0
       224    752.0994    469.4854 300.2553345 +22.7354413     409.1661     72.53258      1.133     2.31     4.480702     20.41689     71.18309         8     0.760     0.656  82.42   0
       225    641.2588    467.6029 300.2214124 +22.7016978     315.6794        72.33      1.230     3.36     4.746262     20.41689     67.23563         5     0.829     0.472 -47.94   0
       226    693.5259    465.5604 300.2383576 +22.7167687     797.8247     72.34844      1.288     2.67     4.634529     20.41689     103.4303        15     0.988     0.866 -13.42   0
       227   1008.1492    457.9069 300.3389317 +22.8087843     587.9302     72.44057      1.339     3.62     4.442529     20.41689       64.285        12     0.963     0.855 -26.71   0
       228    754.2752    457.4578 300.2599173 +22.7326370     724.4994     72.42215      1.157     2.59     4.480702     20.41689     122.8361        13     0.912     0.782  -6.46   0
       229    911.4235    453.8667 300.3100730 +22.7786648     997.0028     72.34844      1.354     2.45     4.194292     20.41689     156.1002        14     0.913     0.886 -25.37   0
       230    895.9594    450.1534 300.3064562 +22.7729672     600.6599     72.42215      1.375     3.37     4.063257     20.41689     65.45171         9     0.872     0.783 -66.19   0
       231    876.2458    450.5016 300.3001962 +22.7671646     405.5276     72.38531      1.123     2.18      3.88158     20.41689     52.14766         5     0.685     0.456  23.71   0
       232    640.0214    448.1716 300.2273350 +22.6957450      3163.16     72.34844      1.292     2.48     4.755291     20.41689      413.827        23     1.037     0.960  62.54   0
       233   1000.4266    447.1278 300.3400218 +22.8033735     513.8292     72.36687      1.475     3.23      4.47281     20.41689     57.87043        11     0.913     0.841  34.34   0
       234    116.2635    439.4668 300.0672056 +22.5362602     450.2003     72.42215      1.654     4.18      4.13826     20.41689     39.05521         7     0.950     0.542  59.59   0
       235    645.1434    435.7854 300.2329511 +22.6937210      162.935     72.34844      1.236     4.13     4.742639     20.41689      33.4625         6     1.231     0.395  59.71   0
       236    479.6879    435.2406 300.1816088 +22.6439917     274.9858     72.34844      1.172     2.43     4.760258     20.41689     71.03651         7     0.864     0.533 -34.17   0
       237    923.3466    427.0029 300.3225119 +22.7745123     419.0277        72.33      1.282     3.43     4.320709     20.41689     54.06971        10     0.908     0.783 -76.45   0
       238   1009.7635    425.9550 300.3498078 +22.8000808     819.9839     72.40373      1.422     3.16     4.572096     20.41689     94.84109        13     0.947     0.900  40.05   0
       239    750.5379    422.1021 300.2702295 +22.7213579     1066.581     72.45898      1.285     2.73     4.480702     20.41689     134.4704        14     1.018     0.815  82.54   0
       240    546.2990    422.8473 300.2063682 +22.6603915     379.0632     72.40373      1.182     2.72     4.892003     20.41689     60.65541         7     0.794     0.649 -31.09   0
       241    254.2499    420.3748 300.1162973 +22.5721538     677.8921     72.38531      1.444     2.96     4.509152     20.41689     78.84182        14     1.042     0.841 -86.98   0
       242     94.6691    418.4958 300.0673014 +22.5237666      212.146     72.49579      1.231     3.42     4.233483     20.41689     32.15153         5     1.052     0.322 -69.97   0
       243    316.9642    416.0433 300.1372074 +22.5897101     3805.903     72.42215      1.342     2.28     4.459239     20.41689     543.1857        27     1.071     1.062  25.12   0
       244    264.1858    410.7116 300.1225232 +22.5723584     7547.122     72.31155      1.387     2.60     4.496783     20.41689     959.6907        35     1.182     1.091  65.61   0
       245    642.6553    410.1526 300.2404960 +22.6856113     304.4153     72.40373      1.168     3.20     4.743608     20.41689     47.74364         5     0.869     0.467  83.20   0
       246    404.9032    404.9630 300.1681618 +22.6128855     4913.299     72.36687      1.344     2.55     4.523503     20.41689      680.608        32     1.136     1.079  85.59   0
       247    649.1669    401.7553 300.2452498 +22.6851492     18575.97     72.42215      1.311     2.36     4.707225     20.41689     2785.193        53     1.182     1.128  80.70   0
       248    666.7333    401.7807 300.2507136 +22.6904182     883.8143        72.33      1.808     5.67     4.629654     20.41689     79.86713        18     1.400     0.872 -40.65   0
       249    496.3882    403.3156 300.1971691 +22.6398269     489.3577     72.31155      1.544     3.48     4.920086     20.41689     48.48228         5     0.761     0.460  74.61   0
       250    846.1843    392.2625 300.3097274 +22.7414233     386.9519        72.33      1.250     2.41      4.17132     20.41689     55.34547         7     0.703     0.650  19.33   0
       251    982.6074    384.4440 300.3548094 +22.7800164     953.0908     72.38531      1.717     3.25     4.603406     20.41689     94.75272        16     1.058     0.952  12.90   0
       252    520.1493    383.5995 300.2109647 +22.6412831     380.1992        72.33      1.331     2.99     4.935564     20.41689     59.03466         5     0.827     0.555 -43.67   0
       253    203.7663    381.7043 300.1131504 +22.5459187     2133.342     72.36687      1.560     2.95     4.481405     20.41689     252.9261        23     1.229     1.043  39.12   0
       254    589.7885    371.1500 300.2366883 +22.6585692     6614.962     72.40373      1.302     2.33     4.834507     20.41689     924.8296        37     1.163     1.040  71.56   0
       255   1003.5807    371.7021 300.3654876 +22.7826301     1226.241     72.29311      1.428     2.64     4.683035     20.41689     148.7738        17     1.080     0.911 -26.27   0
       256    304.7849    370.6653 300.1481454 +22.5730309     627.7513     72.34844      1.221     2.15     4.520274     20.41689     99.18588        10     0.814     0.697 -26.92   0
       257    849.6849    363.4456 300.3201708 +22.7341878     310.9037     72.34844      1.111     4.18     4.312455     20.41689     44.75309         7     0.976     0.511  60.79   0
       258    162.1911    363.6974 300.1060691 +22.5282857     452.8517      72.2562      1.237     3.38     4.428786     20.41689     70.20733         9     1.008     0.731   5.79   0
       259    703.4781    361.7474 300.2751533 +22.6899198     307.4484     72.40373      1.020     3.15      4.49523     20.41689     70.96818         7     0.906     0.554  39.63   0
       260      9.5365    361.3687 300.0593898 +22.4818438     1274.603     72.38531      1.577     3.50      4.23495     20.41689     153.6484        19     1.204     1.021  37.68   0
       261    794.0245    360.1263 300.3038967 +22.7165683     1188.214     72.40373      1.387     2.93     4.420539     20.41689     142.3065        17     1.081     0.903 -81.30   0
       262    496.4655    357.4442 300.2120792 +22.6266741     6139.128     72.34844      1.270     2.22     4.969603     20.41689      824.418        33     1.123     1.017  63.51   0
       263    985.8266    352.1701 300.3662873 +22.7716996     571.2076     72.36687      1.319     3.53       4.6771     20.41689     78.16739         9     0.911     0.755  17.48   0
       264    888.4261    351.9188 300.3359907 +22.7424722     1275.672     72.34844      1.297     2.46     4.422342     20.41689     173.8834        14     0.887     0.870 -68.16   0
       265    481.2085    345.6858 300.2111453 +22.6187255     297.6169     72.31155      1.367     3.99      4.98474     20.41689     56.81105         9     1.072     0.788  61.06   0
       266    563.9821    344.0306 300.2374521 +22.6430474     478.6498     72.34844      1.225     2.94     4.866604     20.41689      79.2058         8     0.898     0.647 -40.36   0
       267    842.0094    343.1666 300.3243583 +22.7260601     285.6981     72.36687      1.260     2.50     4.380269     20.41689     50.28407         7     0.808     0.648 -66.42   0
       268      7.9749    342.6027 300.0649933 +22.4759907     1065.269     72.31155      1.623     3.86     4.155212     20.41689      118.591        16     1.128     0.991  50.10   0
       269    544.4681    342.1747 300.2319782 +22.6366685     210.6862     72.34844      1.065     2.26     4.951065     20.41689     43.89572         5     0.696     0.465  69.66   0
       270    861.0866    339.4147 300.3315235 +22.7306928     629.9777     72.31155      1.381     2.59     4.362944     20.41689     74.77636         7     0.743     0.610   1.03   0
       271    383.8969    336.5796 300.1838159 +22.5869523     2421.684     72.27465      1.334     2.48     4.848874     20.41689     366.7335        24     1.122     1.012  43.73   0
       272    102.3611    333.8219 300.0971673 +22.5017727     995.6317     72.40373      1.592     3.22     4.335916     20.41689      116.702        19     1.217     1.063  29.55   0
       273    353.3415    326.0144 300.1777373 +22.5747617     29823.92     72.34844      1.373     2.55     4.808779     20.41689     3680.983        67     1.300     1.166  63.30   0
       274    888.1700    323.6881 300.3450710 +22.7342790     1368.292     72.34844      1.343     2.57     4.428346     20.41689     197.4286        18     1.014     0.968  47.75   0
       275     49.6763    313.7316 300.0873145 +22.4802100     5035.396     72.45898      1.606     2.97     4.250197     20.41689      594.814        34     1.298     1.201  60.29   0
       276    803.4750    312.4485 300.3223126 +22.7056927      606.365     72.36687      1.601     3.18      4.41873     20.41689      74.5469         9     1.044     0.615 -59.28   0
       277    227.4967    312.5682 300.1429600 +22.5331846     390.1922        72.33      1.207     2.75     4.600585     20.41689     65.14624         8     0.981     0.495   0.21   0
       278    452.0300    311.3952 300.2131888 +22.6001335     476.5734     72.34844      1.329     1.86     4.957784     20.41689      90.2998         7     0.659     0.620  44.20   0
       279    763.8065    305.9151 300.3120682 +22.6919378     2102.929     72.29311      1.358     2.47     4.382245     20.41689     298.2509        20     1.050     0.927  65.92   0
       280    572.0514    300.5211 300.2540812 +22.6329633     322.9291     72.36687      1.174     2.39     4.720119     20.41689     58.70702         6     0.748     0.491   9.43   0
       281    978.9023    299.0102 300.3813759 +22.7543397     453.5177      72.2562      1.179     2.35      4.57229     20.41689     88.36278         9     0.788     0.682  -5.62   0
       282    425.5718    290.3507 300.2117815 +22.5861614     2095.406     72.38531      1.504     2.95     4.944508     20.41689     299.6318        24     1.273     0.994  56.84   0
       283    637.9349    289.3376 300.2782281 +22.6494817     324.2105     72.40373      1.099     2.46     4.353939     20.41689     56.16354         7     0.721     0.638 -13.89   0
       284    163.6049    288.6452 300.1308573 +22.5071650     147.1689     72.36687      1.547     3.89     4.630309     20.41689     27.57235         5     1.056     0.411  74.24   0
       285    857.2848    284.3229 300.3482122 +22.7137154     318.5451     72.47739      1.623     3.80     4.383779     20.41689     45.13648         5     0.931     0.446  45.64   0
       286    865.0509    283.2925 300.3509678 +22.7157438     546.0698     72.44057      1.268     3.17      4.37921     20.41689     94.43719        10     1.038     0.675 -24.42   0
       287    747.0629    281.0316 300.3149226 +22.6797718     433.9167     72.38531      1.154     2.14     4.364562     20.41689     81.14895         9     0.752     0.726 -57.88   0
       288    308.7324    270.6604 300.1818173 +22.5454970      316.951     72.40373      1.659     3.84     4.882826     20.41689     38.10154         5     0.887     0.477  46.45   0
       289    215.9886    271.2847 300.1527735 +22.5178820     212.9345     72.31155      1.250     3.71     4.703538     20.41689     35.02129         5     0.811     0.489 -51.00   0
       290    501.3533    269.8339 300.2420238 +22.6029697     1135.827     72.40373      1.267     2.37     4.957355     20.41689     167.6976        14     0.972     0.806  52.38   0
       291    884.6324    263.4068 300.3635243 +22.7158870     234.1874     72.36687      1.095     3.32     4.438026     20.41689     41.82115         6     0.833     0.520  44.97   0
       292    746.2977    261.6873 300.3209591 +22.6739819     2238.963     72.53258      1.271     2.27     4.363185     20.41689     328.1801        20     1.028     0.924 -78.60   0
       293   1007.6135    256.1035 300.4042518 +22.7505910     3070.307     72.27465      1.432     2.69     4.649947     20.41689     365.7994        28     1.169     1.110 -56.05   0
       294    553.9291    255.3465 300.2630919 +22.6145548     204.2981     72.38531      1.025     3.36      4.84097     20.41689     37.48472         5     0.780     0.419 -20.12   0
       295    454.6479    245.3957 300.2354122 +22.5819578     630.7949     72.34844      1.245     3.60     4.934083     20.41689     101.8827        13     1.243     0.703  78.92   0
       296    160.1793    239.5930 300.1457021 +22.4920553     660.2941     72.34844      1.650     2.94      4.87143     20.41689      79.8673        13     1.002     0.847 -86.70   0
       297    129.5374    239.5383 300.1361956 +22.4828550     1380.497     72.40373      1.674     3.48     4.863706     20.41689     146.1032        25     1.437     1.040 -26.28   0
       298   1023.3799    236.7963 300.4154334 +22.7497549     439.7936     57.97823      1.198     2.29     4.729813     20.41689     73.41696         8     0.821     0.610 -73.34  24
       299    867.3995    233.2605 300.3679289 +22.7020602     307.8847        72.33      1.340     3.07      4.41142     20.41689     46.51949         7     0.914     0.516  29.32   0
       300    213.5653    231.9161 300.1647883 +22.5058513     526.1113        72.33      1.444     3.57     4.863979     20.41689     64.07668        10     1.050     0.692  59.28   0
       301     69.0564    229.3058 300.1207189 +22.4617876     310.5472     72.42215      1.238     4.97     4.916115     20.41689      49.2732         8     1.197     0.583 -43.99   0
       302   1008.7628    229.3632 300.4132837 +22.7432431     293.2248     72.44057      1.351     4.00      4.72329     20.41689     46.68386         6     0.888     0.516  44.87   0
       303    889.4940    225.6557 300.3772848 +22.7064859     360.6854     72.42215      1.468     3.03     4.460488     20.41689     44.75066         6     0.862     0.473  -3.51   0
       304    817.7864    223.3165 300.3556863 +22.6843509     660.7809        72.33      1.223     2.33     4.410977     20.41689     95.30833         9     0.861     0.648  10.28   0
       305    408.1979    222.6244 300.2283416 +22.5615010     424.0341     72.31155      1.578     3.46     4.985926     20.41689     45.76666         6     0.722     0.646 -86.58   0
       306    916.2236    212.1335 300.3900059 +22.7105964     2192.606     72.34844      1.463     2.68     4.512908     20.41689     269.0993        25     1.155     1.071  74.43   0
       307    334.5965    209.4166 300.2097250 +22.5356566     2032.933     72.29311      1.308     2.33     4.992373     20.41689     302.1725        21     1.169     0.901  87.72   0
       308    412.6237    204.6362 300.2355521 +22.5576590     1054.129     72.38531      1.477     2.75     4.993902     20.41689       144.07        15     0.986     0.906  21.65   0
       309    164.3091    204.9472 300.1582209 +22.4833453     237.4752     72.42215      1.156     3.20      4.98171     20.41689     37.36738         5     0.804     0.482 -31.84   0
       310    814.4338    203.6681 300.3610133 +22.6776976     404.6835     72.36687      1.212     3.75     4.406197     20.41689     63.72116         9     1.082     0.605 -88.74   0
       311    921.4035    201.1131 300.3951953 +22.7089769     318.4981     72.29311      1.092     4.46     4.522818     20.41689     47.14455         7     1.042     0.543  18.49   0
       312     10.5739    197.8533 300.1127484 +22.4352269     498.1464     72.38531      2.500     4.01     4.991678     20.41689     46.63468         6     1.036     0.460  33.18   0
       313    229.2457    196.5789 300.1811227 +22.5004026     781.3474     72.42215      1.542     2.84     4.923264     20.41689     94.02958        15     1.042     0.911 -27.07   0
       314    347.2503    196.0502 300.2179958 +22.5356081     199.9646     72.40373      1.202     4.27     5.035924     20.41689     35.84843         7     0.749     0.693  23.46   0
       315    767.2274    193.4977 300.3495972 +22.6606431     1864.338        72.33      1.416     2.63     4.396456     20.41689     247.8072        23     1.187     0.979  87.74   0
       316    831.9409    193.4068 300.3697985 +22.6799869     635.2634     72.34844      1.391     2.96     4.391815     20.41689     75.45967         9     0.950     0.639  36.56   0
       317    250.7523    189.9286 300.1899666 +22.5049372      572.278     72.34844      1.480     3.51     4.942664     20.41689     79.74533        12     1.010     0.841  81.53   0
       318    771.2783    185.0872 300.3535870 +22.6594374     849.1956     72.51419      1.335     2.70     4.401598     20.41689     118.2716        13     1.018     0.817  82.88   0
       319    540.7894    186.3478 300.2813770 +22.5907914     192.1763     72.36687      1.080     2.13     4.871142     20.41689     53.33641         5     0.706     0.441 -19.06   0
       320    691.7788    184.1767 300.3291087 +22.6353772     1319.499     72.36687      1.360     2.36     4.394923     20.41689     202.3746        18     1.045     0.908 -88.44   0
       321    513.0425    180.6431 300.2745880 +22.5808424     351.1702     72.47739      1.175     2.31     4.870646     20.41689     69.55955         8     0.806     0.663 -86.27   0
       322    887.3549    175.6951 300.3928195 +22.6914772     1543.824     72.38531      1.489     2.63     4.415772     20.41689     204.1545        20     1.194     0.969 -82.39   0
       323    618.0331    176.1115 300.3087508 +22.6109794     1003.538        72.33      1.283     2.13     4.595337     20.41689     159.3063        12     0.942     0.752  45.11   0
       324    899.3033    175.1255 300.3967302 +22.6948889     956.0182     72.51419      1.571     2.95     4.451637     20.41689     112.3604        13     1.000     0.835   0.50   0
       325   1016.0775    165.3141 300.4363364 +22.7270061     1056.615     72.49579      1.413     3.04     5.221828     20.41689      134.203        14     0.971     0.837 -75.81   0
       326     39.6576    161.9736 300.1334165 +22.4336454     448.7372     72.36687      1.255     2.68     5.053889     20.41689     60.67783         9     0.864     0.680 -20.02   0
       327    250.0832    158.2187 300.2000396 +22.4956292     745.9798        72.33      1.345     2.92     4.982656     20.41689     85.68439        13     0.925     0.895 -21.81   0
       328    111.9007    152.7778 300.1588460 +22.4526584     2258.734     72.31155      1.576     3.00     5.070637     20.41689     258.3737        27     1.326     1.067  64.57   0
       329    935.1315    150.0389 300.4160380 +22.6983937     798.7831        72.33      1.425     3.79     4.669531     20.41689     93.59036        13     1.108     0.796 -78.31   0
       330     61.4572    149.7576 300.1441499 +22.4366724     671.1287     72.31155      1.955     2.58     5.106403     20.41689     63.65955         9     0.923     0.642  48.61   0
       331    269.3025    146.2431 300.2098989 +22.4979478     5847.992     72.36687      1.407     2.52     4.976574     20.41689     634.1129        38     1.273     1.143  58.74   0
       332    250.7736    147.4985 300.2037298 +22.4927569     270.7778     72.31155      1.112     2.48     4.969417     20.41689     44.74574         5     0.710     0.441  25.01   0
       333     53.5567    140.6603 300.1446442 +22.4316925     1252.846     72.36687      1.464     2.88     5.155429     20.41689     148.5659        17     1.055     0.949 -37.99   0
       334    252.8009    137.0785 300.2077381 +22.4903714     559.6908      72.2562      1.239     2.28     4.957765     20.41689     90.90148         8     0.799     0.604 -43.97   0
       335    913.4521    127.9095 300.4164511 +22.6855414     3673.917     72.40373      1.445     2.71     4.746874     20.41689     404.0301        30     1.231     1.104 -81.39   0
       336    462.8617    123.3768 300.2775331 +22.5493572     496.7283     72.34844      1.198     2.90     4.923803     20.41689     79.78269        10     0.917     0.716  51.94   0
       337    215.9387    123.5790 300.2006519 +22.4754493     307.3239        72.33      1.288     3.72     4.940567     20.41689     44.19064         6     0.809     0.493   2.90   0
       338    577.2968    120.6874 300.3140328 +22.5828509     343.0919     72.55097      1.346     3.58     4.802929     20.41689     52.10918         8     0.946     0.705  30.30   0
       339    386.8368    114.7009 300.2566859 +22.5240948     650.7935     72.36687      1.381     3.18     5.095953     20.41689     82.09921        12     0.938     0.866 -71.54   2
       340    391.2368    113.6112 300.2584083 +22.5250996     429.4883     72.34844      1.279     3.40     5.094305     20.41689     56.57613         8     0.938     0.615  14.77   3
       341   1017.0417    126.7447 300.4491422 +22.7161976     2767.432        72.33      1.468     2.68     5.163781     20.41689     378.1838        28     1.245     1.065  74.50  16
       342    152.8406    112.0910 300.1847596 +22.4532433     657.0228     72.36687      1.469     3.85     4.989363     20.41689     84.89404        11     1.222     0.606 -20.35   0
       343    514.1603    110.3585 300.2977221 +22.5609775     1767.131     72.45898      1.326     2.47      4.86866     20.41689     220.8509        19     1.042     0.965  21.02   0
       344    442.2977    110.7857 300.2752142 +22.5395803     449.6364      72.2562      1.357     2.81     4.999214     20.41689     55.64773         8     0.935     0.569  68.54   0
       345    576.1835    109.8021 300.3172146 +22.5793885     300.3446     72.27465      1.088     2.24     4.804983     20.41689      47.3721         6     0.726     0.538 -48.59   0
       346    257.6332    105.3745 300.2195178 +22.4827121      424.721     72.38531      1.397     4.69     4.918907     20.41689     60.91326         7     1.030     0.607  39.51   0
       347    802.7617    100.0093 300.3909830 +22.6443942     351.9371     72.38531      1.266     3.00     4.929315     20.41689     61.36871        10     0.901     0.855 -63.21   0
       348    650.1856     95.9996 300.3447375 +22.5975748     183.0764     72.21926      1.285     4.28     4.740402     20.41689     43.58203         5     0.782     0.669 -86.97   0
       349    288.2719     90.1257 300.2339889 +22.4875100     6074.757     72.42215      1.410     2.59     4.916269     20.41689     659.2953        33     1.251     1.058  63.32   0
       350    139.2661     89.5777 300.1878372 +22.4427100     877.4671     72.34844      1.796     4.59     5.017403     20.41689     72.03705        14     1.348     0.730  34.85   0
       351    917.5484     87.7304 300.4307532 +22.6752084     362.8206     72.34844      1.220     3.58     4.980437     20.41689     59.55767         8     0.969     0.622  51.65   0
       352    259.9081     84.0825 300.2271263 +22.4772771     297.5731     72.51419      1.315     3.91     4.908499     20.41689     35.05737         6     0.940     0.467  34.00   0
       353    303.8121     81.4307 300.2416406 +22.4896671     263.2821     72.36687      1.208     3.74     4.951881     20.41689     42.42315         6     0.825     0.621 -31.89   0
       354     50.4868     80.6801 300.1631315 +22.4135504     410.8059     72.53258      1.646     3.29     5.483861     20.41689     58.16718         7     0.950     0.591  63.63   0
       355    534.3586     75.5310 300.3152992 +22.5570145     6215.208     72.34844      1.333     2.27     4.945918     20.41689     888.1212        34     1.179     1.038  77.64   0
       356    419.8978     75.4580 300.2796934 +22.5227196     681.8868     72.45898      1.430     2.34     5.035412     20.41689      95.5406        12     0.925     0.734 -82.36   0
       357    591.5377     70.2653 300.3348112 +22.5726193     183.7537     72.40373      1.031     2.47     4.862019     20.41689     48.39432         5     0.691     0.490 -79.00   0
       358    786.7495     66.0981 300.3969834 +22.6298491     941.8879     72.44057      1.747     5.08     5.028737     20.41689     105.6505        16     1.749     0.756 -75.12   0
       359    554.7267     69.6345 300.3235523 +22.5614176     259.4946     72.34844      1.502     4.09     4.945444     20.41689     46.82433         5     1.103     0.467   6.82   0
       360    728.7319     67.1917 300.3785471 +22.6128011     319.3588     72.34844      1.584     3.31     4.920537     20.41689     46.43877         5     0.911     0.389   4.35   0
       361    879.6172     63.7113 300.4267095 +22.6569501     507.5971     72.29311      1.685     5.19     4.861053     20.41689     56.12243        10     1.171     0.804 -36.73   0
       362    227.1044     59.5647 300.2248713 +22.4604066     456.3589     72.36687      1.506     3.31     4.896723     20.41689     58.29919         7     0.920     0.721  31.54   0
       363    585.8057     58.3011 300.3369035 +22.5674637     416.8284      72.2562      1.425     2.64     4.916038     20.41689     59.34121         8     0.866     0.622   3.34   0
       364    662.7492     55.6399 300.3617323 +22.5897307     6289.299     72.38531      1.373     2.53     4.868535     20.41689     925.4954        36     1.247     1.061  74.38   0
       365    437.5612     54.6720 300.2919270 +22.5220353     1477.977        72.33      1.316     2.40     4.994849     20.41689     214.6112        17     1.043     0.912  11.94   0
       366    703.8270     53.2805 300.3752952 +22.6013469     882.2932     72.36687      1.272     2.40     4.948974     20.41689     137.7283        14     0.958     0.844  75.74   0
       367    773.3771     50.2945 300.3979371 +22.6213020     374.7238      72.2562      1.405     3.72     5.077042     20.41689     54.96805         5     0.947     0.421  43.92   0
       368    719.7812     49.1931 300.3815911 +22.6049462     653.5134        72.33      1.528     2.67     5.008107     20.41689     60.50554         8     0.763     0.680  35.26   0
       369    186.4233     47.1616 300.2162422 +22.4446562     697.0707     72.38531      1.475     3.40     4.900653     20.41689     86.34803        15     1.277     0.826 -49.46   0
       370    989.7125     47.0843 300.4664367 +22.6851009     563.5897     72.49579      1.475     2.79     5.058172     20.41689     72.16943        11     0.968     0.716  -7.60   0
       371     33.7457     47.5969 300.1686511 +22.3990334     349.3681        72.33      1.320     3.40     5.698119     20.41689     37.78092         5     0.762     0.440  20.46   0
       372    758.2690     44.8862 300.3949810 +22.6152255     325.9218     72.47739      1.224     3.32     5.090211     20.41689     65.93665         9     1.090     0.561  65.58   0
       373    706.9629     40.6142 300.3803771 +22.5986428     2694.723     72.36687      1.377     2.19     5.015455     20.41689       432.44        26     1.122     1.019 -86.93   0
       374    721.9261     39.4073 300.3854308 +22.6027738     860.1217     72.31155      1.663     4.17      5.07057     20.41689     90.57034        18     1.499     0.845  52.92   0
       375    348.2509     41.1821 300.2685080 +22.4914126     352.2953     72.36687      1.196     3.01     4.939707     20.41689     52.81828         9     0.913     0.640 -23.77   0
       376      1.3657     34.5430 300.1628218 +22.3855811     374.1142     56.48658      1.008     3.21     5.758998     20.41689     103.4619         8     1.098     0.482 -89.56  24
       377    793.4553     32.1625 300.4100714 +22.6220947     1530.604     72.36687      1.340     2.51     5.158405     20.41689     189.9052        17     1.058     0.888  82.88   0
       378    871.5668     26.8195 300.4361550 +22.6439282     249.4856     72.36687      1.065     4.24     4.836347     20.41689     29.68573         5     0.920     0.557 -41.24   0
       379    731.4062     25.0955 300.3930227 +22.6014947      844.876      72.2562      1.541     3.45     5.184687     20.41689     101.5605        15     1.139     0.883  87.26   0
       380    537.0593     24.5007 300.3326774 +22.5431532      1049.46     72.45898      1.397     2.79     5.133543     20.41689     169.2728        15     1.108     0.817 -62.25   0
       381    440.7520     22.6790 300.3032873 +22.5137953     776.9146     72.36687      1.480     3.37     4.982355     20.41689     102.0216        14     1.075     0.934  63.77   0
       382    109.7819     24.3823 300.1998003 +22.4151508     521.9948     72.36687      1.348     3.78     5.657927     20.41689     64.73383         9     1.083     0.584 -10.04   0
       383    822.8991     21.4732 300.4227137 +22.6278296     315.2071     72.51419      1.154     3.67     5.070253     20.41689     52.57888         6     0.786     0.646  -8.56   0
       384    336.2975   1021.0721 299.9466075 +22.7690958     1039.862     68.71733      1.797     4.22     11.84844     20.41689     101.2674        21     1.225     1.174 -12.05  16
       385    171.4906   1016.7574 299.8967699 +22.7183899     1749.336     72.36687      3.296    12.50     88.65573     20.41689     59.24318        48     2.954     1.921 -40.95  18
       386      4.8885     12.7532 300.1709761 +22.3803798      370.482     71.42062      1.467     2.84     5.786666     20.41689     45.39709         7     0.852     0.573 -25.52  16
       387    216.6834   1009.2940 299.9132457 +22.7298173     2137.987     72.55097      5.282    21.36     82.78155     20.41689      61.0414        78     5.573     2.273  86.90  19
       388    538.2271     10.3228 300.3376350 +22.5394268     251.4953     72.36687      1.136     2.84     5.188727     20.41689     48.52514         5     0.716     0.456  10.60   0
       389    211.3376   1007.4260 299.9121917 +22.7276772     2245.448     72.36687      4.596    19.06     81.03374     20.41689     71.71123        66     3.611     2.794  52.93  19
       390    188.3098   1015.7264 299.9023331 +22.7231436     329.0612     72.53258      1.633     4.30      88.1534     20.41689      44.8542         7     1.423     0.370 -10.45  16
       391    587.9230   1000.3994 300.0316408 +22.8386632     2169.592      72.2562      1.800     4.50     2.522432     20.41689     155.3864        29     1.373     1.236  14.57   0
       392    396.3153   1006.8170 299.9699156 +22.7830193     670.0974        72.33      2.434     6.02     3.090861     20.41689     50.74392        15     1.311     1.146 -29.58   0
