#   1 NUMBER                 Running object number                                     
#   2 X_IMAGE                Object position along x                                    [pixel]
#   3 Y_IMAGE                Object position along y                                    [pixel]
#   4 ALPHA_J2000            Right ascension of barycenter (J2000)                      [deg]
#   5 DELTA_J2000            Declination of barycenter (J2000)                          [deg]
#   6 FLUX_APER              Flux vector within fixed circular aperture(s)              [count]
#   7 FLUXERR_APER           RMS error vector for aperture flux(es)                     [count]
#   8 FLUX_RADIUS            Fraction-of-light radii                                    [pixel]
#   9 FWHM_IMAGE             FWHM assuming a gaussian core                              [pixel]
#  10 BACKGROUND             Background at centroid position                            [count]
#  11 THRESHOLD              Detection threshold above background                       [count]
#  12 FLUX_MAX               Peak flux above background                                 [count]
#  13 ISOAREA_IMAGE          Isophotal area above Analysis threshold                    [pixel**2]
#  14 A_IMAGE                Profile RMS along major axis                               [pixel]
#  15 B_IMAGE                Profile RMS along minor axis                               [pixel]
#  16 THETA_IMAGE            Position angle (CCW/x)                                     [deg]
#  17 FLAGS                  Extraction flags                                          
         1    519.4816     18.1872 300.3326271 +22.5431070     1039.396     72.47926      1.439     3.62      5.51482     20.45381     120.9032        16     1.196     0.831  69.36   0
         2     92.5472     17.4904 300.2000094 +22.4150801     690.2515     72.53465      2.046     4.64      5.39712     20.45381     84.78622        14     1.556     0.933 -80.54   0
         3    762.7667      7.1160 300.4120244 +22.6127142     685.7921     72.46078      1.309     2.72     5.475662     20.45381      89.8553        12     0.926     0.819 -83.34   0
         4    194.6628      6.2479 300.2354035 +22.4424335     3791.061     72.53465      1.647     3.26     5.096615     20.45381     400.8638        37     1.456     1.171  52.51  16
         5    617.2298      3.7032 300.3677699 +22.5681925     303.7633       67.882      1.118     2.62     5.773985     20.45381     46.70974         6     0.726     0.548 -40.26  16
         6    520.7171      3.8368 300.3376616 +22.5393504     396.1895      68.4711      1.413     2.04      5.53695     20.45381     56.24979         6     0.717     0.516  34.89  16
         7    197.2928   1002.2223 299.9128569 +22.7290833     2133.725     72.42382      5.438    15.09     81.58453     20.45381     55.08324        46     3.396     1.865  58.14   3
         8    271.7036   1017.4716 299.9310369 +22.7557841     2791.148     72.60844      6.609    30.34     34.06833     20.45381     68.97112       225     6.240     4.095 -74.07  27
         9    223.8333    988.8200 299.9254703 +22.7332051     4466.115     72.49773      9.044    36.66     65.64121     20.45381     88.18469       413     8.603     4.337 -86.03  19
        10    256.4964   1003.4503 299.9308689 +22.7472008      3598.49     72.57156      7.328    25.35      46.3296     20.45381     82.43864       207     5.809     3.071 -11.63  19
        11    244.0717    987.9888 299.9320348 +22.7390395      6149.13     72.51619     11.017    43.38     48.84063     20.45381     125.0479       622     9.779     5.763 -59.02  19
        12    261.6165    977.0311 299.9410565 +22.7411617     8967.507     72.47926     12.292    38.87     29.33553     20.45381      188.354      1011    12.952     5.341  63.53  19
        13    152.6649    959.2095 299.9129739 +22.7033596     1263.827     72.47926      5.057     8.42     50.23915     20.45381     41.37877        15     2.370     0.836  85.44   3
        14      5.0483    991.6188 299.8565541 +22.6683432     2101.945     71.94161     10.050    18.96    -19.00396     20.45381     51.69427        85     4.247     2.353 -31.72  27
        15    149.0099    954.9079 299.9132369 +22.7010296     1384.774     72.44231      7.514    10.42     45.99846     20.45381     47.00393        16     2.798     1.081 -25.49   3
        16    571.3520    994.2336 300.0318646 +22.8390008     1678.531     72.53465      1.569     4.27     3.324769     20.45381      151.794        20     1.442     0.843  76.74   3
        17    675.1416    956.5109 300.0764712 +22.8592932     7063.236     72.57155      1.921     4.20     3.947369     20.45381     459.7421        51     1.549     1.496   2.80   0
        18    569.0000    994.0397 300.0311952 +22.8382399     1319.367     72.47926      1.612     5.71      3.32479     20.45381     105.2621        11     1.335     0.705  89.94   3
        19    554.8215    950.6623 300.0408913 +22.8215418     351.5456     72.47926      1.740     4.20     3.679997     20.45381     44.32506         6     1.130     0.604  43.88   0
        20    266.5127    950.5046 299.9512084 +22.7350240     529.6632     72.68215      1.688     5.03     16.69175     20.45381     58.16653        11     1.329     0.815  23.24   0
        21      4.1657    951.1868 299.8694320 +22.6564908     538.8803     69.49963      3.697     4.87    -5.025136     20.45381     38.16276         5     1.318     0.510  27.44  24
        22    583.6308    947.0938 300.0510251 +22.8291558     1628.753     72.42382      1.847     4.27     3.727245     20.45381     117.2112        26     1.369     1.175  26.36   0
        23    656.7083    989.5902 300.0599656 +22.8632609     8530.485     72.44231      1.973     4.59     3.766418     20.45381     527.3855        46     1.573     1.490  36.75   3
        24    662.3353    987.3356 300.0624524 +22.8643009     9553.494      72.5531      1.992     4.71     3.816238     20.45381     547.6178        50     1.546     1.489   0.15   3
        25    477.5649    943.7526 300.0190822 +22.7963927     1094.325     72.53465      1.809     5.42     3.771319     20.45381     85.92816        18     1.239     1.101 -27.41   0
        26    408.0339    941.5865 299.9981426 +22.7749185     6684.108     72.47926      1.906     4.32     4.318163     20.45381     519.9443        43     1.497     1.390  33.21   0
        27    440.7110    928.9862 300.0124123 +22.7811040     522.8647     72.44231      1.648     4.56       4.2327     20.45381     47.57114        12     1.083     0.994 -32.52   0
        28    757.0500    990.0192 300.0910972 +22.8934640     643.4427     72.47926      1.968     6.76     4.160286     20.45381     41.48181        15     1.504     0.851   5.17   0
        29    954.4736    920.6089 300.1752451 +22.9326944     2209.197     72.49773      2.038     5.54     4.403397     20.45381     118.6257        35     1.558     1.438  -8.85   0
        30    604.1779    917.6799 300.0669931 +22.8268746     376.1753     72.46078      1.530     5.28     3.953946     20.45381     42.27576         8     1.309     0.601  12.91   0
        31    189.4361    980.6921 299.9174183 +22.7205531     1351.447     72.44231      4.628    12.01     64.95535     20.45381     60.15115        28     2.881     1.395  67.30   3
        32    743.1961    908.9719 300.1131443 +22.8660454     807.1792     72.46078      2.258     5.98     4.232295     20.45381     54.10513        14     1.425     0.987 -17.40   2
        33    189.6236    977.2965 299.9185813 +22.7196358     1498.771     72.40533      4.423    12.68     61.35345     20.45381     46.53942        33     2.928     1.529  43.57   2
        34    778.1558    903.6503 300.1257731 +22.8749946     1148.138     72.53465      1.912     4.38     4.257253     20.45381     76.82058        21     1.316     1.045 -18.86   0
        35    556.0494    904.2379 300.0563741 +22.8085878     457.1623     72.51619      1.888     4.34     4.008914     20.45381     31.41158         7     0.748     0.718   3.05   0
        36    111.7904   1011.7264 299.8831832 +22.7061470     3426.767     72.49773     13.801    69.34     88.57423     20.45381     135.9254      1328    15.148     8.808  40.57  27
        37      4.2430    977.4243 299.8609215 +22.6640335     2011.433     69.86466     12.365    21.83    -14.49029     20.45381      61.5026       107     4.599     2.879 -79.75  27
        38    991.5947    897.5455 300.1943293 +22.9371897     425.9186     72.49773      1.852     5.25     4.606232     20.45381     31.77365         7     0.943     0.825 -61.19   0
        39    193.0928   1000.5733 299.9120874 +22.7273502     2062.965     72.44231      4.159    13.09     81.37278     20.45381     61.85777        50     2.602     2.073   4.53   3
        40    800.2880    897.3091 300.1347355 +22.8798062     11513.64     72.66373      1.856     4.18         4.29     20.45381     700.7969        55     1.487     1.453  33.31   0
        41    933.1800    890.9749 300.1782409 +22.9178038      292.102     72.49773      1.507     5.03     4.363677     20.45381     40.28634         7     1.076     0.757 -59.25   0
        42    112.0630    889.0848 299.9231593 +22.6710710     1208.467     72.60844      4.767     5.26     9.196797     20.45381     55.41893        16     1.461     0.929 -37.17   0
        43    505.5756    885.2693 300.0468250 +22.7880112     426.3685     72.49773      1.561     4.12     4.210909     20.45381      43.1297         6     1.061     0.456  32.39   0
        44    808.9144    879.4725 300.1432262 +22.8772694     1420.162     72.60844      1.917     4.55     4.360357     20.45381     90.55472        22     1.265     1.149  19.88   0
        45    948.6559    972.6319 300.1565060 +22.9458923     773.1223     72.51619      2.212     5.50     4.237937     20.45381     57.03878        12     1.341     0.684 -69.83   2
        46    660.5217    876.2281 300.0980285 +22.8318664     430.0873     72.51619      1.781     6.13     4.289644     20.45381      39.6487        11     1.153     0.917 -13.71   0
        47    847.0263    873.0005 300.1572150 +22.8868303     791.1657     72.46078      1.966     5.63     4.369286     20.45381     48.51011        17     1.288     1.049 -19.65   0
        48    100.9173    944.3969 299.9017061 +22.6835837     5658.574     72.42382     26.954   109.02     25.17689     20.45381     1326.469      4170    21.088    15.637 -79.94  18
        49      6.0621   1013.0786 299.8498876 +22.6747972     3071.717     72.57155     11.628    45.31    -25.12439     20.45381     64.64913       494     9.698     5.875 -76.00  27
        50    895.0107    863.9241 300.1751320 +22.8985996     607.8387     72.51619      1.842     5.69     4.405685     20.45381     44.33364        15     1.267     0.962  50.39   0
        51    747.0516    862.9608 300.1293101 +22.8539906      644.473     72.49773      1.627     3.93     4.399941     20.45381     61.77636        15     1.057     1.022  22.65   0
        52    758.4116    860.0681 300.1337919 +22.8565642     730.8837     72.51619      1.868     5.00     4.415844     20.45381     46.55663        14     1.191     1.022  -4.52   0
        53    459.3277    859.3044 300.0408693 +22.7666936     4196.094     72.60844      1.716     3.74     4.552273     20.45381     345.8809        37     1.351     1.332 -76.59   0
        54      5.8831    861.0391 299.8992816 +22.6311670      238.046     72.46078      1.468     3.75     5.078053     20.45381     34.01631         5     1.231     0.327  26.07  16
        55    238.0219    848.2180 299.9756116 +22.6971419     380.6792     72.49773      1.339     5.58     6.430943     20.45381     39.88233         7     1.198     0.731  82.86   0
        56    503.1813    847.6913 300.0582992 +22.7765095     304.8022     72.42382      1.457     5.05     4.548709     20.45381     33.95303         8     0.972     0.741 -80.93   0
        57    184.3558    844.7510 299.9600498 +22.6800486     692.1492     72.53465      1.838     7.23     7.147443     20.45381     51.35455        14     1.342     1.090  33.35   0
        58    161.6391    841.9595 299.9538942 +22.6724330     1488.023     72.57155      1.833     4.44     7.260939     20.45381     121.7927        27     1.386     1.236  14.98   0
        59    169.0157    958.6306 299.9182457 +22.7081003     1677.067     72.49773      3.732    13.93     50.33537     20.45381     59.88766        51     2.776     1.943  56.13   0
        60    987.7061    829.9459 300.2150998 +22.9166052     2020.956      72.5531      1.803     4.33     4.603654     20.45381     123.5395        29     1.447     1.219  24.80   0
        61     37.3814    831.1052 299.9188008 +22.6320379     347.5666     72.42382      1.514     3.85     5.148788     20.45381     32.00749         5     0.882     0.482  85.59   0
        62    694.0239    829.6138 300.1236261 +22.8285247       386.48     72.49773      1.831     6.68     4.495337     20.45381      31.0513        10     1.357     0.922  -2.96   0
        63    464.1684    829.9212 300.0519303 +22.7597131     223.1007     72.47926      1.261     3.98     4.769459     20.45381     37.36209         5     1.032     0.440 -42.78   0
        64    771.4880    823.7405 300.1496807 +22.8500510     675.0516     72.57155      1.784     6.38     4.543787     20.45381     55.01708        13     1.190     1.003  75.98   0
        65    518.6574    821.9909 300.0714745 +22.7737732     259.3186     72.47926      1.455     4.12     4.755656     20.45381     28.12605         5     0.804     0.603   1.22   0
        66    129.6393    818.4370 299.9515933 +22.6560870     420.4055     72.57155      1.829     5.40     5.603052     20.45381     38.17547         8     1.278     0.644 -84.32   0
        67    639.3016    817.5461 300.1104982 +22.8086601      4871.24        72.59      1.651     3.30      4.51995     20.45381     469.2944        37     1.333     1.254  45.91   0
        68    441.6407    814.9172 300.0497953 +22.7486531     559.6707     72.46078      1.519     4.43      4.82712     20.45381     52.82633         8     0.828     0.699  -0.31   0
        69    189.7348    811.2611 299.9726103 +22.6720574     1179.024     72.53465      1.575     3.76     5.619566     20.45381      107.627        23     1.389     1.127  -5.98   0
        70    659.8672    810.1118 300.1193230 +22.8126892     687.1575     72.60844      1.595     4.88     4.547091     20.45381     57.69513        14     1.285     0.840  33.97   0
        71    458.4209    810.2241 300.0565449 +22.7523373      222.123     72.49773      0.978     3.44     4.905895     20.45381     27.26352         5     0.752     0.454  71.11   0
        72    209.0030    808.5916 299.9794698 +22.6770715     503.7888     72.31283      1.640     4.41     5.499562     20.45381     65.45699         9     1.140     0.856 -70.37   0
        73    815.3703    797.3409 300.1719453 +22.8556169     4158.019     72.51619      1.659     3.67     4.629663     20.45381     359.5605        32     1.290     1.193  25.03   0
        74    223.5255    791.2787 299.9896141 +22.6764616     474.5352     72.60844      1.671     5.14     5.202665     20.45381     49.60756        12     1.163     0.875  -4.57   0
        75    532.3209    789.7642 300.0862064 +22.7686192     534.1692     72.44231      1.545     4.09     4.950047     20.45381     63.44157        12     1.067     0.863 -27.42   0
        76    178.4525    787.2997 299.9768913 +22.6618005     1191.347        72.59      2.008     5.02      5.16537     20.45381     97.04662        24     1.527     1.166  63.67   0
        77    328.3643    779.7092 300.0259870 +22.7045844     53829.68     72.47926      1.704     3.43     4.952409     20.45381     5481.672        97     1.483     1.435  46.14   0
        78    594.2724    783.3505 300.1075870 +22.7853471       609.52     72.47926      2.033     5.76     4.739573     20.45381      58.2509         9     1.186     0.802 -35.24   0
        79    586.2799    778.9678 300.1065220 +22.7816935     1548.318     72.49773      1.606     3.25     4.782065     20.45381     165.6926        23     1.185     1.142  20.93   0
        80    999.2320    778.2296 300.2355109 +22.9051978     803.5111     72.49773      1.824     6.59     4.679213     20.45381     51.93679        18     1.383     1.142  -8.30   0
        81    256.4267    777.9172 300.0041902 +22.6824967     500.5215     72.47926      1.685     5.11     5.174009     20.45381     39.90978        11     1.057     0.871 -12.94   0
        82    615.1781    774.8725 300.1168555 +22.7891788     932.0475     72.53465      1.719     3.84      4.70019     20.45381     83.80109        15     1.213     0.861  59.72   0
        83     15.0055    774.1124 299.9303742 +22.6089830     835.3345     72.40533      1.841     4.94     5.175716     20.45381      59.5639        13     1.150     0.940 -62.52   0
        84    626.5981    773.3080 300.1209218 +22.7921521     541.6752     72.40533      1.522     2.79     4.695062     20.45381     56.58694         8     0.861     0.626 -74.42   0
        85    945.4307    770.7326 300.2211609 +22.8869316     354.9177     72.47926      1.730     4.19      4.70542     20.45381     33.98895         6     1.056     0.474 -81.23   0
        86    731.4490    769.8241 300.1547282 +22.8225709     433.1701     72.49773      1.525     4.78     4.686843     20.45381     40.48929        11     1.072     0.743  38.40   0
        87    768.8134    760.1802 300.1695102 +22.8309959      726.539     72.46078      1.520     4.79     4.710374     20.45381     64.42759        16     1.326     0.878 -48.20   0
        88    378.1049    756.9725 300.0488555 +22.7129751     32117.38     72.40533      1.590     3.22     4.866099     20.45381     3300.546        69     1.390     1.335  48.41   0
        89    392.4376    757.4811 300.0531508 +22.7174183      1944.56     72.46078      1.646     3.19     4.898103     20.45381     216.6992        24     1.291     1.039  29.44   2
        90    389.4352    751.6104 300.0541245 +22.7148333     643.3221     72.49773      1.454     3.35     4.899405     20.45381     70.33411         9     0.953     0.740  56.83   2
        91    901.3983    753.0943 300.2131583 +22.8686763     2912.143     72.40533      1.761     3.81     4.765865     20.45381     197.7369        30     1.336     1.229  18.21   0
        92    659.0692    749.0884 300.1389115 +22.7949286     964.0673     72.66373      1.528     3.64     4.737653     20.45381     94.74006        17     1.128     1.011  41.73   0
        93    495.7574    749.3528 300.0879564 +22.7460593     373.5964     72.53465      1.396     2.54       5.0828     20.45381     68.35037         7     0.922     0.476   2.66   0
        94    260.6014    748.5644 300.0150292 +22.6753278     644.5676     72.46078      1.547     4.40     5.144073     20.45381     78.82855        15     1.276     0.948  58.38   0
        95    506.2778    743.9462 300.0929895 +22.7476608     872.5137     72.53465      1.458     3.06     5.072386     20.45381     119.1433        16     1.038     0.987   6.95   0
        96     66.2695    744.3748 299.9559694 +22.6158363     422.5246     72.49773      1.558     2.74     5.081593     20.45381     53.90546         6     0.872     0.443  88.30   0
        97    907.6017    740.8060 300.2190875 +22.8670038     605.7742     72.31283      1.621     4.96     4.803568     20.45381     57.98309        13     1.246     0.801  33.76   0
        98    408.4590    740.0378 300.0638068 +22.7172157     208.0455     72.51619      1.365     2.58     4.983172     20.45381     45.87309         6     0.777     0.726 -88.23   0
        99    452.0189    738.7582 300.0777821 +22.7299071     489.7719     72.51619      1.435     3.12     5.071503     20.45381      63.0565         8     0.939     0.619 -60.38   0
       100    661.1755    738.1423 300.1431256 +22.7924165     271.0061     72.49773      1.280     4.04     4.769074     20.45381     35.11172         6     0.819     0.570  49.05   0
       101     94.2745    737.7868 299.9668145 +22.6223483     645.4949     72.51619      1.727     4.06     5.022544     20.45381     53.51323        13     1.066     0.951  33.50   0
       102    885.4194    736.0931 300.2137003 +22.8590061     470.5234     72.42382      2.052     4.30     4.818601     20.45381     33.08588         7     1.096     0.480  41.48   0
       103    258.1458    732.7548 300.0194035 +22.6700556     634.5775     72.53465      1.753     5.13     5.137863     20.45381     53.79919        12     1.072     0.836  51.46   0
       104    581.5550    723.8339 300.1229705 +22.7644485     563.0389     72.53465      1.550     3.63     4.939098     20.45381     59.73924        10     0.953     0.845 -25.44   0
       105    551.3621    721.9290 300.1141853 +22.7548530     657.4227     72.47926      1.430     3.61     5.029408     20.45381     61.82337        11     0.921     0.827 -31.79   0
       106    461.2744    721.2873 300.0863415 +22.7276668     343.0837      72.6453      1.104     2.52      5.09934     20.45381     49.99236         4     0.765     0.332 -33.61   2
       107    967.6714    718.4506 300.2450939 +22.8785694     4600.669     72.49773      1.771     3.76     4.931956     20.45381     333.3635        38     1.372     1.309  11.84   0
       108    572.9977    719.2487 300.1217951 +22.7605675       1315.6     72.47926      1.544     3.47     4.974728     20.45381     133.3168        22     1.370     1.057  -6.59   0
       109    493.0413    718.3474 300.0971875 +22.7363449     379.8621     72.49773      1.296     3.17      5.10892     20.45381     47.08515         5     0.804     0.484  53.82   0
       110    654.7022    714.3009 300.1488570 +22.7836305     267.0152     72.71898      1.265     2.91     4.860734     20.45381     52.80555         6     1.002     0.441  82.35   0
       111    956.2643    709.9352 300.2443023 +22.8727066     1720.603      72.5531      1.728     3.67     4.985608     20.45381     117.1095        28     1.311     1.218 -58.58   0
       112    319.0732    703.6354 300.0478204 +22.6799697     779.6436     72.46078      1.518     3.47     5.021318     20.45381     81.67158        15     1.080     0.930 -20.91   0
       113    987.3057    700.0376 300.2572046 +22.8791571     1833.788     72.47926      1.792     5.19     5.047694     20.45381     127.4938        29     1.538     1.289 -40.60   0
       114    782.4521    701.0194 300.1929903 +22.8180887     2563.472     72.47926      1.563     3.28     4.908057     20.45381     224.2669        28     1.242     1.170  17.87   0
       115      5.3667    691.2753 299.9542988 +22.5823373     727.6054     72.38684      1.537     4.08     5.283864     20.45381     77.03308        13     1.297     0.803 -43.48  16
       116    864.8936    687.1213 300.2232140 +22.8387887     523.3735     72.62687      1.593     4.94     4.843818     20.45381     49.65815        11     1.015     0.840  20.50   0
       117    167.6192    687.1623 300.0060660 +22.6298267     617.4077     72.51619      1.644     5.97     5.288167     20.45381     57.25659        11     1.151     0.983  -6.68   0
       118    900.9597    677.9713 300.2374365 +22.8469605     149018.1     72.51619      1.601     3.22     5.042714     20.45381     12138.04       147     1.495     1.445  58.79   0
       119    662.9046    681.6810 300.1620132 +22.7767203     385.5107      72.6453      1.466     4.76      4.97413     20.45381     46.34131         8     0.957     0.783  10.91   0
       120    753.2401    678.2084 300.1912962 +22.8027856     648.1711     72.49773      1.381     3.25     4.993317     20.45381     80.39122        10     0.951     0.720  26.91   0
       121    934.7007    671.0599 300.2502079 +22.8550782     488.2836        72.59      2.314     5.37     5.231179     20.45381     38.21022         6     1.391     0.585  64.11   2
       122    587.1814    666.6462 300.1433065 +22.7497138     1532.537     72.53465      1.436     2.89     5.097067     20.45381     193.1264        20     1.066     1.013  19.84   0
       123    768.3834    664.0905 300.2006043 +22.8032662     9439.014     72.42382      1.483     2.95     5.048213     20.45381     917.1814        41     1.268     1.183  60.83   0
       124    269.8936    658.9723 300.0470323 +22.6524074     4960.714     72.40533      1.542     3.14     5.160532     20.45381     490.7017        32     1.269     1.167  46.26   0
       125    351.9111    657.1749 300.0731341 +22.6764809     1120.995     72.44231      1.545     3.19     5.109172     20.45381     127.7085        19     1.142     1.060  46.51   0
       126    228.0456    654.9047 300.0353373 +22.6386924     493.1394     72.51619      1.332     2.22     5.324508     20.45381     65.02203         8     0.781     0.634  27.88   0
       127    560.3334    652.7780 300.1394496 +22.7376866     641.5978     72.49773      1.366     3.26     5.249237     20.45381     89.50211        12     0.992     0.838 -16.44   0
       128    551.8751    644.8801 300.1393811 +22.7328841     3214.375     72.60844      1.457     3.01     5.319769     20.45381     359.6964        26     1.131     1.093  83.10   0
       129    542.1714    638.6554 300.1383812 +22.7281890     1501.968     72.49773      1.459     2.80     5.371482     20.45381     170.7177        18     1.149     0.898  39.44   0
       130    470.6206    637.7347 300.1163998 +22.7064825     262.8505     72.47926      1.187     3.62     5.354541     20.45381     47.04554         7     0.928     0.739  42.63   0
       131    935.6212    636.7274 300.2616503 +22.8454872     422.6678     72.51619      1.508     4.45     5.328579     20.45381      43.5574        10     1.042     0.828 -37.25   0
       132    205.3349    634.4288 300.0349262 +22.6260071     511.0038     72.51619      1.489     4.55     5.510212     20.45381      57.0048        11     1.101     0.764  22.02   0
       133    219.8064    633.1791 300.0398327 +22.6299878     632.6786     72.47926      1.614     4.26     5.497799     20.45381      58.6044        11     0.986     0.923 -70.86   0
       134    245.3914    629.9551 300.0488375 +22.6367340     580.5269     72.51619      1.742     6.06     5.383324     20.45381     48.37531        13     1.085     1.003 -89.09   0
       135    989.1008    629.9928 300.2805248 +22.8595630     481.8326     72.38684      1.496     4.66     5.427615     20.45381     45.57642         9     0.961     0.702 -75.42   0
       136    566.1086    628.9911 300.1489763 +22.7325864     453.8349     72.42382      1.474     4.75     5.434208     20.45381     46.24233         9     0.842     0.759  36.94   0
       137    466.7986    628.2043 300.1183059 +22.7026008     1783.171     72.31283      1.502     3.41     5.403142     20.45381     172.4623        24     1.152     1.091  57.49   0
       138    501.0850    627.9740 300.1290563 +22.7128097     147.1013     72.47926      1.187     3.76      5.45556     20.45381     36.94093         5     0.826     0.491 -26.20   0
       139    120.8389    623.0989 300.0123346 +22.5974181     19951.32     72.51619      1.689     3.44     5.500479     20.45381     1768.376        63     1.474     1.383  39.61   0
       140     41.9143    624.5997 299.9873161 +22.5741775     687.8207     72.36835      1.605     4.41     5.046543     20.45381     65.95208        12     1.187     0.851  58.85   0
       141    551.8474    623.6550 300.1462679 +22.7267808     1100.371     72.53465      1.523     2.79     5.479915     20.45381     130.2818        17     1.048     0.973 -26.63   0
       142    586.6917    623.1239 300.1572938 +22.7370688     414.3256      72.6453      1.299     2.47     5.474282     20.45381     62.34832         5     0.899     0.326   3.13   0
       143    305.3119    615.0738 300.0723115 +22.6504277     287.9346      72.6453      1.396     5.02     5.131153     20.45381       35.215         8     1.013     0.703 -14.06   0
       144    969.7239    609.9194 300.2809998 +22.8479923     1068.311     72.60844      1.590     4.23     5.480119     20.45381     97.28972        15     1.055     0.968 -57.30   0
       145     66.9185    607.3046 300.0007046 +22.5767159     1866.716      72.6453      2.338     5.59     5.190965     20.45381     117.8814        35     1.829     1.342 -73.29   0
       146    836.8524    607.8815 300.2402143 +22.8076227     492.7194     72.53465      1.538     4.77     5.337293     20.45381     51.40014         7     0.989     0.726 -44.81   0
       147    133.2771    607.8675 300.0211487 +22.5967783     408.9639        72.59      1.837     3.19     5.591028     20.45381     42.85427         6     0.862     0.488 -52.62   0
       148    515.1942    604.0262 300.1412292 +22.7101613     348.6312     72.47926      1.483     4.35     5.601361     20.45381     45.43561         8     1.017     0.744  85.79   0
       149    910.0280    602.5941 300.2647551 +22.8280144     938.2311     72.49773      1.995     4.00     5.387282     20.45381     78.81435        15     1.104     0.979  -3.68   2
       150    472.0498    596.6664 300.1301855 +22.6951193     588.3926     72.47926      1.209     2.37     5.565793     20.45381     81.47861         7     0.733     0.590  -3.41   0
       151    619.8788    595.0662 300.1767468 +22.7389533     454.8808     72.60844      1.345     4.41     5.583529     20.45381     56.87258        11     1.068     0.850 -58.88   0
       152    666.9724    593.8643 300.1918107 +22.7527157     484.0348     72.49773      1.676     5.01     5.457142     20.45381     46.51569        10     0.979     0.773  58.48   0
       153    637.6078    593.4575 300.1827930 +22.7438024     617.0384     72.47926      1.489     3.77     5.539047     20.45381      68.1156        12     1.053     0.834  31.85   0
       154    516.3710    592.4077 300.1453695 +22.7071776     958.8554     72.49773      1.572     3.42     5.618295     20.45381     97.74373        17     1.149     0.976  42.79   0
       155    950.0302    588.0200 300.2819690 +22.8358018      3202.05     72.49773      1.520     3.13      5.47361     20.45381     283.0006        31     1.270     1.149  27.20   0
       156    481.6925    587.8707 300.1360447 +22.6954833     1731.454     72.62687      1.439     2.80      5.62394     20.45381     217.5212        19     1.058     0.962  31.67   0
       157    847.3041    585.3229 300.2508016 +22.8042700     335.9171     72.62687      1.499     5.02     5.357705     20.45381     33.58488         7     1.063     0.670 -85.38   0
       158    456.9555    583.1447 300.1298780 +22.6867134     210.8875     72.51619      1.201     3.31     5.520813     20.45381     37.35866         6     0.753     0.565 -39.06   0
       159     43.6785    581.2776 300.0019352 +22.5622794     5304.976     72.60844      1.815     3.53     5.134671     20.45381     434.3613        42     1.429     1.407 -87.48   0
       160    511.1125    578.9370 300.1481073 +22.7017336     283.8438     72.60844      1.353     3.31     5.636641     20.45381     41.75986         5     0.780     0.501  24.08   0
       161    989.3441    578.1760 300.2974336 +22.8447411     339.2363     72.51619      1.298     4.47     5.541228     20.45381     41.86005         9     0.893     0.785  10.02   0
       162    345.0811    574.4832 300.0978697 +22.6506977     9216.873      72.6453      1.478     2.81     5.362988     20.45381     1071.953        43     1.307     1.153  51.69   0
       163    467.5460    571.5683 300.1369351 +22.6865631     9023.502     72.51619      1.426     2.55     5.591521     20.45381     1197.196        38     1.190     1.129  50.35   0
       164    713.4979    567.8027 300.2147753 +22.7591645     365.9822     72.40533      1.753     4.96     5.382175     20.45381     38.23164         7     1.017     0.686  48.11   0
       165    879.3584    565.7014 300.2671720 +22.8082286     1961.694     72.47926      1.564     3.05     5.399511     20.45381     205.5245        23     1.220     1.008  74.77   0
       166    963.9146    563.0711 300.2944048 +22.8327868     12590.21     72.60844      1.562     3.09     5.526282     20.45381       1157.8        49     1.334     1.269  82.78   0
       167    528.1865    561.1481 300.1592019 +22.7017409     11585.39     72.53465      1.393     2.76     5.662043     20.45381     1190.137        40     1.197     1.113  55.45   0
       168    697.7048    556.9291 300.2133846 +22.7513104     569.5698     72.60844      1.521     3.97     5.491011     20.45381     60.99153        10     0.939     0.854  32.02   0
       169    255.5810    556.5182 300.0758589 +22.6187129     1333.046     72.47926      1.520     3.22     5.522035     20.45381     153.8368        19     1.189     0.960  44.39   0
       170    413.6631    555.5198 300.1253728 +22.6658079     186.8692     72.60844      1.135     3.19     5.432092     20.45381     49.27745         5     0.928     0.500   0.30   0
       171    502.0820    554.0618 300.1533741 +22.6918843     502.7328        72.59      1.778     3.61     5.671922     20.45381     62.17369         9     0.952     0.720 -10.70   0
       172    459.8173    549.3216 300.1417537 +22.6778590      4383.06     72.49773      1.418     2.73     5.605956     20.45381      504.287        28     1.156     1.071  60.72   0
       173    802.6293    549.6778 300.2484479 +22.7806492     822.1996     72.49773      1.457     3.27     5.388766     20.45381     92.95813        14     1.033     0.885  49.08   0
       174    438.1226    547.7089 300.1355234 +22.6708949     1307.122      72.6453      1.460     2.89     5.532277     20.45381      162.629        17     1.136     0.843  30.87   0
       175    192.6072    546.9481 300.0593809 +22.5970872     698.3143     72.49773      1.460     3.24     5.619723     20.45381     95.11799        13     1.052     0.853 -41.73   0
       176    879.8897    545.0727 300.2740375 +22.8024587     1551.495     72.66373      1.532     3.39     5.426481     20.45381     142.9205        23     1.195     1.069 -41.17   0
       177    125.6062    545.3881 300.0390551 +22.5765509     254.7551     72.36835      1.268     4.66      5.52463     20.45381     39.47885         7     1.125     0.549 -42.47   0
       178    576.4734    536.9142 300.1821115 +22.7092470     204297.4     72.62687      1.413     2.58     5.707425     20.45381     26624.12       192     1.423     1.397  -6.88   0
       179    400.4351    543.1593 300.1252694 +22.6582948     290.6581      72.5531      1.238     2.83      5.46697     20.45381     45.94059         5     0.722     0.461  70.89   0
       180    760.2047    541.8418 300.2377658 +22.7656933     797.0613     72.51619      1.430     2.79     5.361031     20.45381     123.1507        14     1.025     0.834  64.46   0
       181    262.5383    536.7730 300.0844350 +22.6151309     3470.855     72.49773      1.512     2.83     5.516576     20.45381     450.6632        28     1.166     1.133  17.42   0
       182    828.3414    533.1846 300.2618217 +22.7836083     482.4994     72.47926      1.456     3.82     5.323493     20.45381     59.08417         8     0.916     0.761  87.06   0
       183    847.9083    531.2350 300.2685569 +22.7889064     326.9629     72.47926      1.598     4.67      5.29663     20.45381     34.56499         5     0.924     0.670 -20.79   0
       184    467.0739    517.5787 300.1543208 +22.6709178     2750.097     72.49773      1.511     2.99     5.617925     20.45381     273.8045        29     1.594     1.000 -89.39   0
       185    311.2370    519.5681 300.1051719 +22.6247890     415.7596     72.51619      1.459     2.96     5.407625     20.45381      52.1086         8     0.855     0.670 -45.14   0
       186    916.6566    516.9127 300.2946513 +22.8053712     171.1288     72.57155      1.533     4.09     5.432145     20.45381     52.25796         5     1.047     0.456  81.90   0
       187    878.5406    514.1533 300.2836577 +22.7931676     387.5947      72.5531      1.311     3.08     5.224249     20.45381     58.02515         5     0.945     0.348  -6.20   0
       188    698.3327    512.7272 300.2279346 +22.7387986     250.1254      72.5531      1.425     3.85      5.49466     20.45381      47.2285         6     0.911     0.467 -85.43   0
       189    784.5431    506.1602 300.2569406 +22.7627276     437.8992     72.47926      1.380     3.40     5.220906     20.45381     48.49022         8     0.877     0.646 -27.08   0
       190    864.0885    503.6717 300.2825536 +22.7858282     1763.848     72.66373      1.439     2.74     5.074669     20.45381     209.1605        20     1.083     0.983 -74.69   0
       191    750.7112    503.4307 300.2472795 +22.7518127     371.8439     72.47926      1.718     4.36     5.202527     20.45381     27.57499         7     0.962     0.563 -58.68   0
       192    735.2792    501.1485 300.2432100 +22.7465358     2734.006     72.49773      1.388     2.56     5.207103     20.45381     301.1685        26     1.108     1.047  76.67   0
       193    978.6415    495.5691 300.3209213 +22.8177888     1047.398     72.51619      2.087     8.03     5.536802     20.45381     78.19391        19     2.426     0.744  71.04   0
       194    944.6687    498.0603 300.3095122 +22.8083367       332.88     72.53465      1.297     4.05     5.486267     20.45381     39.59815         5     1.025     0.458  23.91   0
       195    640.1941    497.9200 300.2146251 +22.7171320     374.3542     72.42382      1.215     2.52      5.74297     20.45381     58.98007         6     0.732     0.548 -29.42   0
       196    522.5203    497.2308 300.1781929 +22.6816856     669.1217     72.49773      1.296     3.18     5.773663     20.45381     83.19771        14     1.043     0.907  38.30   0
       197    992.6008    495.3341 300.3253536 +22.8218992     1214.625     72.47926      1.538     3.09      5.55857     20.45381     124.5237        19     1.082     1.040  55.51   0
       198    864.3684    493.6587 300.2858922 +22.7830338     2180.114     72.51619      1.693     3.94     4.996977     20.45381     208.1266        29     1.546     1.026  76.79   0
       199    617.8395    491.9126 300.2096106 +22.7087106     697.3279     72.47926      1.270     2.26     5.812438     20.45381     91.22959        10     0.841     0.705  -1.11   0
       200    902.5245    488.6807 300.2994100 +22.7930251     4395.746     72.60844      1.500     2.79     5.247861     20.45381     497.5106        34     1.209     1.137  58.17   0
       201    455.3571    490.6512 300.1594160 +22.6596740     400.5773     72.53465      1.398     4.58     5.523888     20.45381     132.4504         7     1.273     0.468 -19.12   0
       202    403.9954    491.7060 300.1430847 +22.6445874     260.5425     72.38684      1.243     2.23     5.329615     20.45381     44.65387         7     0.676     0.665 -70.75   0
       203    543.5370    488.3217 300.1876309 +22.6854226     254.6309        72.59      1.256     4.70     5.843225     20.45381     38.53688         6     0.982     0.639  27.87   0
       204    640.0706    485.6788 300.2185611 +22.7135781     162.8517     72.60844      1.110     2.41     5.761712     20.45381     38.85981         5     0.838     0.466   1.79   0
       205    563.2952    484.5450 300.1950111 +22.6902563     225.5604      72.5531      1.082     2.53     5.855046     20.45381     40.83588         5     0.692     0.463 -20.81   0
       206    994.2322    479.3331 300.3310582 +22.8177867     682.2286     72.49773      1.544     4.17     5.556969     20.45381     74.49117        13     1.057     0.931  68.32   0
       207    134.7830    478.8896 300.0634987 +22.5602191      921.746     72.42382      1.479     2.77     5.692539     20.45381     129.8925        17     1.168     0.936  83.32   0
       208    795.4710    473.0304 300.2711046 +22.7564780     395.7242     72.49773      1.420     3.87     5.078156     20.45381      49.6172         7     0.943     0.604  28.34   0
       209    127.3583    468.4913 300.0645660 +22.5550089       390.77     72.49773      1.816     5.79     5.633473     20.45381     40.14499         8     1.386     0.786  74.98   0
       210    990.5872    468.6970 300.3333740 +22.8136375      232.002     72.38684      1.221     3.86     5.536719     20.45381      36.4744         6     0.929     0.459   1.54   0
       211    734.6981    463.1707 300.2553593 +22.7354481     429.3964     72.42382      1.284     2.63     5.113503     20.45381     65.55373         9     0.883     0.652  23.78   0
       212    623.7006    461.1198 300.2214338 +22.7016192     338.8829     72.62687      1.268     2.91     5.749589     20.45381      49.4503         9     0.901     0.666  21.57   0
       213    343.9467    460.9969 300.1343656 +22.6177754     189.2043     72.46078      1.016     3.67     5.490664     20.45381     30.65528         5     0.633     0.613 -89.62   0
       214    675.8818    459.1006 300.2383490 +22.7166662     604.3358     72.66373      1.287     2.72     5.538309     20.45381     102.2633        11     0.867     0.836  15.64   0
       215    990.5160    451.7823 300.3388432 +22.8087525     590.0558     72.46078      1.387     3.28     5.511202     20.45381     74.50464        13     1.016     0.835  -9.65   0
       216    736.8966    451.3156 300.2598932 +22.7326993     843.5916     72.66373      1.363     2.75     5.087154     20.45381       118.71        13     1.033     0.790  85.92   0
       217    893.8221    447.7067 300.3099981 +22.7786409     1087.299     72.42382      1.430     2.55     5.418797     20.45381     153.8176        17     1.042     0.943 -32.14   0
       218    878.0354    443.9771 300.3062846 +22.7728433     645.5135     72.51619      1.284     2.88     5.395455     20.45381     74.67744        10     0.867     0.734  76.74   0
       219    859.0399    444.3124 300.3002511 +22.7672537     286.7643     72.47926      1.276     4.37     5.309497     20.45381     52.74652         6     0.861     0.632 -42.50   0
       220    622.5399    441.7826 300.2273496 +22.6957156     3199.299     72.44231      1.372     2.51     5.686172     20.45381     453.7714        28     1.149     1.019  64.73   0
       221    983.1443    440.8983 300.3400762 +22.8034167     498.5143        72.59      1.378     3.21     5.506941     20.45381     51.11288         8     0.823     0.662  40.36   0
       222     98.8364    433.5835 300.0670303 +22.5364396     239.2204     72.49773      1.299     3.67     5.518563     20.45381     51.58289         8     0.922     0.792  11.14   0
       223    628.2634    429.7987 300.2330228 +22.6939863     259.0713     72.49773      1.380     3.81      5.62174     20.45381      32.0515         5     0.935     0.445 -43.59   0
       224    462.0970    428.5636 300.1816697 +22.6438609     311.2004     72.49773      1.340     5.11      5.53656     20.45381     46.77845        10     1.093     0.793  47.23   0
       225    394.2650    429.4120 300.1602782 +22.6237826     346.5577     72.44231      1.610     4.62     5.486496     20.45381     30.97404         8     0.952     0.637  18.58   0
       226    992.3125    419.8992 300.3497538 +22.8001217     1011.994     72.66373      1.446     2.59     5.459826     20.45381     117.3055        14     0.941     0.885 -81.29   0
       227    905.8180    420.7795 300.3224811 +22.7744896      458.652     72.49773      1.358     2.82     5.654366     20.45381     88.14879        11     0.971     0.862  49.69   0
       228    733.0687    415.7669 300.2702393 +22.7213364      1113.74     72.49773      1.340     2.61     5.088223     20.45381     159.7531        17     1.071     0.943  82.17   0
       229    528.8581    416.0236 300.2065288 +22.6602568     424.0534     72.49773      1.369     4.98     5.609601     20.45381     58.78309         8     1.042     0.673  68.10   0
       230    237.0383    413.9278 300.1163831 +22.5722226      563.079     72.46078      1.378     3.39     5.613483     20.45381     78.08972        12     1.088     0.745  21.76   0
       231     76.9786    411.3023 300.0674675 +22.5234921     276.0466     72.42382      1.472     5.29     5.522703     20.45381     35.00264         7     1.103     0.717  70.93   0
       232    299.4604    409.6463 300.1371912 +22.5896997     3774.532     72.53465      1.425     2.47     5.625649     20.45381     539.4427        29     1.166     1.054  45.99   0
       233    246.6949    404.3274 300.1225026 +22.5723602     7643.553     72.60844      1.490     2.78     5.648023     20.45381     891.8899        40     1.256     1.171  59.13   0
       234    387.4687    398.6161 300.1681580 +22.6129018     4727.087     72.51619      1.409     2.51     5.610266     20.45381      658.428        29     1.128     1.058  60.87   0
       235    631.7648    395.4168 300.2452732 +22.6851551     18750.68     72.49773      1.351     2.40     5.698101     20.45381     2642.788        57     1.258     1.130  80.03   0
       236    649.4115    395.4305 300.2507673 +22.6904433     773.4834     72.49773      1.722     5.63     5.645429     20.45381     75.39489        16     1.524     0.822 -32.37   0
       237   1012.4957    399.3505 300.3627224 +22.8002516     1760.874      72.5531      1.518     3.07     5.375453     20.45381     191.6819        21     1.153     1.032  75.40   0
       238    874.9879    391.8684 300.3222481 +22.7569498      152.666     72.51619      1.203     3.02     5.662066     20.45381     38.96684         6     0.784     0.649   4.98   0
       239    828.6588    385.9565 300.3097179 +22.7413833     404.0232     72.49773      1.246     2.84     5.254519     20.45381     57.43765        10     0.853     0.805  30.74   0
       240    251.9650    382.6679 300.1311710 +22.5677205     412.2036     72.49773      1.542     3.69     5.720054     20.45381      41.6716         6     0.902     0.570  59.15   0
       241    965.3376    377.9072 300.3549657 +22.7799738     857.2751     72.60844      1.638     4.80     5.432727     20.45381     86.25944        17     1.336     1.008  85.70   0
       242    502.0736    377.1612 300.2108001 +22.6410695     428.4065     72.47926      1.715     3.19     5.675865     20.45381       37.646         7     0.813     0.685  52.14   0
       243    186.3116    375.3649 300.1131214 +22.5459484     2139.487     72.47926      1.488     2.81     5.635535     20.45381     237.2664        24     1.179     1.055  68.79   0
       244    572.4008    364.8208 300.2367082 +22.6585862     6712.099     72.42382      1.392     2.55     5.797927     20.45381     846.8015        35     1.221     1.032  71.97   0
       245    986.0700    365.3394 300.3655138 +22.7825630      1256.97     72.53465      1.477     3.10     5.378688     20.45381     149.0773        20     1.095     1.055  33.20   0
       246    287.3287    364.2337 300.1481541 +22.5730240     663.4531     72.49773      1.393     3.10     5.776785     20.45381     85.85233        11     0.978     0.753 -78.10   0
       247    144.9017    357.4508 300.1060579 +22.5283946      578.324     72.57155      1.609     2.77     5.688048     20.45381     56.61308         8     0.921     0.627 -60.27   0
       248    686.2107    355.0488 300.2753398 +22.6898558     512.8224     72.51619      1.379     3.95     5.949553     20.45381     66.70941         9     1.114     0.675 -52.99   0
       249    776.4735    353.8618 300.3038614 +22.7165359     1169.553     72.53465      1.439     2.81     5.407726     20.45381     135.6512        15     1.017     0.845  44.99   0
       250    479.0170    351.0764 300.2120851 +22.6266697     6232.513     72.49773      1.371     2.76     5.736529     20.45381     739.6644        31     1.180     1.037  58.40   0
       251    968.5559    345.8591 300.3663701 +22.7717199     599.4941     72.51619      1.397     3.18     5.355969     20.45381     78.35349        13     1.018     0.883 -37.06   0
       252    870.9674    345.6610 300.3359896 +22.7424604     1483.762     72.53465      1.341     2.57     5.651394     20.45381     212.4473        17     0.993     0.933  13.88   0
       253    463.5778    339.7587 300.2109501 +22.6187939     508.5377     72.53465      1.359     2.85     5.752243     20.45381     61.84391         7     0.912     0.460 -76.80   0
       254    546.1664    337.9045 300.2372706 +22.6429957     471.8124     72.47926      1.325     3.38     5.695955     20.45381     64.89946         9     1.075     0.675 -84.48   0
       255    824.0981    336.4184 300.3243714 +22.7257756     304.1994     72.42382      1.341     4.49     5.324136     20.45381     37.25733         8     1.005     0.831  47.26   0
       256    526.9295    335.8011 300.2319617 +22.6366304     252.0401     72.42382      1.052     2.75     5.700254     20.45381     50.92039         6     0.854     0.477  34.95   0
       257    843.8638    333.2453 300.3315650 +22.7307789     486.9284     72.51619      1.346     3.74     5.502336     20.45381     58.92624        10     0.983     0.745  83.75   0
       258    366.5426    330.2696 300.1838231 +22.5870020     2495.774     72.51619      1.350     2.45     5.809911     20.45381     308.0644        24     1.099     1.012  68.73   0
       259     84.9523    327.5629 300.0971180 +22.5018463     1023.839     72.53465      1.591     3.85     5.669755     20.45381     113.8348        17     1.195     1.009  39.51   0
       260    315.7037    323.0721 300.1703378 +22.5697043     1606.528     72.62687      0.529     0.56     5.837363     20.45381     1005.495         8     0.623     0.360 -33.15   0
       261    335.8814    319.6452 300.1777282 +22.5747650     30052.24     72.47926      1.440     2.66     5.827699     20.45381     3982.585        63     1.307     1.171  65.42   0
       262    870.6899    317.4198 300.3450665 +22.7342564     1249.845     72.44231      1.342     2.59     5.651353     20.45381     173.5417        18     1.132     0.890  62.12   0
       263    825.8857    315.0281 300.3318692 +22.7201603     297.7799     72.49773      1.425     3.33     5.389082     20.45381     41.73297         5     0.768     0.533  56.67   0
       264     32.2193    307.3171 300.0872963 +22.4802285     4858.647     72.44231      1.684     3.18      5.91584     20.45381      537.037        41     1.450     1.279  74.13   0
       265    785.9766    306.3978 300.3222248 +22.7057345     545.3235     72.44231      1.227     2.83     5.410198     20.45381     80.88218         8     0.934     0.576  22.27   0
       266    210.1305    305.9449 300.1430522 +22.5331540     348.6669     72.53465      1.120     3.39     6.006416     20.45381     63.09509         7     0.942     0.553  56.50   0
       267    434.2563    304.5515 300.2132439 +22.5998969     460.2545     72.53465      1.424     3.03      5.78367     20.45381     65.41235        11     1.020     0.732  75.30   0
       268    746.4037    299.5123 300.3121212 +22.6919103     1932.451     72.42382      1.423     2.59     5.882613     20.45381     227.5191        23     1.124     1.003  76.89   0
       269    554.6883    294.4659 300.2540180 +22.6330649     348.8968     72.60844      1.147     2.77     5.598063     20.45381     64.50414         7     0.885     0.677   2.49   0
       270    961.4324    292.5184 300.3814543 +22.7542466     660.0864     72.49773      1.562     3.54     5.355159     20.45381     66.46338        10     1.059     0.703  62.95   0
       271    408.1143    283.9479 300.2117898 +22.5861477     2176.206     72.51619      1.525     3.40     5.809805     20.45381     223.9211        24     1.337     0.943  63.83   0
       272    620.2264    282.9176 300.2781810 +22.6493685     372.4929     72.47926      1.363     4.05     5.676809     20.45381     46.54733         6     1.064     0.440  60.21   0
       273    839.6830    278.0143 300.3481801 +22.7136458     354.2994     72.46078      1.380     4.37     5.508348     20.45381      42.9443         6     1.056     0.514  40.45   0
       274    847.2277    277.1342 300.3508186 +22.7156505     700.2584     72.47926      1.361     2.99     5.543605     20.45381     83.28301        10     0.900     0.769  52.58   0
       275    729.5878    274.9561 300.3148454 +22.6798171     331.4132     72.49773      1.247     2.26     5.921447     20.45381     63.89102         6     0.753     0.487 -82.73   0
       276    198.9355    264.8569 300.1528985 +22.5180005     203.1888      72.5531      1.190     3.86     6.077477     20.45381     33.30136         5     0.812     0.527 -57.36   0
       277    484.0514    263.4988 300.2420647 +22.6030141      1232.27        72.59      1.346     2.41     5.727003     20.45381     172.9545        16     0.999     0.907 -88.91   0
       278    291.5336    263.9609 300.1819928 +22.5454853     209.7072     72.46078      1.118     4.09     5.897805     20.45381     31.77777         5     0.757     0.633   7.03   0
       279     57.0029    264.0579 300.1090306 +22.4752387     403.3757     72.46078      1.458     2.53     6.061019     20.45381     52.93764         5     0.777     0.480 -61.61   0
       280    867.7102    257.0715 300.3637149 +22.7160097     328.6105     72.66373      1.335     3.49     5.559429     20.45381      42.4892         6     0.890     0.481 -51.17   0
       281    728.8795    255.2880 300.3210045 +22.6739503     2201.315      72.6453      1.406     2.89      5.94276     20.45381     308.6259        24     1.205     0.979  65.80   0
       282    990.1693    249.8346 300.4042681 +22.7505651     3256.712     72.51619      1.542     3.10     5.355098     20.45381      344.048        31     1.306     1.105  68.84   0
       283    437.1645    239.0639 300.2353916 +22.5819519     626.4106     72.49773      1.295     2.80      5.80735     20.45381     87.67455        10     0.883     0.734 -70.21   0
       284    111.8347    233.2515 300.1360658 +22.4828258     1347.848     72.51619      1.764     3.96     6.035912     20.45381      127.592        21     1.216     1.142 -81.00   0
       285    142.9746    233.2623 300.1457438 +22.4921599     603.2694     72.49773      1.400     3.52     6.062208     20.45381     77.62853        10     1.074     0.748  -6.32   0
       286   1005.9127    230.4686 300.4154628 +22.7497029     534.5938     72.62687      1.497     3.65     5.355098     20.45381     64.18911        11     1.020     0.811  88.49   0
       287    849.6484    227.0640 300.3678145 +22.7019750     371.0775     72.51619      1.321     3.13     5.425078     20.45381     53.91171         6     0.981     0.473  37.67   0
       288    195.8992    225.4581 300.1647321 +22.5057760     510.5945        72.59      1.437     4.30     6.077477     20.45381     48.75951        11     1.028     0.898  84.87   0
       289    991.1459    223.2692 300.4131893 +22.7432145     421.5035     72.53465      1.466     3.10     5.351859     20.45381     49.18503         7     0.830     0.616 -27.08   0
       290     51.9743    222.8380 300.1208357 +22.4618975     233.7589     72.51619      1.327     3.44     6.378874     20.45381     38.72786         6     0.915     0.448  37.83   0
       291    871.9503    219.1703 300.3773305 +22.7063774     316.9807     72.51619      1.226     2.82     5.461016     20.45381     64.33278         7     0.928     0.598  -3.54   0
       292    800.5490    216.7197 300.3558578 +22.6843084     658.0269     72.49773      1.301     3.77     5.336552     20.45381     89.17894        11     1.038     0.788  77.72   0
       293    390.8161    216.4015 300.2283133 +22.5615601      461.914     72.36835      1.585     3.06     5.876901     20.45381     57.11176         8     0.942     0.631 -60.41   0
       294    891.0689    210.0342 300.3862571 +22.7094695     312.7517     72.49773      1.298     2.54     5.460597     20.45381     43.42546         5     0.627     0.575  -2.19   0
       295    898.6617    205.9256 300.3899580 +22.7105591     2091.214     72.53465      1.468     2.88     5.463639     20.45381     241.2354        24     1.243     1.000  80.52   0
       296    317.2090    203.0132 300.2097475 +22.5356683     2099.464     72.38684      1.395     2.80     5.915145     20.45381     245.2561        23     1.190     0.961  61.82   0
       297    395.0992    198.1842 300.2355540 +22.5576083     1030.578     72.40533      1.420     3.32     5.882874     20.45381     109.1278        18     1.104     0.993 -13.46   0
       298    797.0515    197.4724 300.3610091 +22.6777265     636.4304     72.49773      1.472     2.98     5.464736     20.45381     87.82532        13     1.037     0.858  85.40   0
       299    147.1431    198.3559 300.1583592 +22.4833847     271.2271     72.51619      1.160     3.72     5.975424     20.45381     43.55265         6     0.755     0.626 -64.68   0
       300    904.5830    194.7668 300.3954239 +22.7091206     299.3876     72.47926      1.214     3.34     5.493749     20.45381     52.84688         7     0.885     0.741 -28.10   0
       301    212.0114    190.2973 300.1811447 +22.5005043     735.9012     72.38684      1.414     3.31     6.017873     20.45381     95.32043        11     1.054     0.715  55.69   0
       302    330.3264    189.5268 300.2182024 +22.5357224     328.7282      72.5531      1.472     5.88     5.935607     20.45381     31.19021         9     1.050     0.928 -74.59   0
       303    814.4765    187.1525 300.3697892 +22.6799723      634.615     72.49773      1.535     4.19     5.494879     20.45381     67.98891        10     1.080     0.740  48.48   0
       304    749.7449    187.3286 300.3495493 +22.6606535     1741.218     72.51619      1.352     2.58     5.828469     20.45381     228.3016        19     1.097     0.908  47.90   0
       305    233.4680    183.9369 300.1898808 +22.5051049     507.0572      72.5531      1.251     2.74     6.023581     20.45381     79.59165         8     0.807     0.663 -11.99   0
       306   1021.4266    179.7660 300.4367478 +22.7397545     827.5712     67.42688      1.460     3.76     5.161047     20.45381     93.74696        16     1.195     0.907  81.13  16
       307    523.3127    179.5775 300.2815074 +22.5906510     396.2708     72.42382      1.750     3.82     5.340018     20.45381     40.06934         6     0.903     0.463  87.71   0
       308    754.1605    178.8421 300.3536777 +22.6595343     717.1125        72.59      1.346     2.65     5.800561     20.45381     105.7505        11     0.923     0.773 -48.25   0
       309    674.3138    178.0775 300.3290373 +22.6354194     1169.872     72.62687      1.276     2.64     5.902101     20.45381     156.1758        16     1.024     0.869  10.58   0
       310    495.7375    174.7664 300.2744797 +22.5810126     473.4555     72.49773      1.278     2.56      5.31943     20.45381     44.47423         6     0.709     0.578  41.67   0
       311    600.5560    169.7919 300.3087412 +22.6109610     1105.725     72.51619      1.420     2.53      5.36384     20.45381     137.6722        18     1.026     0.973 -50.48   0
       312    869.8773    169.4024 300.3928229 +22.6914417     1533.024     72.40533      1.535     3.00      5.58776     20.45381     173.6861        21     1.128     1.054  77.79   0
       313    881.7977    168.6100 300.3967981 +22.6947799     879.5941     72.31283      1.460     2.70     5.585372     20.45381     114.7511        15     1.047     0.924 -65.92   0
       314    927.8513    168.1885 300.4113015 +22.7084351     377.4762     72.51619      1.886     3.99     5.580137     20.45381     29.98126         6     0.774     0.588 -43.06   0
       315    998.5281    159.2775 300.4362448 +22.7270106     1116.658     72.60844      1.422     2.75     5.231938     20.45381     138.7788        17     1.102     0.873   7.17   0
       316     22.0689    155.6497 300.1333265 +22.4336445     437.0602     72.49773      1.508     4.49     6.558968     20.45381     51.21021         7     1.156     0.496 -34.87   0
       317    232.5004    151.8667 300.1999775 +22.4956026     644.8497        72.59      1.384     2.88     5.956267     20.45381     104.1602        15     1.073     0.885  50.89   0
       318     94.3638    146.4371 300.1587833 +22.4526611     2223.872     72.57155      1.685     3.31      6.09179     20.45381     262.3535        29     1.397     1.176  56.56   0
       319    917.5645    144.0921 300.4159051 +22.6984255     852.3273     72.44231      1.569     3.15     5.705326     20.45381     84.11845        12     1.125     0.660  42.89   0
       320     43.6973    143.6115 300.1439507 +22.4366687     557.2492     72.38684      1.969     4.13     6.386337     20.45381     48.04378         9     1.157     0.656 -27.89   0
       321    251.8623    139.8740 300.2098882 +22.4979567     5568.575     72.53465      1.478     3.03     5.866035     20.45381     632.0051        37     1.253     1.160  72.64   0
       322    233.5647    140.7791 300.2039031 +22.4927362     434.3963     72.51619      1.937     4.74     5.894414     20.45381     39.87606         6     0.903     0.706   2.87   0
       323     36.0701    134.0971 300.1446645 +22.4316512     1234.932     72.62687      1.546     3.75     6.402959     20.45381     125.1017        25     1.353     1.147  43.12   0
       324    235.1077    130.8012 300.2076176 +22.4903319     559.9612     72.40533      1.331     3.66     5.838657     20.45381     75.07173         9     0.980     0.654  21.75   0
       325    896.0568    121.6508 300.4164710 +22.6855357     3420.407      72.5531      1.471     2.75     5.738739     20.45381     490.1592        31     1.286     1.055  87.21   0
       326    999.7541    120.5333 300.4491889 +22.7162283     2767.564     72.49773      1.524     2.78     5.732368     20.45381     334.9761        28     1.249     1.123  68.64   0
       327    445.3993    116.9052 300.2775644 +22.5493112     581.8654     72.36835      1.227     2.27     5.567927     20.45381     89.77576        11     0.911     0.695  -6.93   0
       328    198.2904    117.5450 300.2004634 +22.4754960     361.1694      72.5531      1.300     2.92     5.738321     20.45381     39.28489         5     0.708     0.466 -19.18   0
       329    369.8580    108.8449 300.2566620 +22.5243771     768.0908     72.53465      2.049     2.87     5.908884     20.45381     74.77993        10     0.993     0.637  -8.88   0
       330    135.6114    105.6128 300.1848402 +22.4532931     741.0716     72.40533      1.677     3.83     5.803803     20.45381     74.99284        13     1.132     0.851  46.89   0
       331    496.7549    104.0540 300.2977210 +22.5609913     1607.924     72.53465      1.342     2.35     5.428401     20.45381     249.2076        20     1.117     0.897  76.86   0
       332    424.8717    104.4948 300.2751965 +22.5395985     413.6098     72.60844      1.360     2.35     5.624406     20.45381     59.66043         8     0.807     0.637  51.92   0
       333    558.8331    103.6925 300.3171726 +22.5794692     465.8233     72.44231      1.327     2.64     5.411971     20.45381     54.95143         6     0.739     0.556  47.23   0
       334     34.2431    104.3316 300.1537449 +22.4225562      310.959     72.47926      1.395     4.34     6.319732     20.45381     36.01957         5     0.936     0.572 -50.42   0
       335    240.0688     99.8358 300.2191982 +22.4829216     453.0822     72.49773      1.300     2.91     5.669404     20.45381     60.66253         8     0.825     0.642 -38.68   0
       336    930.6920     88.1987 300.4381203 +22.6862698     168.2486     72.40533      1.477     4.34     6.051944     20.45381     35.12732         5     1.023     0.524  39.78   0
       337    777.0878     84.6041 300.3913773 +22.6392897     384.4373     72.42382      1.334     4.36     5.623208     20.45381     57.70852         9     1.020     0.603  51.96   0
       338    270.7800     83.7526 300.2339647 +22.4874980     6020.958     72.53465      1.514     3.00     5.607909     20.45381     738.3973        34     1.286     1.093  56.68   0
       339    899.7718     81.6939 300.4305823 +22.6751505     371.0989     72.40533      1.620     4.85     5.807459     20.45381     36.66254         7     0.983     0.678  14.46   0
       340    242.1646     78.0472 300.2269120 +22.4772891      317.515     72.51619      1.402     3.61     5.555576     20.45381      46.8728         5     0.686     0.585  -3.47   0
       341    121.9245     83.3093 300.1878137 +22.4427866     739.1309      72.6453      1.883     3.97     5.760932     20.45381     73.37432        15     1.170     0.980  62.23   0
       342     33.0390     73.9189 300.1632275 +22.4134614      329.661     72.46078      1.406     2.96     6.302367     20.45381     41.38114         5     0.782     0.502  60.07   0
       343    516.9561     69.1202 300.3153350 +22.5569953     6344.572     72.47926      1.413     2.78     5.444826     20.45381       804.04        36     1.302     1.076  84.40   0
       344    402.4443     69.0358 300.2797078 +22.5226922     543.4102      72.5531      1.131     2.87     5.615327     20.45381     90.87149        10     0.832     0.800  45.53   0
       345    537.7508     63.7339 300.3235573 +22.5616706     429.7503     72.47926      1.552     3.46     5.427159     20.45381     43.76495         5     1.137     0.303 -35.49   0
       346    710.9456     60.7917 300.3784756 +22.6126520      307.227     72.49773      1.201     3.13     5.783041     20.45381     45.07104         7     0.757     0.648  15.32   0
       347    769.5789     59.0663 300.3973133 +22.6296971      722.496     72.47926      1.396     2.80     5.564903     20.45381     92.39194        13     0.955     0.881 -79.53   0
       348    861.9279     58.0767 300.4264324 +22.6570363     539.8947     72.60844      1.422     2.22      5.36009     20.45381     73.53123         9     0.761     0.726  -5.57   0
       349    929.9409     55.9724 300.4483311 +22.6767717     145.5347     72.49773      1.038     3.34     6.051944     20.45381     29.93899         5     0.624     0.607  -4.59   0
       350    210.1205     53.1323 300.2250192 +22.4605339      466.049     72.60844      1.244     2.42     5.384243     20.45381     74.39158         8     0.790     0.642 -29.56   0
       351    568.2871     52.0105 300.3368683 +22.5674388     547.7001     72.44231      1.544     3.70     5.565826     20.45381     61.74768        10     1.040     0.693   2.35   0
       352    645.3001     49.2904 300.3617441 +22.5897025     6328.862     72.66373      1.413     2.57     5.781607     20.45381     801.0261        32     1.240     1.053  69.97   0
       353    420.1583     48.2603 300.2919549 +22.5220235     1409.386     72.47926      1.355     2.92     5.522259     20.45381     158.9159        19     1.067     0.967  60.96   0
       354    686.4696     46.7868 300.3753856 +22.6013007     815.0018     72.51619      1.355     3.21     5.782909     20.45381     105.6505        16     1.072     0.948  52.89   0
       355    756.0861     44.6663 300.3977734 +22.6215183      380.876     72.60844      1.745     5.46     5.628158     20.45381     35.01372         8     1.105     0.762 -86.83   0
       356    702.4958     42.8326 300.3816621 +22.6049583     574.9659     72.47926      1.290     2.60     5.779475     20.45381     82.38629         9     0.842     0.711 -61.60   0
       357     15.7481     41.6961 300.1682959 +22.3990268      275.991     72.57155      1.434     3.29     6.503722     20.45381      44.4581         5     1.189     0.264 -33.48   0
       358    972.0988     40.7416 300.4664216 +22.6849952     594.1766        72.59      1.479     3.51     6.051944     20.45381     63.18026        11     1.092     0.697  20.89   0
       359    169.1099     40.8243 300.2162535 +22.4447153      762.489     72.44231      1.645     2.93     5.310806     20.45381     77.59939        10     0.923     0.700 -57.26   0
       360   1011.0468     39.6584 300.4789275 +22.6963291       346.62      72.5531      1.354     3.84     6.051944     20.45381     37.39105         5     1.283     0.329  49.69   0
       361    740.7919     38.1591 300.3951142 +22.6150711     408.3028     72.51619      1.416     4.32     5.742236     20.45381     66.31566         8     1.068     0.592  55.99   0
       362    689.5865     34.1826 300.3804417 +22.5986080     2776.567     72.46078      1.443     2.64     5.776617     20.45381     337.9387        24     1.193     1.010  75.08   0
       363    330.2790     34.9931 300.2682794 +22.4913021     428.6467     72.42382      1.421     2.80     5.506245     20.45381     63.59195         8     0.942     0.561 -18.32   0
       364    704.6877     33.0518 300.3855149 +22.6028007     971.5326     72.53465      1.666     4.53     5.776174     20.45381     90.42457        18     1.443     0.798  44.83   0
       365    776.0148     25.9023 300.4100674 +22.6220818     1563.762     72.38684      1.418     2.71     5.398879     20.45381     208.4743        19     1.228     0.852  64.78   0
       366    713.7107     18.8313 300.3929355 +22.6014096     611.4123     72.46078      1.530     2.97     5.773136     20.45381     103.7254        12     1.075     0.775  56.00   0
       367    755.5156   1016.7976 300.0819055 +22.9006905     444.8336     72.42382      1.871     6.37     4.160286     20.45381     34.31854         8     1.616     0.704 -42.63  16
       368    318.7163   1014.8156 299.9465259 +22.7691282     1483.875     72.46078      3.499     5.01     9.273241     20.45381     78.87509        28     1.515     1.353  41.81  16
       369    423.3609     16.5590 300.3032246 +22.5138692     782.4528     72.57155      1.256     2.54     5.464209     20.45381     112.3566        10     0.880     0.690 -83.66   0
       370    805.8348     15.7061 300.4226697 +22.6280679     450.6904     72.46078      1.293     3.00     5.093565     20.45381     61.81563         7     0.737     0.655  27.96   0
       371    170.7483   1010.0041 299.9020717 +22.7233482     437.3074     72.49773      1.986     5.91     92.45532     20.45381     32.96658         9     1.187     0.829   0.34   0
       372    155.0485   1010.3327 299.8970837 +22.7187307     1426.938     72.49773      3.092     8.70     93.10293     20.45381     65.66232        32     2.014     1.579 -53.06   2
       373    195.9140    996.0132 299.9144482 +22.7268895      2224.57     72.44231      4.977    14.25     76.58055     20.45381     64.74284        36     2.612     2.162 -27.21   3
