#   1 NUMBER                 Running object number                                     
#   2 X_IMAGE                Object position along x                                    [pixel]
#   3 Y_IMAGE                Object position along y                                    [pixel]
#   4 ALPHA_J2000            Right ascension of barycenter (J2000)                      [deg]
#   5 DELTA_J2000            Declination of barycenter (J2000)                          [deg]
#   6 FLUX_APER              Flux vector within fixed circular aperture(s)              [count]
#   7 FLUXERR_APER           RMS error vector for aperture flux(es)                     [count]
#   8 FLUX_RADIUS            Fraction-of-light radii                                    [pixel]
#   9 FWHM_IMAGE             FWHM assuming a gaussian core                              [pixel]
#  10 BACKGROUND             Background at centroid position                            [count]
#  11 THRESHOLD              Detection threshold above background                       [count]
#  12 FLUX_MAX               Peak flux above background                                 [count]
#  13 ISOAREA_IMAGE          Isophotal area above Analysis threshold                    [pixel**2]
#  14 A_IMAGE                Profile RMS along major axis                               [pixel]
#  15 B_IMAGE                Profile RMS along minor axis                               [pixel]
#  16 THETA_IMAGE            Position angle (CCW/x)                                     [deg]
#  17 FLAGS                  Extraction flags                                          
         1    350.2722     15.5091 300.2741419 +22.4749425     1240.973     72.61478      1.440     2.80     4.290602     20.44003     153.0468        21     1.244     0.954  67.32   0
         2    795.4291     15.8482 300.4126335 +22.6083209     906.3905     72.46734      1.437     3.24     4.955919     20.44003     113.9659        16     1.150     0.893  56.73   0
         3    833.2759     10.9944 300.4260028 +22.6182506     605.1684     72.35656      1.415     3.93     4.969552     20.44003     58.72765        11     1.021     0.780  72.64   0
         4    756.8835     10.6909 300.4022931 +22.5953017     638.1562     72.59637      1.720     3.33       5.0215     20.44003      80.1199        11     1.066     0.831  86.71   0
         5    853.5474      7.2788 300.4335261 +22.6232476     2293.787     72.48579      1.468     2.49      4.98502     20.44003      273.428        26     1.206     1.093  20.24  16
         6    558.9700      5.7163 300.3422616 +22.5346266     527.3699     72.46734      1.317     2.53     4.398011     20.44003     70.86806        10     0.830     0.755  61.82  16
         7    236.5861      2.5533 300.2429871 +22.4371637     1022.403     62.88625      1.512     2.68     4.897093     20.44003     129.4704        16     1.029     0.924   7.09  24
         8    623.3940    964.3057 300.0510010 +22.8292453     1558.195     72.33808      1.876     4.61      2.97017     20.44003     103.3823        27     1.351     1.323  56.46   0
         9    262.5842   1020.4274 299.9204808 +22.7370632     1760.073     70.73079      5.698    22.07     73.04003     20.44003     55.12717        80     4.355     3.107   9.74  27
        10    308.7926   1017.3435 299.9358509 +22.7500511     2052.374     72.43044      4.262    17.27     48.17332     20.44003      57.4767        70     3.769     2.200 -21.25  19
        11    262.8047   1006.4233 299.9251072 +22.7331152     3847.588     72.41197      7.565    24.23       63.429     20.44003     90.62257       209     5.128     3.661 -10.79  19
        12    283.2993   1004.9852 299.9319468 +22.7388554     4855.334     72.35656      8.632    28.65     60.15171     20.44003     95.42291       391     6.633     4.786 -51.12  19
        13    301.2446    993.8788 299.9411407 +22.7410584     7736.111     72.43044      8.277    28.44     43.06972     20.44003      160.892       659     9.614     4.738  61.52  19
        14    225.2790   1018.0840 299.9096473 +22.7251914       1072.2     72.57795      2.856     8.80     76.58885     20.44003     46.18565        19     1.847     1.170 -28.83  19
        15    196.5236   1023.3735 299.8989886 +22.7180737     453.8098       58.113      2.049     6.53     74.69312     20.44003     46.31891        11     1.749     0.685   2.59  24
        16    141.7646   1014.8154 299.8847580 +22.6991784      5366.11     72.44889     12.503    47.42     50.93531     20.44003     107.0871      1005    12.053     6.828  17.53  27
        17    138.8836    974.8662 299.8968635 +22.6868644     4759.161     72.55952     24.376    85.41     31.72204     20.44003     117.3943      3464    18.908    16.021 -13.00  19
        18    517.2394    960.6448 300.0191466 +22.7963489     1084.257     72.52267      1.790     4.31      3.10906     20.44003     89.50871        21     1.311     1.108  55.08   0
        19    447.8124    958.7297 299.9981656 +22.7749681     6514.808     72.46734      1.734     3.82     3.424373     20.44003     495.6871        42     1.435     1.310   3.68   0
        20    796.7788   1007.2811 300.0910214 +22.8935799     588.3018     72.41197      1.828     6.30     3.326669     20.44003     45.39073        12     1.110     1.004  31.52   0
        21    758.3550    947.8452 300.0983928 +22.8649994     160.6705     72.48579      1.385     3.47     2.926236     20.44003     31.63606         5     0.792     0.438 -73.01   0
        22    139.6007    936.7992 299.9094723 +22.6761693     3524.769      72.2271     15.002    46.91     15.54696     20.44003     75.38567       691     9.746     6.266 -38.03   3
        23    989.0944    990.6092 300.1563997 +22.9464547     791.5158     72.37504      2.096     7.61     3.294765     20.44003     44.30556        16     1.515     1.069 -33.16   0
        24    479.5942    945.4683 300.0123699 +22.7807009     584.7907     72.41197      1.802     5.92     3.113696     20.44003     44.80143        11     1.235     0.800 -43.47   0
        25    207.1001    974.6422 299.9181348 +22.7072817     1692.285     72.43044      4.693    12.62     45.39537     20.44003      57.6883        32     2.569     1.726   7.55   2
        26    993.9142    937.5678 300.1751649 +22.9326692     2099.459     72.43044      1.914     5.07      3.29297     20.44003     116.0486        29     1.404     1.332  67.29   0
        27     18.3664    979.1785 299.8580250 +22.6519088      608.996     72.46734      3.078     4.33    0.3513529     20.44003     38.62895         7     1.164     0.458 -81.98   0
        28    644.4472    935.3785 300.0669696 +22.8272603     430.4294     72.48579      2.148     5.86     2.880417     20.44003     34.72353         8     1.172     0.824 -74.98   0
        29    782.8761    926.2234 300.1130685 +22.8661465     806.3834     72.48579      2.238     6.96     2.934012     20.44003       44.075        15     1.426     0.952  30.76   0
        30    817.8249    920.5586 300.1258022 +22.8749992     1007.713     72.50423      1.829     4.12     3.048983     20.44003     83.15812        18     1.214     1.122 -24.87   0
        31    839.9396    914.2901 300.1347339 +22.8798300     11145.47      72.5411      1.782     3.87     3.164156     20.44003     677.6033        57     1.454     1.433 -26.04   0
        32    230.0921    999.1602 299.9173022 +22.7212123     1467.236     72.44889      3.291    11.67     62.89856     20.44003      55.6025        35     2.856     1.328 -44.65   3
        33     27.9241    917.5372 299.8810485 +22.6371162     472.4689     72.50423      1.624     4.17     3.026479     20.44003     53.71902         9     1.060     0.648 -72.14   0
        34    886.6496    914.2385 300.1493103 +22.8938182     333.6921     72.46734      1.375     4.32      3.32938     20.44003     38.03675         5     0.936     0.569  39.39   0
        35    151.2976    906.1183 299.9230882 +22.6708867      777.159     72.59637      2.383     4.90     10.62911     20.44003     48.74168        13     1.247     0.994 -28.02   0
        36    891.7641    902.1434 300.1548400 +22.8918788     371.0511     72.44889      1.631     6.51      3.33792     20.44003     38.67281        10     1.402     0.849 -25.08   0
        37    544.6064    902.1013 300.0467128 +22.7877646     392.5693     72.33808      1.512     4.88     3.319268     20.44003     42.28262         8     1.017     0.663  45.84   0
        38    848.3275    896.4082 300.1431662 +22.8772110     1458.544     72.43044      1.816     4.58     3.211983     20.44003     92.73793        25     1.337     1.218  51.54   0
        39    228.9279    994.8464 299.9183442 +22.7196262     1429.304     72.43044      4.372    12.17     60.28228     20.44003     45.84518        33     2.868     1.437  81.28   3
        40    700.0831    894.5553 300.0975790 +22.8322307     851.5359     72.41197      2.029     8.48     2.981329     20.44003     268.0409        16     1.758     1.142 -58.99   0
        41    714.7896    973.4930 300.0764746 +22.8592948      6881.54     72.39351      1.875     4.12     2.863139     20.44003     412.5419        48     1.497     1.442  57.51   0
        42    886.8282    889.7583 300.1573307 +22.8868432     747.7504     72.46734      1.699     4.41     3.330274     20.44003      64.0326        14     1.133     0.901 -18.38   0
        43    934.8877    881.3994 300.1750335 +22.8988484     503.3096     72.33808      1.648     5.87     3.384641     20.44003     45.60156        12     1.203     0.810 -10.14   0
        44    786.6022    879.9978 300.1292690 +22.8539946     715.2348      72.2271      1.837     5.57     2.985399     20.44003      48.2156        16     1.177     1.029   2.57   0
        45    390.2373    879.8082 300.0059313 +22.7350565     250.1842     72.46734      1.155     3.35     3.857349     20.44003     33.46881         5     0.929     0.349  43.39   0
        46    498.8431    876.4537 300.0408131 +22.7666782     4033.333     72.46734      1.625     3.46     3.491477     20.44003     361.5734        36     1.354     1.205  44.15   0
        47     46.2788    879.1129 299.8992480 +22.6316158     375.4773     72.59637      1.438     4.47     3.720244     20.44003     31.35931         7     0.912     0.622 -58.91   0
        48    797.6744    877.0499 300.1336781 +22.8564679     586.0049     72.44889      1.629     6.21       2.9914     20.44003     45.46872        11     1.199     0.904 -76.82   0
        49    542.3354    864.5761 300.0582131 +22.7763169     329.4766     72.43044      1.373     4.06     3.660339     20.44003     42.94218         7     1.029     0.635 -15.09   0
        50    277.6196    864.4017 299.9759209 +22.6968434      337.032     72.37504      1.489     4.03     4.738765     20.44003     45.66177         7     1.055     0.440  77.66   0
        51    141.4786    864.6798 299.9335164 +22.6560601     184.7924     72.57795      1.605     4.46      4.75428     20.44003     37.00961         5     0.998     0.568 -52.60   0
        52    224.2276    862.5837 299.9599144 +22.6802977     915.9238     72.46734      2.016     3.84     5.645509     20.44003     85.97766        16     1.140     1.022 -88.47   0
        53    593.7769    967.9276 300.0406010 +22.8214000      314.354     72.48579      1.565     4.79     3.030272     20.44003     39.22347         6     0.956     0.681  22.58   0
        54    201.1976    858.9819 299.9539278 +22.6723525     1618.762     72.35656      1.757     4.01     5.323714     20.44003     161.2225        22     1.260     1.141  27.37   0
        55    828.4391    855.5786 300.1502501 +22.8595266     263.5085     72.48579      3.315     5.40      3.17824     20.44003     33.81617         6     1.110     0.740 -48.55   0
        56     75.0149    849.0504 299.9179513 +22.6316269     504.4808     72.44889      2.478     5.83     4.016675     20.44003     33.64663         7     1.320     0.725   6.94   0
        57    732.5008    847.1064 300.1231124 +22.8283320     581.2411     72.63319      2.148     6.76     3.068125     20.44003     40.30615        10     1.601     0.800 -55.15   0
        58    810.7240    840.2067 300.1497294 +22.8498026     726.7554     72.37504      1.949     4.83     3.215837     20.44003     61.50922        14     1.174     0.994   0.27   0
        59    233.2608    840.2825 299.9699755 +22.6766142     550.5229      72.5411      1.681     4.57     5.029446     20.44003     60.20442         9     1.087     0.832   2.95   0
        60    558.0400    838.8062 300.0714836 +22.7736329     245.6222     72.48579      1.343     4.91     3.656739     20.44003     31.84291         6     1.184     0.577  58.43   0
        61    678.9268    834.5772 300.1104998 +22.8086720     4796.566     72.50423      1.590     3.19     3.387516     20.44003     387.2381        33     1.239     1.190 -44.97   0
        62    168.9502    835.0200 299.9516992 +22.6558031     570.1084     72.43044      1.971     4.74     4.671441     20.44003     42.61342         9     0.855     0.746  57.46   0
        63    481.2282    831.4696 300.0499632 +22.7484883     676.3654     72.43044      1.688     4.24     3.658285     20.44003     65.09718        15     1.113     0.973  66.55   0
        64    229.1519    828.2505 299.9726113 +22.6719309      1250.91     72.48579      1.659     3.71     4.804036     20.44003     126.0744        25     1.355     1.124  13.88   0
        65    699.5975    827.0873 300.1193742 +22.8127201     815.9329     72.37504      1.531     2.98     3.329452     20.44003     74.75084        13     1.029     0.787  59.77   0
        66    497.7573    826.2130 300.0568166 +22.7519381     352.3722     72.46734      1.767     5.83     3.696586     20.44003     28.19996         7     1.139     0.841 -69.81   0
        67    248.3791    825.6065 299.9794480 +22.6769430     364.5799     72.43044      1.206     4.05     4.634264     20.44003     51.92066         6     0.874     0.535  39.39   0
        68    854.9705    814.3710 300.1719225 +22.8556474      4343.61     72.41197      1.638     3.15     3.432971     20.44003     341.2783        37     1.381     1.234   9.40   0
        69    263.7889    808.4784 299.9898086 +22.6766554     490.2517     72.43044      1.686     4.09     4.311824     20.44003     55.80855        10     1.137     0.730  13.90   0
        70    571.9481    806.7886 300.0862262 +22.7686162      619.511     72.44889      1.470     4.24     3.745328     20.44003     68.81137        13     1.088     0.926  21.27   0
        71    218.2934    804.5439 299.9769454 +22.6618740     848.6367     72.50423      1.565     3.53      4.28683     20.44003     91.22483        16     1.111     1.005 -29.29   0
        72    633.7991    800.5607 300.1075090 +22.7853766     480.9871     72.46734      1.281     2.97     3.722549     20.44003     58.34349         8     0.896     0.597  15.58   0
        73    367.9646    796.7938 300.0260027 +22.7045620     53020.07     72.46734      1.553     3.15     4.023768     20.44003     5513.163        98     1.448     1.380  28.13   0
        74    625.8394    796.0703 300.1064907 +22.7817009     1751.677     72.41197      1.603     3.17     3.733582     20.44003     164.3969        22     1.172     1.039 -11.93   0
        75    296.1838    794.7720 300.0043376 +22.6824452     477.5423     72.46734      1.781     5.73       4.2249     20.44003     41.69216         9     1.272     0.726 -79.71   0
        76    654.8689    792.1265 300.1168131 +22.7892734      878.233     72.52267      1.563     3.23     3.754095     20.44003     96.49937        15     1.104     0.894 -16.01   0
        77     21.0742    791.7295 299.9198378 +22.5990021     722.7308     72.52267      2.054     5.44     3.885778     20.44003     59.03753        13     1.268     1.127 -38.30   0
        78     54.5419    791.5024 299.9303060 +22.6089842     845.7933      72.5411      1.966     3.60     3.954028     20.44003     82.44571        13     1.183     0.841 -42.46   0
        79    665.5226    790.2070 300.1207552 +22.7919168     530.5544     72.37504      1.467     4.13     3.766522     20.44003     53.42512        11     1.037     0.852 -84.58   0
        80    985.5796    787.5564 300.2213651 +22.8870874     370.8278     72.48579      1.720     5.70     3.667726     20.44003     39.87838         8     1.348     0.680 -23.12   0
        81    771.5546    786.8487 300.1548774 +22.8227410     439.7129     72.48579      1.469     3.12     3.499893     20.44003      51.9621         9     0.906     0.657 -13.24   0
        82    565.7869    783.9117 300.0917475 +22.7602031     226.7637     72.39351      1.203     3.93      3.81137     20.44003     35.29677         6     0.754     0.586  46.31   0
        83    417.7108    774.0541 300.0488712 +22.7129619     31431.15     72.48579      1.532     2.91     3.837293     20.44003     3417.982        80     1.410     1.339  21.53   0
        84    808.8022    776.6675 300.1697948 +22.8309826     717.7253     72.44889      1.534     3.79     3.733692     20.44003     69.69984        17     1.126     1.024 -12.26   0
        85    431.9439    774.5163 300.0531490 +22.7173640     1982.757      72.5411      1.515     3.14     3.824125     20.44003     206.4528        21     1.094     1.047  83.63   0
        86    940.8915    769.9866 300.2131429 +22.8686502     2881.019     72.39351      1.643     3.41     3.722655     20.44003      207.454        30     1.324     1.202 -27.12   0
        87    428.8053    768.8497 300.0540150 +22.7147967     638.1517     72.43044      1.512     3.40     3.831643     20.44003     58.94536         9     0.902     0.666 -13.04   0
        88    534.8679    766.5645 300.0877636 +22.7459522     527.5737     72.44889      1.725     4.77     3.857555     20.44003     43.46191         8     1.111     0.632 -75.43   0
        89    698.7101    766.0895 300.1389341 +22.7949435     985.7673     72.61478      1.506     3.15     3.758626     20.44003     98.26059        15     1.021     0.939 -76.95   0
        90    300.2896    766.0217 300.0149624 +22.6754307     732.5346     72.37504      1.521     3.76     4.196771     20.44003     78.95994        16     1.131     1.013   9.21   0
        91    104.6538    761.8657 299.9555085 +22.6155298     408.5083     72.48579      1.347     4.83     4.101454     20.44003     48.61323        10     1.383     0.611  -8.79   0
        92    545.9828    760.9232 300.0930576 +22.7476665     850.1334     72.44889      1.360     3.19     3.878644     20.44003     94.38589        13     0.991     0.868   5.46   0
        93   1015.3677    759.5391 300.2397667 +22.8879638     198.1733     72.48579      1.073     3.51     3.695609     20.44003     29.58023         5     1.089     0.326  70.01   0
        94    404.2769    757.2059 300.0501700 +22.7040982     340.4194     72.35656      1.941     6.78     3.899246     20.44003      31.7388        10     1.506     0.856  61.27   0
        95    946.9052    757.9913 300.2189186 +22.8670066     493.6137     72.33808      1.403     3.01      3.74817     20.44003     52.45787         9     0.786     0.762 -37.11   0
        96    448.2923    757.2130 300.0638615 +22.7173030     253.4324     72.39351      1.399     4.13     3.825172     20.44003     36.65446         6     0.757     0.645   4.75   0
        97    491.5242    756.0118 300.0777047 +22.7299248     472.2503     72.46734      1.537     3.66     3.813474     20.44003     61.26774         8     0.954     0.648   8.65   0
        98    133.4388    755.2949 299.9665880 +22.6222853     408.3836     72.43044      1.615     4.49      4.15453     20.44003     41.50174        10     0.903     0.845 -57.88   0
        99    699.8032    755.5776 300.1426926 +22.7922533     263.1375     72.41197      1.367     3.23     3.828209     20.44003     30.29741         5     0.731     0.456  19.43   0
       100    924.6040    752.7861 300.2136574 +22.8588290     501.1766     72.30111      1.884     4.92     3.788368     20.44003     38.89803         8     1.119     0.612  29.12   0
       101    297.7760    750.3094 300.0192892 +22.6701696     547.1981     72.37504      1.523     4.66     4.190414     20.44003     64.84519        10     1.178     0.705  -8.92   0
       102    621.0779    740.1550 300.1231892 +22.7642233     463.6629     72.43044      1.468     4.60     3.843498     20.44003     48.74777         8     0.865     0.695 -50.41   0
       103    590.7748    738.7577 300.1142083 +22.7547362     598.8509     72.50423      1.331     3.17     3.841381     20.44003      73.1593        13     0.965     0.879  81.36   0
       104   1007.2208    735.4138 300.2450699 +22.8785919     4453.341     72.41197      1.678     3.39     3.732926     20.44003     350.4836        35     1.318     1.258  21.44   0
       105    500.4082    738.0157 300.0863204 +22.7274248     328.5493     72.37504      1.653     3.46     3.844886     20.44003     46.70108         5     0.893     0.672  20.94   0
       106    612.6903    736.1492 300.1218798 +22.7605585     1399.248     72.46734      1.437     2.96     3.828049     20.44003     166.9022        20     1.097     1.010 -55.56   0
       107    533.3743    736.2460 300.0971560 +22.7368030     391.1809     72.46734      1.481     2.75     3.899746     20.44003     78.72482         5     0.840     0.712  89.81   0
       108    694.3264    731.4168 300.1488420 +22.7836748     248.7962     72.44889      1.396     5.20     3.975395     20.44003      34.6617         6     1.014     0.774 -54.12   0
       109    995.6726    726.7031 300.2443001 +22.8726297     1662.498     72.57795      1.688     3.38     3.753632     20.44003      140.537        25     1.260     1.144  40.46   0
       110    358.5360    720.6467 300.0478276 +22.6798881     675.9597     72.48579      1.334     3.26     4.015909     20.44003     105.3048        13     1.114     0.821   2.38   0
       111    822.1520    717.9336 300.1930519 +22.8181168     2572.695     72.44889      1.565     3.18     4.128291     20.44003     251.1694        30     1.399     1.120   8.78   0
       112     44.5506    708.2949 299.9542529 +22.5821301     718.4397     72.50423      1.654     4.24     4.129421     20.44003     79.63872        13     1.219     0.798 -27.43   0
       113    904.2776    704.0265 300.2231726 +22.8387322      683.133     72.44889      1.636     3.46     4.059547     20.44003     70.32001        13     1.094     0.831  20.06   0
       114    207.3493    703.9182 300.0062581 +22.6297313     635.1107     72.46734      1.661     5.24     4.199364     20.44003      57.4167        14     1.429     0.929 -55.68   0
       115    940.5265    694.9550 300.2374237 +22.8469871     147264.2     72.43044      1.585     3.15     3.996239     20.44003     12548.31       160     1.492     1.486  46.31   0
       116    792.7294    695.3842 300.1912132 +22.8028230     677.4147     72.46734      1.371     3.34     4.038452     20.44003     68.10768        13     0.988     0.856 -37.29   0
       117    104.3615    694.0369 299.9774665 +22.5959928     286.8782     72.52267      1.658     4.44     4.140385     20.44003     26.86927         6     0.888     0.632  51.89   0
       118    702.8629    698.9948 300.1620410 +22.7769247     299.3198     72.41197      1.435     2.83     3.965513     20.44003     49.82498         5     0.928     0.380  26.30   0
       119    664.0834    690.5087 300.1527209 +22.7628635     420.4383     72.59637      0.702     1.05     3.983198     20.44003     164.4435         5     0.526     0.406 -60.98   0
       120    973.2233    687.7720 300.2499549 +22.8547191     439.1664     72.44889      1.474     3.27     3.888776     20.44003     51.92193         8     0.910     0.766  -2.25   0
       121    808.0003    681.1083 300.2006125 +22.8032994     9259.479      72.3196      1.439     2.77     4.034249     20.44003     975.1982        38     1.191     1.167  81.18   0
       122    626.7370    683.7018 300.1433031 +22.7497135     1618.552      72.5411      1.423     2.71     3.928678     20.44003     202.1175        17     1.023     0.912  18.37   0
       123    290.3393    682.6936 300.0389563 +22.6485417     283.9998      72.5411      1.277     3.04     3.988225     20.44003     44.00106         5     0.725     0.463 -79.86   0
       124    309.4982    676.1130 300.0470525 +22.6524011     5056.215     72.61478      1.500     2.66     3.936089     20.44003     628.1345        35     1.217     1.192  45.44   0
       125     23.4069    674.5337 299.9586588 +22.5661039     1665.803     72.44889      1.728     3.25     4.127951     20.44003     186.6109        25     1.270     1.175 -30.11   0
       126    391.6343    674.2532 300.0732026 +22.6765042     1076.934     72.46734      1.301     2.53     3.864355     20.44003     136.5837        15     0.954     0.857  78.80   0
       127    266.9815    671.7092 300.0352640 +22.6383832     485.7487     72.37504      1.476     4.33     4.036176     20.44003     51.18392         9     0.971     0.762  43.87   0
       128    599.8039    669.7088 300.1394650 +22.7376218     744.4759     72.35656      1.398     2.82     3.942655     20.44003       88.527        14     1.002     0.863 -53.76   0
       129    591.4395    661.8885 300.1394024 +22.7328690     3351.967     72.43044      1.374     2.51     4.004963     20.44003     448.1899        28     1.109     1.061  13.54   0
       130    581.7268    655.7178 300.1383840 +22.7281857     1420.991     72.57795      1.336     2.31     4.051694     20.44003     203.6146        15     0.937     0.859  -8.52   0
       131    510.2166    655.0349 300.1163460 +22.7065494     302.5471     72.44889      1.214     2.03     3.981394     20.44003      59.7421         5     0.731     0.460 -26.29   0
       132    975.2464    653.5106 300.2617222 +22.8454810     569.6223     72.43044      1.509     5.05     3.893834     20.44003     62.61294        10     1.187     0.826  41.96   0
       133    244.8060    652.0660 300.0347537 +22.6260954     562.5872     72.44889      1.528     4.32     4.114389     20.44003     80.30094        12     1.122     0.869 -30.89   0
       134    258.9298    650.2040 300.0397497 +22.6297983     572.3786     72.39351      1.519     3.78     4.052306     20.44003     65.08607        11     1.018     0.733   0.11   0
       135    316.2889    647.5685 300.0584409 +22.6462482     442.6555     72.41197      1.462     3.38      3.89689     20.44003      39.5664         5     0.735     0.451 -20.65   0
       136    285.1794    646.9818 300.0489581 +22.6367482     687.4963     72.44889      1.540     3.25     3.934848     20.44003     67.19846         9     0.961     0.635 -56.38   0
       137    605.6749    646.1110 300.1489624 +22.7326069     466.8222     72.61478      1.378     2.37      4.12958     20.44003     69.14362         7     0.687     0.664  -4.62   0
       138    506.3637    645.3852 300.1182829 +22.7026242     1900.348     72.44889      1.351     2.42     4.037301     20.44003     226.7864        21     1.106     0.931 -21.37   0
       139    540.7341    644.9941 300.1291079 +22.7128171     218.6438     72.44889      1.222     2.44     4.127105     20.44003     43.24471         5     0.764     0.474 -32.05   0
       140    160.4080    640.2693 300.0123550 +22.5973904     19591.28     72.43044      1.593     2.93     4.202102     20.44003     2036.435        68     1.441     1.329  43.35   0
       141     81.5707    641.8597 299.9873430 +22.5741903     671.7323     72.46734      1.778     3.53     4.228157     20.44003     85.73929        13     1.133     0.874  13.68   0
       142    591.4155    640.7452 300.1462664 +22.7267917     1043.308     72.43044      1.282     2.45     4.168523     20.44003     144.7253        14     0.950     0.870 -18.90   0
       143    508.6045    637.4106 300.1215718 +22.7010070     214.1121     72.30111      1.416     4.34     4.097666     20.44003     28.73027         5     1.000     0.535  43.36   0
       144   1009.6074    626.9865 300.2810596 +22.8481516     1119.203     72.33808      1.626     3.56     3.676249     20.44003     100.5777        17     1.256     0.888   5.90   0
       145    106.4016    624.4275 300.0007216 +22.5766419     1502.585     72.39351      1.903     4.68     4.310801     20.44003     123.5266        25     1.528     1.054 -80.53   0
       146    876.0513    624.8517 300.2401071 +22.8075302     530.0744     72.48579      1.531     3.81     4.109824     20.44003     56.96333         9     0.971     0.669 -36.41   0
       147    172.9146    624.9206 300.0212291 +22.5967401     411.0038     72.59637      1.409     3.97     4.201096     20.44003     50.40944         9     1.127     0.683  16.74   0
       148    554.9311    621.4464 300.1411795 +22.7103134       480.05     72.43044      1.351     2.69     4.324294     20.44003     53.77875         8     0.787     0.661 -71.86   0
       149    949.8769    619.8199 300.2647600 +22.8282008     902.0125     72.44889      2.231     4.07     3.991486     20.44003     77.53741        16     1.223     0.950  20.97   2
       150    347.7766    620.4689 300.0770396 +22.6479163     305.5405     72.44889      1.585     3.45      3.86853     20.44003     34.28572         5     0.747     0.461 -19.04   0
       151    694.7180    618.0211 300.1858213 +22.7512310     256.4462     72.41197      1.257     3.85     4.210769     20.44003     29.79298         5     0.835     0.508 -35.00   0
       152    511.4879    613.5382 300.1302267 +22.6950186     807.5578      72.5411      1.580     3.09     4.256293     20.44003     88.42577        15     1.106     0.849   5.43   0
       153    659.2321    612.1533 300.1766754 +22.7389102     497.9816     72.48579      1.252     2.63      4.39729     20.44003     77.84678         7     0.838     0.539  39.32   0
       154    706.7878    610.7818 300.1919334 +22.7527693     456.4789     72.41197      1.423     3.03     4.151527     20.44003      65.6767         9     0.978     0.609  63.63   0
       155    677.2325    610.2100 300.1829132 +22.7437473     627.4441     72.44889      1.444     2.79     4.381016     20.44003     67.44084        10     0.866     0.772  48.85   0
       156    555.7154    609.2673 300.1453811 +22.7070519     921.8732     72.55952      1.359     3.06     4.417757     20.44003     103.3133        14     1.006     0.904 -17.14   0
       157    989.5958    604.9930 300.2819651 +22.8358373     3377.417     72.28262      1.561     3.25     3.763578     20.44003     294.9951        30     1.241     1.146  10.42   0
       158    521.2407    604.9016 300.1360685 +22.6954632     1691.095     72.43044      1.334     2.49     4.311407     20.44003     228.6829        18     0.978     0.957 -72.80   0
       159    886.2547    602.4759 300.2505592 +22.8041584     336.6149     72.48579      1.446     4.52     4.092885     20.44003     37.77385         6     0.911     0.667  81.77   0
       160     83.2162    598.4591 300.0019559 +22.5622368     5096.945     72.41197      1.633     2.87     4.306852     20.44003     560.3439        39     1.308     1.274 -79.12   0
       161    550.2061    595.8748 300.1480177 +22.7015552     309.7088     72.37504      1.473     2.72     4.374306     20.44003     58.18228         7     0.844     0.690 -38.95   0
       162    384.6895    591.6003 300.0979010 +22.6507015     9108.286     72.35656      1.429     2.46     3.865464     20.44003     1232.374        43     1.218     1.160  50.63   0
       163    507.1018    588.6696 300.1369419 +22.6865643     9024.529     72.57795      1.341     2.44     4.188359     20.44003     1198.419        34     1.131     1.054  51.06   0
       164    586.4617    585.7613 300.1625908 +22.7095196     179.3978     72.44889      1.233     5.39     4.346037     20.44003     33.44409         6     1.365     0.600 -68.85   0
       165    272.0873    585.6202 300.0648256 +22.6152150     263.7751     72.37504      1.774     5.14      3.93515     20.44003     37.89448         6     1.208     0.619 -49.49   0
       166    918.7043    582.7485 300.2670862 +22.8082108     1897.059     72.52267      1.424     2.69     4.092885     20.44003     221.0594        24     1.145     1.049 -89.66   0
       167    753.2854    585.1451 300.2147493 +22.7593400     295.5316     72.52267      1.309     3.44      3.89998     20.44003     41.00317         7     0.974     0.546  17.11   0
       168   1003.4939    580.0547 300.2944033 +22.8328329     12611.27     72.50423      1.544     2.96     3.689309     20.44003     1130.317        52     1.347     1.309  66.93   0
       169    567.6524    578.2771 300.1591664 +22.7017325     11550.85     72.46734      1.315     2.36     4.317617     20.44003       1439.2        45     1.164     1.118 -81.31   0
       170    737.0344    574.0140 300.2133027 +22.7512731     642.6881     72.43044      1.519     3.86      3.90213     20.44003     71.80208        12     1.056     0.919 -47.40   0
       171    295.1042    573.7026 300.0758540 +22.6186987     1366.531     72.63319      1.449     2.82     3.866931     20.44003     153.4381        22     1.226     0.971  50.42   0
       172    452.9330    573.2293 300.1251011 +22.6658913     267.2793     72.44889      1.314     4.87     3.939338     20.44003     33.90637         7     0.982     0.684 -11.83   0
       173    930.1301    570.6927 300.2745658 +22.8081690     122.0185     72.57795      1.215     5.18     4.087411     20.44003     31.06505         5     1.063     0.715 -77.60   0
       174    541.8845    571.2239 300.1534364 +22.6919830     343.3921     72.41197      1.126     2.57     4.275456     20.44003     61.93304         8     0.763     0.682  48.38   0
       175    842.2423    566.5840 300.2485016 +22.7806609     810.1813     72.46734      1.424     2.86     3.996454     20.44003     95.13432        16     1.061     0.895  84.21   0
       176    499.3623    566.4344 300.1417572 +22.6778605     4454.443     72.50423      1.319     2.28      4.05074     20.44003     548.5184        32     1.136     1.092 -19.92   0
       177    477.7411    564.9786 300.1355013 +22.6709606     1161.428     72.44889      1.352     2.45     3.954418     20.44003     182.5076        16     1.017     0.915   7.78   0
       178    231.9011    564.2188 300.0592848 +22.5970205     685.7925     72.37504      1.356     2.77     4.027879     20.44003     99.05731        12     0.922     0.801  -0.75   0
       179    919.2633    562.1099 300.2739661 +22.8024477     1607.764      72.5411      1.485     3.00     4.092885     20.44003     164.3204        19     1.086     0.996 -56.26   0
       180    615.9951    553.9821 300.1821109 +22.7092462     200399.7     72.41197      1.355     2.42     4.251733     20.44003     28081.82       204     1.437     1.397  -2.61   0
       181    165.8874    562.3456 300.0393752 +22.5766810      191.065     72.48579      1.176     3.51     4.040782     20.44003     35.55983         5     0.827     0.429 -16.80   0
       182    439.5930    560.0688 300.1252258 +22.6581137     293.6952     72.41197      1.190     4.69     3.887835     20.44003     51.15729         8     1.086     0.742 -72.65   0
       183    799.6713    558.8389 300.2377501 +22.7656817     788.8791     72.41197      1.299     2.49     3.806165     20.44003     111.2864        13     0.910     0.818  50.54   0
       184   1004.5633    556.3810 300.3024285 +22.8263491     184.8788     72.44889      1.389     5.37      3.67437     20.44003     26.85537         5     1.028     0.792  -6.38   0
       185    302.0426    553.9058 300.0844427 +22.6150984     3396.629     72.46734      1.405     2.67      3.86599     20.44003     396.9649        27     1.162     1.045  56.37   0
       186    576.9744    554.8060 300.1696939 +22.6977872     376.9857     72.43044      1.481     3.81     4.246346     20.44003     30.01255         5     0.832     0.501  53.91   0
       187    384.6571    554.0840 300.1100790 +22.6399239     204.7398      72.5411      1.096     2.55     3.861122     20.44003      42.3382         5     0.844     0.474 -88.47   0
       188    481.2419    550.6874 300.1412334 +22.6679072      222.382     72.44889      1.097     4.51     3.889749     20.44003     40.32727         7     1.022     0.565 -67.18   0
       189    867.8152    550.2604 300.2617762 +22.7836317     424.5387     72.41197      1.265     3.75     4.092885     20.44003     53.62395         6     0.763     0.546 -35.64   0
       190    886.7444    548.3090 300.2683111 +22.7887412     177.2313     72.50423      1.157     4.35     4.092885     20.44003     31.37729         5     0.745     0.724 -86.05   0
       191    506.6100    534.5839 300.1543596 +22.6708887     2789.913     72.37504      1.507     2.62     4.020545     20.44003     312.0845        30     1.535     0.993 -88.75   0
       192    350.6817    536.6401 300.1051775 +22.6247292      410.096     72.41197      1.437     3.25     3.880059     20.44003     52.62214         7     0.829     0.683   8.21   0
       193    918.5493    531.2225 300.2837778 +22.7933576     365.4396     72.44889      1.307     2.82     4.092885     20.44003       50.657         8     0.950     0.554  17.50   0
       194    737.2615    529.5889 300.2278057 +22.7385798     234.8551     72.39351      1.516     3.83     3.878409     20.44003     37.19176         5     0.998     0.423  82.36   0
       195    824.0422    523.0424 300.2569740 +22.7626982     305.3815     72.55952      1.363     4.41      3.90849     20.44003     40.83191         7     1.018     0.544 -32.98   0
       196    903.7482    520.5161 300.2826409 +22.7858477     1585.024     72.48579      1.363     2.58     4.092885     20.44003     214.3528        21     1.109     0.990 -52.20   0
       197     33.7521    519.1097 300.0123666 +22.5246359     881.7271     72.43044      1.902     4.08     4.136064     20.44003     78.98454        15     1.192     0.949 -35.05   0
       198    774.8310    518.1642 300.2432226 +22.7465539     2572.922     72.46734      1.327     2.54     3.838849     20.44003     312.6101        22     1.065     0.964  34.42   0
       199    413.2655    518.5403 300.1305244 +22.6382987     274.4714     72.48579      1.480     3.41     3.915747     20.44003     33.64213         5     0.781     0.431 -22.59   0
       200   1019.3376    515.8771 300.3201951 +22.8191311     526.0347     72.52267      1.622     4.38     3.571626     20.44003     41.87076         7     0.997     0.547  35.65  16
       201    984.6063    515.2718 300.3095586 +22.8085567     218.9301     72.41197      1.302     4.99     3.768043     20.44003     36.81143         6     0.947     0.745 -52.52   0
       202    679.4326    514.7795 300.2146018 +22.7169979     472.3979     72.44889      1.239     2.90     4.182163     20.44003     69.98911         8     0.971     0.553  20.84   0
       203    562.0552    513.9985 300.1783048 +22.6815971      617.716     72.37504      1.295     2.54     4.206355     20.44003     108.9706        11     0.911     0.743  46.47   0
       204   1018.1040    511.1550 300.3213442 +22.8174043     949.7333     72.46734      1.781     3.07     3.573417     20.44003      84.5381        12     0.977     0.799  71.61  16
       205    903.8930    510.5629 300.2859191 +22.7830307     2349.454     72.43044      1.582     3.91     4.092885     20.44003     226.7092        30     1.528     1.013  75.29   0
       206    657.2610    508.8164 300.2096331 +22.7086412     917.3842     72.39351      2.206     3.07     4.218987     20.44003     85.97958        14     1.039     0.954 -82.49   2
       207    942.0266    505.6687 300.2993990 +22.7930450     4236.449     72.43044      1.401     2.56     4.016423     20.44003     562.4651        27     1.106     1.051 -70.47   0
       208    495.9027    507.5300 300.1598146 +22.6599111     393.6922     72.57795      1.266     2.39     4.044372     20.44003     59.05983         6     0.744     0.499   1.51   0
       209    679.8452    502.3236 300.2187760 +22.7135436     351.9793     72.43044      1.446     3.00       4.1813     20.44003     38.16504         7     0.821     0.601  30.24   0
       210    602.8375    501.4070 300.1950918 +22.6902037     275.7164     72.46734      1.126     4.12     4.224552     20.44003     41.39728         6     0.741     0.655  44.90   0
       211    174.0660    495.8585 300.0635121 +22.5600582     1044.823     72.48579      1.554     3.35     3.988425     20.44003      115.152        18     1.082     1.065  53.01   0
       212    834.6901    489.8662 300.2710687 +22.7563549      272.202     72.55952      1.065     2.07     3.982411     20.44003     54.25105         5     0.705     0.435  73.67   0
       213    221.2830    487.6836 300.0808429 +22.5718739     260.3402     72.57795      1.316     3.77     4.013017     20.44003     38.41916         5     0.936     0.437  82.42   0
       214    166.7349    485.9610 300.0644479 +22.5550193     493.5665     72.43044      1.743     5.35     3.985925     20.44003     39.36617         9     1.036     0.877  -7.64   0
       215    774.4010    479.9731 300.2554930 +22.7354523     443.1309     72.39351      1.394     2.91     3.871431     20.44003     70.95513        13     0.988     0.922  -2.28   0
       216    663.4358    478.0118 300.2215611 +22.7016431     362.8501     72.43044      1.428     2.38     4.225896     20.44003     64.97832         5     0.686     0.598  -2.62   0
       217    715.5314    476.1889 300.2383803 +22.7167284     847.9084     72.46734      1.311     2.97     3.987394     20.44003     102.2966        13     1.073     0.738  48.60   0
       218    776.1534    468.2877 300.2598341 +22.7326197     767.4913     72.43044      1.292     2.68     3.871431     20.44003     94.99877        13     0.961     0.801  41.10   0
       219    933.4524    464.5856 300.3100687 +22.7786690     957.5822     72.48579      1.374     2.46     4.084207     20.44003     123.8736        14     0.969     0.829  38.15   0
       220    891.9739    462.5182 300.2978074 +22.7656529     206.6017     72.43044      1.255     3.72     4.071578     20.44003     34.64801         6     0.798     0.498  -3.49   0
       221    917.8386    461.0144 300.3063599 +22.7729667     655.9671     72.46734      1.409     3.22     4.100062     20.44003     73.61314        10     0.907     0.791  -7.97   0
       222    898.4556    461.4590 300.3001721 +22.7672897     259.1804     72.52267      1.264     3.39      4.07633     20.44003     43.02985         6     0.910     0.418  19.64   0
       223    662.0556    459.0027 300.2273044 +22.6957689     3138.448     72.39351      1.298     2.21     4.216697     20.44003     477.7645        21     1.001     0.958  84.24   0
       224   1022.3055    457.4383 300.3401014 +22.8032201     506.3416     63.56292      1.662     5.14     3.534055     20.44003     57.31486        14     1.410     0.864  50.97  24
       225    137.9598    450.4792 300.0670275 +22.5362074     425.8322     72.43044      1.630     5.17     4.081807     20.44003     41.91516         8     0.974     0.774  -9.74   0
       226    501.9373    446.1528 300.1816251 +22.6440952     355.6845     72.46734      1.288     2.62     4.135978     20.44003     53.28697         8     0.815     0.635  52.12   0
       227    945.2333    437.7606 300.3224534 +22.7744860     461.4392     72.48579      1.220     2.66     4.033988     20.44003     70.48832         7     0.856     0.560 -55.02   0
       228    772.5588    432.9389 300.2701928 +22.7213856     1131.211     72.43044      1.349     2.62     3.871431     20.44003     132.8838        17     1.012     0.960 -43.73   0
       229    681.7751    434.6485 300.2413547 +22.6946806     450.1372     72.44889      1.546     3.32     4.157447     20.44003     49.58332         5     0.776     0.411  21.69   0
       230    568.5114    433.0566 300.2066008 +22.6602857     438.3293     72.48579      1.286     4.00     4.200131     20.44003     60.25692         7     0.958     0.586  71.28   0
       231    276.6530    430.9958 300.1164642 +22.5722081      696.105     72.43044      1.365     3.05     4.035262     20.44003      92.8535        10     0.962     0.668  57.71   0
       232    339.0278    426.8000 300.1372234 +22.5897049     3669.458     72.39351      1.335     2.38     4.068058     20.44003     528.6659        26     1.086     1.004  78.82   0
       233    286.2103    421.5001 300.1225190 +22.5723480     7660.899     72.35656      1.405     2.51     4.045523     20.44003     856.7384        42     1.258     1.134  26.97   0
       234    791.0721    421.6982 300.2796117 +22.7237009      206.201     72.57795      1.206     3.29     3.871431     20.44003     37.19016         5     0.872     0.458   2.64   0
       235    426.9739    415.7379 300.1681729 +22.6128925     4933.823     72.44889      1.353     2.29     4.100232     20.44003     724.6764        34     1.137     1.104  57.99   0
       236    671.2048    412.5003 300.2452536 +22.6851506      18504.1     72.33808      1.276     2.19     4.185622     20.44003     2716.318        51     1.204     1.100  67.79   0
       237    688.7786    412.6592 300.2506759 +22.6904612     774.5649     72.43044      1.779     6.17      4.10682     20.44003     66.36156        13     1.524     0.701 -30.92   0
       238    518.8786    414.4246 300.1971999 +22.6400605     347.3518     72.43044      1.712     3.87     4.163237     20.44003     44.49421         6     0.958     0.558  68.37   0
       239    297.9734    410.5905 300.1297186 +22.5727431     258.4631     72.44889      1.278     3.47     4.056979     20.44003     38.93002         5     0.805     0.432  20.19   0
       240     46.2040    409.7635 300.0517397 +22.4970029      202.851     72.46734      1.224     4.40     4.171537     20.44003     27.29866         5     0.755     0.728 -11.00   0
       241    868.2127    403.1152 300.3096887 +22.7414633      408.141     72.39351      1.237     3.31     3.923504     20.44003     75.35445         9     0.999     0.723  54.97   0
       242    291.3086    399.2245 300.1313360 +22.5674820     323.2613     72.39351      1.518     3.87     4.055089     20.44003     43.65777         6     0.762     0.631 -28.37   0
       243   1005.3145    395.0996 300.3550433 +22.7802101     815.2954     72.61478      1.597     5.30     3.652532     20.44003     74.78905        12     1.270     0.770  -0.03   0
       244    541.4807    393.6616 300.2109762 +22.6408701     419.0998      72.5411      1.570     5.18     4.190946     20.44003     61.52081         9     1.516     0.575  70.33   0
       245    225.9501    392.5334 300.1131876 +22.5459649     2148.167     72.43044      1.480     2.77      4.05234     20.44003     236.0744        24     1.178     1.019  37.98   0
       246    611.9029    381.9364 300.2367079 +22.6586028     6597.345      72.5411      1.308     2.19     4.193937     20.44003     1032.529        30     1.093     1.009  85.65   0
       247    326.6302    381.2033 300.1481703 +22.5728975     714.4706     72.41197      1.473     2.80     4.077865     20.44003     85.65788        11     0.951     0.757  61.75   0
       248    184.1181    374.5760 300.1060138 +22.5282671     486.4455     72.41197      1.428     4.04     4.096839     20.44003     63.61933        10     1.092     0.822 -62.46   0
       249    871.8378    373.4310 300.3204558 +22.7340162     403.0602     72.44889      1.411     2.45      3.92291     20.44003     66.13163         6     0.733     0.607  63.42   0
       250     31.5214    372.0473 300.0594221 +22.4817772     1141.501     72.44889      1.547     3.37     4.406286     20.44003     130.5679        18     1.226     0.944  48.45   0
       251    815.9992    370.8309 300.3038947 +22.7165474     1175.086     72.41197      1.470     2.87     3.920655     20.44003     141.0722        18     1.192     0.911  66.78   0
       252    725.6533    372.1468 300.2753153 +22.6898664     505.4995     72.48579      1.272     2.31     3.912345     20.44003     74.74783         7     0.717     0.619 -74.24   0
       253      1.5946    369.3132 300.0510148 +22.4720161     655.8885     57.85938      1.113     3.18     4.550821     20.44003     102.8991        12     1.140     0.672 -76.49  24
       254   1007.7960    362.7396 300.3663229 +22.7716483     642.9091     72.43044      1.518     3.01     3.628816     20.44003     78.91532        12     0.912     0.895 -56.54   0
       255    910.4636    362.6079 300.3360115 +22.7424706     1339.459     72.43044      1.266     2.35     3.941303     20.44003     177.0448        16     0.958     0.879  40.51   0
       256    607.9826    359.9385 300.2426280 +22.6511084     929.1659     72.41197      0.469     2.17     4.195924     20.44003     681.6008         6     0.449     0.320 -17.19   0
       257    518.4666    368.1378 300.2120981 +22.6266424     5973.901     72.48579      1.282     2.29     4.172188     20.44003     778.1057        31     1.101     1.002  52.80   0
       258    503.1451    356.9896 300.2109478 +22.6188490     354.6435     72.44889      1.167     2.03     4.163186     20.44003     73.43989         8     0.769     0.622  34.46   0
       259    863.9660    353.8912 300.3243448 +22.7260422      282.519     72.43044      1.359     4.67     3.915023     20.44003      43.7027         8     1.265     0.643 -85.04   0
       260    585.8884    354.8618 300.2373964 +22.6430304     521.4771     72.52267      1.253     1.90     4.195342     20.44003     79.46538         8     0.751     0.616 -35.38   0
       261     29.9316    353.5443 300.0649338 +22.4759913     1007.261     72.48579      1.460     3.17      4.52594     20.44003     122.3821        17     1.073     1.011  52.13   0
       262    566.2955    352.4455 300.2320807 +22.6364660     289.0246     72.46734      1.430     3.00     4.194564     20.44003     52.33068         6     0.871     0.492 -46.33   0
       263    129.1894    351.1656 300.0965420 +22.5050767     192.6793     72.43044      1.279     4.35     4.128534     20.44003     27.70391         5     0.853     0.632  37.81   0
       264    883.1531    350.1316 300.3315467 +22.7307067     431.8756     72.43044      1.284     3.45     3.915488     20.44003     69.60562        11     1.037     0.709  29.15   0
       265    406.0064    347.3711 300.1838425 +22.5869755      2569.21     72.44889      1.367     2.31     4.062599     20.44003      342.218        21     1.004     0.971 -77.23   0
       266    124.5764    344.7352 300.0971956 +22.5018478     1096.245     72.43044      1.559     2.50     4.129442     20.44003     149.9287        15     0.990     0.882  30.03   0
       267    753.4854    342.2289 300.2936982 +22.6896047     148.3017     72.44889      1.132     3.44     3.884389     20.44003     36.42449         5     0.787     0.435  67.95   0
       268    375.3940    336.7943 300.1777521 +22.5747630      29624.4     72.30111      1.360     2.34     4.061439     20.44003     4111.384        69     1.296     1.178  66.96   0
       269    910.0991    334.4140 300.3450495 +22.7342559     1285.157     72.35656      1.251     2.43     3.928591     20.44003     178.1093        16     1.007     0.861  52.01   0
       270    865.7596    332.3647 300.3318912 +22.7203910     218.2572     72.50423      1.037     2.58     3.914948     20.44003     45.41364         5     0.734     0.432 -21.03   0
       271     71.6720    324.5875 300.0872972 +22.4802003     4896.551     72.46734      1.546     2.78     4.286462     20.44003     620.7324        33     1.226     1.202  65.41   0
       272    825.4675    323.2318 300.3222960 +22.7057008     497.5756     72.44889      1.380     2.43     3.932035     20.44003     65.35838         5     0.698     0.462  68.80   0
       273    249.6252    323.2389 300.1430391 +22.5331709     474.3722     72.46734      1.316     3.24     4.098146     20.44003     66.72021        10     1.012     0.692   2.86   0
       274    473.8168    322.0182 300.2131707 +22.6000155     414.9525     72.43044      1.282     2.30     4.104487     20.44003     75.07574         8     0.777     0.643  57.93   0
       275    652.3928    318.7990 300.2698108 +22.6525920     67.60085     72.26411      1.061     3.50     4.009781     20.44003     27.12773         5     0.773     0.458 -74.32   0
       276    785.7711    316.4799 300.3121158 +22.6918728     1906.402     72.46734      1.319     2.44      3.91623     20.44003     285.3639        19     1.043     0.911  71.70   0
       277    594.1310    311.1104 300.2541629 +22.6329298     268.5835     72.61478      1.236     2.58     4.132041     20.44003     51.23509         6     0.872     0.564 -72.13   0
       278   1000.9890    309.4656 300.3814916 +22.7542911     538.2296     72.39351      1.402     5.25      3.93306     20.44003     72.73314        10     1.164     0.669  64.71   0
       279    447.5970    301.1885 300.2117711 +22.5861755     2172.563     72.26411      1.478     2.82     3.919564     20.44003     303.7399        23     1.265     0.955  64.05   0
       280    886.6285    293.9538 300.3508633 +22.7155963     617.3126     72.48579      1.330     2.70     3.935838     20.44003     87.64307        13     0.972     0.826   0.92   0
       281     20.5315    291.8938 300.0820207 +22.4554810     749.7262     72.59637      1.856     3.77     4.587697     20.44003     70.15448        10     1.100     0.677 -19.70   2
       282    768.9758    291.4727 300.3149977 +22.6796552      456.404     72.48579      1.359     1.90     3.869835     20.44003     99.93768         8     0.887     0.527 -67.89   0
       283    737.1580    291.0262 300.3052287 +22.6699985     413.2252     72.48579      1.443     3.03     3.797176     20.44003     48.79567         6     0.892     0.457  55.01   0
       284    523.4158    280.6178 300.2420428 +22.6029837     1232.483     72.43044      1.370     2.55     4.193126     20.44003     147.4328        17     1.022     0.910  17.27   0
       285    330.6729    280.9173 300.1819749 +22.5453130     200.1301     72.57795      1.170     2.67     4.075654     20.44003     44.76183         5     0.740     0.429  71.66   0
       286    907.0933    274.4757 300.3635646 +22.7161224     255.5458     72.61478      1.378     4.13     3.944075     20.44003     47.11742         5     0.748     0.651 -69.62   0
       287    263.6905    275.5553 300.1628853 +22.5236965     104.6474     72.43044      1.001     3.48     4.117147     20.44003     34.77114         5     0.786     0.446  19.79   0
       288    768.3539    272.5370 300.3209486 +22.6740259     2220.034     72.48579      1.231     2.27     3.871632     20.44003     341.3947        17     0.951     0.883  87.99   0
       289      2.0967    257.8316 300.0873466 +22.4401774     54851.84     60.59082      1.321     2.58     4.664155     20.44003     8855.909        68     1.411     0.993  86.92  24
       290    476.3712    256.2197 300.2353169 +22.5818795     655.0429     72.44889      1.330     2.62     4.266594     20.44003     91.36584         8     0.746     0.693 -67.13   0
       291    151.5402    250.3988 300.1361856 +22.4828540     1421.717     72.41197      1.736     3.83     4.130668     20.44003     134.8386        21     1.308     1.014 -34.03   0
       292    181.9848    250.4941 300.1456167 +22.4920083     659.5842     72.37504      1.347     3.59     4.150514     20.44003     80.70108        13     1.060     0.896  12.78   0
       293    899.7901    247.7826 300.3699489 +22.7062605     317.4272     72.41197      1.391     3.42     3.909901     20.44003     35.08591         5     0.972     0.348 -42.52   0
       294    889.2009    244.6476 300.3676646 +22.7021892     324.8152     72.44889      1.300     3.92     3.892475     20.44003     35.61559         6     1.106     0.398  14.81   0
       295    235.7102    242.6569 300.1648597 +22.5058631      490.998     72.50423      1.359     2.71     4.215336     20.44003     72.53279         8     0.848     0.649   9.75   0
       296     21.3964    237.8163 300.0998340 +22.4402207     203.9884     72.37504      1.388     4.48     4.563006     20.44003     32.45927         7     0.954     0.717  36.51   0
       297    911.6491    235.7975 300.3775350 +22.7063640     349.8231     72.44889      1.433     5.65     3.914152     20.44003     31.59812         9     1.390     0.647  82.87   0
       298    840.0468    233.9858 300.3558005 +22.6844084     540.5209     72.46734      1.220     2.28      3.88471     20.44003     89.45488         8     0.766     0.630  49.77   0
       299    430.4717    233.1901 300.2285054 +22.5615113     456.3679     72.43044      1.282     2.65     3.756907     20.44003     59.67252         6     0.760     0.495  83.32   0
       300    938.0045    222.9534 300.3899202 +22.7105590      2012.78     72.43044      1.427     2.64     3.944839     20.44003     253.4299        22     1.104     1.002  81.28   0
       301    356.7455    220.1525 300.2097986 +22.5356748     2323.007     72.48579      1.343     2.57     3.731717     20.44003     278.0395        22     1.078     0.974  57.70   0
       302    434.5381    215.3614 300.2355545 +22.5576080      942.962     72.44889      1.341     2.53      3.94052     20.44003     112.9078        14     0.950     0.858 -82.15   0
       303    186.3990    215.5869 300.1583127 +22.4833092     313.7308     72.28262      1.245     3.61     4.237271     20.44003     47.06177         7     0.868     0.760 -47.67   0
       304    836.8136    214.9119 300.3609808 +22.6779562     601.6653     72.39351      1.380     2.30     3.960071     20.44003     88.51035         9     0.744     0.740  61.96   0
       305    943.3067    211.3880 300.3953257 +22.7088198     470.1885     72.39351      1.580     2.62     4.036943     20.44003     44.93598         5     0.813     0.602  47.41   0
       306    251.4653    207.5246 300.1811548 +22.5004969     808.4808     72.50423      1.357     4.46     4.251259     20.44003     86.38227        18     1.304     1.014  33.53   0
       307    369.8132    207.5822 300.2179411 +22.5359799     288.3031     72.41197      1.031     1.73     3.842998     20.44003     61.95484         5     0.669     0.434  27.44   0
       308    789.2396    204.4055 300.3495617 +22.6606927     1683.025     72.46734      1.301     2.22     3.989658     20.44003      267.914        19     1.058     0.908 -64.81   0
       309    854.0211    204.0463 300.3698695 +22.6799831     432.4678     72.50423      1.091     2.29     4.056637     20.44003     71.92722         9     0.747     0.707 -59.96   0
       310    103.7388    204.1781 300.1363254 +22.4552540     184.9064     72.43044      1.368     3.46     4.332075     20.44003     33.74721         5     0.986     0.351  44.24   0
       311    272.7287    200.7194 300.1899734 +22.5049153     462.5302     72.55952      1.213     2.76     4.201234     20.44003     67.23206         9     0.865     0.782  33.10   0
       312    562.5177    196.7966 300.2814095 +22.5906122     331.7462     72.37504      1.282     2.45     4.229895     20.44003     59.77763         5     0.718     0.447 -66.63   0
       313    793.3113    195.8160 300.3536170 +22.6594421     830.2693     72.37504      1.481     2.62     4.026586     20.44003     109.8776        11     0.870     0.804  45.12   0
       314    713.5590    194.9320 300.3290537 +22.6353096     1343.182     72.43044      1.397     2.50     3.927016     20.44003     177.1127        21     1.156     0.979  74.16   0
       315    534.8185    191.3657 300.2745480 +22.5807548     407.2248     72.44889      1.453     3.68     4.329937     20.44003     55.30579         7     0.949     0.573  22.28   0
       316    639.8505    186.8339 300.3087213 +22.6109098      955.943     72.46734      1.364     2.42      4.09431     20.44003     155.4696        13     1.038     0.776  73.22   0
       317    909.3776    186.6330 300.3927762 +22.6915451     1465.634     72.44889      1.325     2.26     4.273994     20.44003     229.3227        19     1.079     0.914   5.50   0
       318    921.3220    185.6063 300.3968336 +22.6948248     900.4376     72.37504      1.516     3.14     4.290543     20.44003     117.2454        15     1.028     1.008  44.82   0
       319     11.1277    174.5725 300.1171581 +22.4189891     344.9951     72.43044      1.464     3.44     4.471469     20.44003     47.97825         5     1.206     0.284  55.20   0
       320     61.6289    172.6317 300.1334742 +22.4335731     428.8578     72.44889      1.350     2.86     4.433522     20.44003     76.90269         9     0.916     0.725 -13.03   0
       321    271.8763    168.7653 300.2000725 +22.4954826     834.8188     72.41197      1.550     3.46     4.311465     20.44003     93.95732        13     1.057     0.864 -87.32   0
       322    133.9580    163.7322 300.1588334 +22.4527008     2098.147     72.43044      1.491     2.61     4.482831     20.44003     260.8959        26     1.186     1.090  63.84   0
       323    956.9133    160.8875 300.4159502 +22.6983667       632.17     72.57795      1.263     2.45     4.320964     20.44003      111.574        10     0.855     0.706  58.54   0
       324     83.4426    160.4549 300.1442001 +22.4366169     515.9668     72.44889      1.544     3.18     4.441949     20.44003     82.65995         9     1.114     0.610   9.67   0
       325    291.3035    156.9975 300.2099299 +22.4979244     5834.129     72.35656      1.423     2.63     4.298133     20.44003     662.0422        37     1.239     1.131  50.88   0
       326     75.4146    151.4125 300.1446384 +22.4316142      1231.44     72.37504      1.454     2.78     4.478313     20.44003     164.2582        21     1.197     1.072  43.55   0
       327    274.7808    148.1511 300.2076609 +22.4904323     716.1426     72.46734      1.425     2.59     4.335185     20.44003     87.80516         9     0.862     0.681 -16.84   0
       328    935.4308    138.6947 300.4164486 +22.6855542     3600.273     72.35656      1.428     2.62      4.56564     20.44003     429.7682        29     1.202     1.057 -75.25   0
       329    484.9906    133.7736 300.2777170 +22.5492798     618.4634     72.44889      1.255     2.71     4.503982     20.44003     96.67731        10     0.918     0.727 -44.89   0
       330    237.8981    134.6693 300.2005653 +22.4755074     308.8109     72.57795      1.273     3.36     4.447831     20.44003     46.44796         5     0.785     0.417  19.09   0
       331    598.8771    131.5871 300.3138797 +22.5827598     379.1052     72.46734      1.385     4.58     4.282924     20.44003       55.747         7     1.098     0.588  43.44   0
       332    409.0336    125.5807 300.2567376 +22.5241727     835.0592     72.44889      1.821     3.19     4.427217     20.44003     75.41045        11     1.020     0.717 -88.15   0
       333    175.0450    123.0136 300.1848067 +22.4533235     508.5298     72.46734      1.209     2.46     4.582546     20.44003     73.63701         9     0.759     0.730 -12.34   0
       334    536.1956    121.1133 300.2977608 +22.5609778     1702.579     72.37504      1.285     2.27     4.326456     20.44003     231.6075        17     1.054     0.837  69.09   0
       335    464.1597    121.8230 300.2751094 +22.5396061     330.9141     72.48579      1.246     2.74      4.49646     20.44003     57.12349         6     0.743     0.551 -38.30   0
       336    597.8925    120.0593 300.3173114 +22.5791513     273.9643     72.52267      1.392     3.90     4.287256     20.44003     55.58203         8     1.057     0.652  34.62   0
       337    360.0497    116.9150 300.2443089 +22.5070083     242.6599     72.43044      1.194     3.83     4.313833     20.44003     35.64878         5     0.806     0.521  60.21   0
       338    279.3669    116.6125 300.2193140 +22.4827475     388.5504     72.43044      1.367     3.33     4.331474     20.44003     61.80243         6     0.856     0.597  62.73   0
       339    752.6972    114.6609 300.3672817 +22.6239486     336.6112     72.52267      1.435     3.03     4.384206     20.44003     45.54254         5     0.936     0.464   6.49   0
       340    824.1520    110.0969 300.3910299 +22.6440249     280.6551     72.48579      1.289     4.21     4.546256     20.44003      41.9441         7     0.930     0.543  48.99   0
       341    181.5523    106.8823 300.1920597 +22.4506410     214.2078     72.46734      1.241     4.13     4.597219     20.44003     38.46115         6     1.002     0.486  83.09   0
       342    970.5115    105.3305 300.4382086 +22.6864538     323.8246     72.61478      1.129     3.83     4.772883     20.44003     42.97043         6     0.896     0.469   2.65   0
       343    816.5021    101.5126 300.3914291 +22.6392664      297.826     72.61478      1.234     3.71     4.580141     20.44003     48.46701         7     0.873     0.634  66.75   0
       344    310.2698    100.9346 300.2340075 +22.4875031     5906.602     72.48579      1.406     2.55     4.298946     20.44003     690.0807        34     1.221     1.095  60.83   0
       345    161.3640    100.4501 300.1878705 +22.4427434      565.341     72.46734      1.356     2.87     4.644074     20.44003     77.95601        11     0.905     0.782 -68.44   0
       346    939.7772     98.2713 300.4309126 +22.6752266     213.6806     72.48579      1.132     3.12     4.732931     20.44003      51.2111         6     0.736     0.641  36.99   0
       347      5.0978     97.1724 300.1403832 +22.3949624     687.0682     71.89315      1.499     3.54     4.696497     20.44003     70.30952        12     0.986     0.880 -16.15  16
       348    281.9515     94.8489 300.2271743 +22.4772702      270.799     72.48579      1.186     2.21     4.321142     20.44003     57.47854         6     0.725     0.540  41.21   0
       349    325.8618     92.3217 300.2416492 +22.4897002     438.3737     72.52267      1.733     2.75     4.294076     20.44003     49.46817         6     0.730     0.613  52.64   0
       350     71.9965     91.5033 300.1630017 +22.4133888     421.3254     72.35656      1.385     2.20     4.707052     20.44003     49.65005         6     0.737     0.499   3.83   0
       351    556.3924     86.3210 300.3153296 +22.5570261     6317.815     72.37504      1.360     2.44     4.302314     20.44003     742.5864        35     1.237     1.042  65.45   0
       352    441.7107     86.2307 300.2796641 +22.5226540     741.3126     72.43044      1.794     3.12     4.405784     20.44003     87.63773        13     1.057     0.925  64.10   0
       353    808.6057     76.7209 300.3970064 +22.6297728     900.8998     72.37504      1.638     4.78     4.690469     20.44003     101.0174        17     1.539     0.799 -76.95   0
       354    750.3407     77.7872 300.3785035 +22.6126398     314.0501     72.43044      1.310     3.11     4.649529     20.44003     44.82823         5     0.761     0.424 -70.40   0
       355    901.4536     75.2974 300.4264116 +22.6571498     389.0703      72.5411      1.378     2.78     4.745995     20.44003     71.32246         6     0.875     0.421  69.71   0
       356    249.0933     69.9970 300.2250145 +22.4602860     526.5766     72.35656      1.363     3.20     4.521678     20.44003     73.17939        12     0.998     0.825  25.47   0
       357    607.5405     68.7168 300.3369628 +22.5672811     351.6127      72.5411      1.267     4.79     4.545069     20.44003     52.66381         8     1.043     0.622  48.27   0
       358    684.7380     66.4376 300.3617449 +22.5897380     6262.615     72.46734      1.353     2.31      4.61609     20.44003     904.3834        37     1.204     1.098  84.47   0
       359    459.6179     65.2950 300.2920240 +22.5220009     1492.943     72.37504      1.334     2.46     4.375165     20.44003     211.7028        19     1.114     0.920  67.74   0
       360    725.6436     63.8445 300.3753289 +22.6012376     939.0405     72.48579      1.384     2.82     4.705596     20.44003     135.9684        16     1.082     0.856  55.80   0
       361    795.4760     61.1445 300.3979644 +22.6213632     357.6231     72.48579      1.551     3.48     4.756491     20.44003     40.80845         5     0.795     0.440  69.16   0
       362    741.7729     59.9707 300.3816102 +22.6049517      615.499     72.43044      1.411     2.69     4.749955     20.44003     90.41562        10     0.940     0.686 -57.99   0
       363    208.5974     57.9426 300.2163326 +22.4446893     606.9182     72.41197      1.370     2.65     4.780273     20.44003     100.1968        12     1.016     0.758  78.20   0
       364   1011.8657     57.2593 300.4666940 +22.6849955     548.6108     72.48579      1.421     4.38     4.960371     20.44003     77.76492        11     1.097     0.974  34.56   0
       365     56.0493     57.9465 300.1689260 +22.3989733     367.4365     72.48579      1.420     3.53     4.745049     20.44003     48.21911         7     0.974     0.626  58.04   0
       366    780.1416     55.3645 300.3950594 +22.6151113      549.983     72.44889      1.256     2.54     4.782043     20.44003     65.70937         7     0.776     0.613 -23.23   0
       367    743.9068     50.1991 300.3854429 +22.6027803     1034.869     72.33808      1.896     4.41     4.808733     20.44003     101.9593        18     1.541     0.764  50.35   0
       368    728.9954     51.2822 300.3804458 +22.5986284     2789.974     72.37504      1.364     2.50     4.795073     20.44003      368.218        25     1.093     1.050 -66.29   0
       369    369.8036     52.0169 300.2683837 +22.4912836     423.7106     72.37504      1.385     5.12     4.293295     20.44003     52.50076         9     1.096     0.765  46.80   0
       370     22.4944     45.5790 300.1625117 +22.3853644     904.4778     72.37504      1.747     3.69     4.666131     20.44003     96.30727        17     1.175     1.079 -42.23   0
       371    815.3411     42.9293 300.4100608 +22.6220695      1525.39     72.48579      1.387     2.66     4.835026     20.44003      167.957        15     0.969     0.870 -82.45   0
       372    975.3546     41.2653 300.4604905 +22.6694705     261.7445     72.44889      1.234     3.45     4.925612     20.44003      46.2236         6     0.911     0.626  25.15   0
       373    753.2275     36.0261 300.3929417 +22.6014941     698.7765     72.41197      1.249     3.14     4.886357     20.44003     87.25739        12     0.959     0.817  35.32   0
       374    131.9698     35.6271 300.1997496 +22.4153175     555.4443     72.44889      1.340     2.81       4.9066     20.44003     63.07212         7     0.808     0.581 -18.13   0
       375    462.7331     33.6660 300.3032465 +22.5138435     761.7791     72.50423      1.271     2.33     4.282598     20.44003     102.0855        13     0.894     0.802  38.95   0
       376    845.0279     32.3493 300.4227439 +22.6279103      450.013     72.46734      1.399     2.07     4.881521     20.44003     59.72083         7     0.671     0.654 -16.37   0
       377    559.1516     35.5265 300.3326556 +22.5432509      1112.31     72.44889      1.355     2.41     4.364094     20.44003     141.2923        15     0.984     0.851  77.10   0
       378    802.1337     24.5269 300.4119098 +22.6128237     691.1042     72.48579      1.434     4.38     4.911472     20.44003     76.23553        14     1.395     0.776 -34.17   0
       379    234.1100     23.3970 300.2354617 +22.4424100     3797.568     72.35656      1.523     2.79     4.852387     20.44003     401.0605        34     1.265     1.183  42.91   0
       380     26.6930     23.8852 300.1708473 +22.3803937     475.2238     72.63319      1.579     3.00     4.672789     20.44003      52.6769         7     1.004     0.482 -20.25   0
       381    560.3057     21.1899 300.3376621 +22.5394750     324.6082     72.39351      1.359     2.93     4.393144     20.44003     51.28926         5     0.752     0.429  74.15   0
       382    292.3149   1019.2916 299.9300935 +22.7456631     1405.763     72.61478      3.320    10.20     66.00678     20.44003     66.79211        25     2.134     1.360  -7.60  19
       383    419.0817   1017.9536 299.9699534 +22.7833300     593.7331     72.43044      1.984     2.81     3.952111     20.44003     46.27788         5     0.642     0.565  87.65   0
       384    760.9949     15.2383 300.4021003 +22.5978401     398.7525     72.46734      1.383     2.81     4.995456     20.44003     50.10302         5     0.788     0.477 -51.30   0
       385    282.3522     15.3880 300.2530575 +22.4545620     333.4078     72.46734      1.894     4.14     4.183767     20.44003     29.93167         5     1.007     0.486   2.17   0
       386    609.9633   1011.3401 300.0315116 +22.8387099     2439.496     72.46734      1.884     4.55     3.150883     20.44003     164.5253        31     1.500     1.240  -8.08   0
       387    235.6864   1016.6323 299.9133547 +22.7279000     3278.359     72.43044      6.063    23.59     74.47765     20.44003      78.6436       187     4.638     4.008  83.49  27
       388    696.5319   1006.5176 300.0600395 +22.8632949     8543.643     72.55952      1.931     4.35     2.864061     20.44003     484.5975        47     1.536     1.426  35.91   3
       389    701.9449   1004.2170 300.0624743 +22.8642584     9499.817     72.43044      1.963     4.71       2.8639     20.44003     569.5011        50     1.555     1.459 -24.75   3
