#   1 NUMBER                 Running object number                                     
#   2 X_IMAGE                Object position along x                                    [pixel]
#   3 Y_IMAGE                Object position along y                                    [pixel]
#   4 ALPHA_J2000            Right ascension of barycenter (J2000)                      [deg]
#   5 DELTA_J2000            Declination of barycenter (J2000)                          [deg]
#   6 FLUX_APER              Flux vector within fixed circular aperture(s)              [count]
#   7 FLUXERR_APER           RMS error vector for aperture flux(es)                     [count]
#   8 FLUX_RADIUS            Fraction-of-light radii                                    [pixel]
#   9 FWHM_IMAGE             FWHM assuming a gaussian core                              [pixel]
#  10 BACKGROUND             Background at centroid position                            [count]
#  11 THRESHOLD              Detection threshold above background                       [count]
#  12 FLUX_MAX               Peak flux above background                                 [count]
#  13 ISOAREA_IMAGE          Isophotal area above Analysis threshold                    [pixel**2]
#  14 A_IMAGE                Profile RMS along major axis                               [pixel]
#  15 B_IMAGE                Profile RMS along minor axis                               [pixel]
#  16 THETA_IMAGE            Position angle (CCW/x)                                     [deg]
#  17 FLAGS                  Extraction flags                                          
         1    783.2336     15.3005 300.4119160 +22.6126049     665.3181     72.61572      1.325     3.22     4.868182     20.49232     89.58124        12     1.012     0.838  28.51   0
         2    215.6671     14.5590 300.2354649 +22.4424757     3862.409     72.61572      1.552     2.45     4.975873     20.49232      547.415        35     1.330     1.153  46.85   0
         3    638.0773     11.6482 300.3678690 +22.5681166     449.4024     72.63423      1.618     2.91     4.856085     20.49232     55.08234         7     0.889     0.610 -53.18   0
         4    541.4703     12.1782 300.3376103 +22.5393525     248.2037     72.63423      1.254     2.90     4.775728     20.49232     43.46165         5     0.731     0.449  67.75   0
         5    776.9128      7.1663 300.4125818 +22.6083738     963.8252     72.59721      1.417     3.41     4.845202     20.49232     105.8546        17     1.277     0.790  61.03  16
         6    331.4847      6.7695 300.2740093 +22.4749258      1321.23     72.65273      1.420     2.37     4.284398     20.49232     206.7743        19     1.126     0.955  65.46  16
         7    742.4777      6.2347 300.4021515 +22.5978024     439.2111     72.59721      1.745     4.46     4.738963     20.49232      38.0027         6     0.951     0.595  28.13  16
         8    814.9529      2.5910 300.4259221 +22.6184389     622.6953      63.2599      1.479     4.36     4.914574     20.49232      63.9777        15     1.201     0.888  69.89  24
         9    738.0562      2.4299 300.4020065 +22.5953849     469.5792       62.512      1.192     1.86     4.719633     20.49232     81.21188         6     0.714     0.480 -13.43  16
        10    591.2371   1002.3361 300.0315783 +22.8386412     2383.772     72.63423      1.900     4.27     2.322613     20.49232      165.131        33     1.434     1.362  59.37   0
        11    777.0580   1023.2821 300.0826470 +22.9003775     330.3718     58.78976      1.615     4.44     2.004295     20.49232     40.93476         7     1.221     0.811  48.84  24
        12    339.8210   1022.7288 299.9466993 +22.7690592     696.0316     61.64614      1.628     4.64     13.15021     20.49232     86.68147        16     1.355     0.999  30.20  24
        13    129.5451   1012.2239 299.8847443 +22.7029305     4535.769     72.65273     13.728    67.50     74.98031     20.49232     93.53415      1180    16.475     7.673  42.54  27
        14    123.0289    960.8357 299.8994383 +22.6862458      5337.73     72.65273     22.086    84.14     34.38408     20.49232     115.0551      3084    19.319    15.045 -15.51  19
        15    683.2931    995.5331 300.0624624 +22.8642979     9769.778     72.78208      1.947     5.61     2.408635     20.49232     581.8289        54     1.655     1.460 -31.64   3
        16    121.6058    927.6582 299.9097883 +22.6763087     3902.899     72.59721     17.374    52.36      10.2908     20.49232     86.84779       915    11.798     6.487 -35.08   3
        17    969.6691    981.1107 300.1564204 +22.9460101     725.6998     72.80054      2.127     5.54     2.431908     20.49232     59.95337        11     1.204     0.718 -64.70   2
        18    220.5385   1009.7811 299.9138209 +22.7295462     1468.565     72.61572      5.512     9.66     84.41996     20.49232     53.52789        25     2.227     1.168  16.60  19
        19    210.0126    991.5207 299.9164901 +22.7211522     929.8369     72.61572      3.240    10.52     69.04816     20.49232     42.18224        13     2.390     1.290 -31.54   2
        20    190.1973    967.4722 299.9181545 +22.7083106      1496.69      72.5787      4.236     9.74     47.69844     20.49232     50.62311        26     2.266     1.167  25.89   2
        21     12.8166   1004.9063 299.8508614 +22.6657852     1588.104     72.56019     12.695    20.90    -12.67849     20.49232     53.74095        63     6.791     1.787  62.01  19
        22    696.0702    964.7781 300.0764497 +22.8593036     6800.736     72.63423      1.856     4.13     2.818381     20.49232     413.5764        42     1.461     1.351   3.27   0
        23    576.0881    958.9232 300.0409865 +22.8216423     466.0491     72.78208      1.559     5.06     2.624867     20.49232     44.25348         9     0.982     0.738   7.39   0
        24    177.0160   1018.7573 299.8973715 +22.7190543     1056.752     72.65273      2.858    10.14     92.10587     20.49232     43.50675        20     1.961     1.461 -42.50  19
        25    173.5245   1018.1384 299.8964877 +22.7178288     542.9574     72.68971      2.562     7.72     91.25188     20.49232     54.14118        14     2.599     0.641 -38.40  19
        26    604.5624    955.5421 300.0509529 +22.8292121     1569.016     72.63423      1.711     4.04     2.704152     20.49232     108.7479        24     1.291     1.125 -20.90   0
        27    210.2179    983.4931 299.9191658 +22.7189126     1195.925     72.56019      4.296    11.30     61.36227     20.49232     49.11011        18     3.563     0.998  71.21   2
        28    498.3959    951.7698 300.0191272 +22.7962867      1043.99     72.59721      1.829     4.30     2.627214     20.49232     87.52863        20     1.253     1.184 -23.26   0
        29    429.0375    949.9142 299.9981457 +22.7749479     6729.556     72.61572      1.836     3.90     3.067291     20.49232     545.4202        43     1.426     1.382  75.94   0
        30    561.9713   1002.2872 300.0224819 +22.8298489      917.978     72.63423      0.612     1.40     2.227836     20.49232       519.45         5     0.537     0.305  87.59   0
        31    461.4591    936.9188 300.0124624 +22.7809466     547.2555     72.70819      1.682     4.45     2.900358     20.49232     47.27528        12     1.038     0.846  34.60   0
        32    975.3334    928.7337 300.1752285 +22.9326670     2140.943     72.68971      2.015     4.75      2.94395     20.49232     128.1689        31     1.440     1.365 -47.70   0
        33      1.9299    991.9726 299.8516882 +22.6588102     1076.599     59.85442      4.203     4.35    -17.89702     20.49232     38.93015         5     0.793     0.678 -33.00  26
        34    625.5998    926.1488 300.0670665 +22.8270866     246.0688      72.5787      1.479     6.27     3.000812     20.49232     33.44533         7     1.478     0.747  17.45   0
        35    473.6690    925.2405 300.0200612 +22.7812591     434.4533     72.61572      2.004     4.55     2.896291     20.49232     37.17483         6     1.176     0.501 -42.24   0
        36      2.9246   1011.3604 299.8456892 +22.6646639     1912.915      64.7713     15.981    35.85    -22.96542     20.49232     57.50478       187     8.056     4.428  69.94  27
        37    764.3035    917.6677 300.1130358 +22.8662397     789.2314     72.74515      1.901     4.10     3.416965     20.49232     56.63424        12     1.198     0.951  26.25   0
        38    799.0357    911.8267 300.1257601 +22.8749746     1050.135     72.63423      1.830     4.93     3.364674     20.49232     66.27415        20     1.249     1.113 -60.00   0
        39    576.6415    912.3254 300.0563174 +22.8084382      319.127     72.61572      1.544     3.56     2.954903     20.49232     39.14442         7     0.860     0.825 -10.22   0
        40    161.3237    909.4409 299.9280567 +22.6830081     1080.911     72.59721      6.789     7.25     12.74397     20.49232     33.48807        11     1.493     0.987  46.66   1
        41      8.9434    908.9608 299.8808690 +22.6371282     480.1319     72.63422      1.531     5.74     2.639682     20.49232     57.87203         9     1.257     0.738 -12.21   0
        42    821.2529    905.5225 300.1347356 +22.8798243     11438.94     72.67122      1.793     4.05     3.374308     20.49232     733.3261        49     1.420     1.360   8.91   0
        43    126.4685    908.0320 299.9176828 +22.6721424     680.4794     72.61572      2.597     4.00     9.175839     20.49232     42.47931         5     0.924     0.496 -86.06   1
        44    866.9221    905.7599 300.1488950 +22.8935807     444.4267     72.61572      1.718     5.68     3.365333     20.49232     39.13341         9     1.070     0.850  19.55   0
        45    677.7022    997.6442 300.0600339 +22.8632271     8324.661     72.63423      1.848     4.30     2.385269     20.49232     509.4337        45     1.460     1.389  62.26   3
        46    187.4951    902.0729 299.9385876 +22.6887506     933.8945     72.76362      8.901     9.97     11.78248     20.49232     29.28535        11     2.087     1.327   0.54   2
        47    169.1675    902.1523 299.9328651 +22.6832728     771.1584     72.67122      5.333     5.26     11.84166     20.49232     32.84909         5     1.239     0.631  71.57   0
        48    132.6306    896.6094 299.9233127 +22.6707175     1074.069     72.63423      6.160     7.54     8.880526     20.49232      50.3987        18     1.599     1.202 -69.37   0
        49    221.7128   1015.8402 299.9122144 +22.7316355     1422.493     72.61572      3.172    10.95     89.54389     20.49232     45.24547        25     2.253     1.483  78.55  19
        50    527.2092    893.1982 300.0471487 +22.7881250      571.207     72.44898      1.909     4.90      2.97027     20.49232     52.70732        11     1.307     0.963  27.31   0
        51    873.2275    893.0441 300.1549970 +22.8918193     388.5273     72.65273      1.665     5.28     3.373181     20.49232     34.82185         9     1.210     0.649 -28.50   0
        52    217.0000   1011.4294 299.9121846 +22.7289565     958.8325      72.5787      4.468     9.15     85.27395     20.49232     57.41247        16     3.024     0.773 -87.03  19
        53    829.8511    887.6072 300.1432430 +22.8772578     1385.876     72.63422      1.669     3.99     3.413325     20.49232     96.94802        22     1.272     1.091  19.37   0
        54    542.3808    986.9112 300.0213859 +22.8195616     459.3861      72.5787      1.851     6.18     2.308758     20.49232     37.16975         9     1.224     0.877  28.95   0
        55   1012.6908    886.3609 300.2006654 +22.9316908     331.5749     72.63423      1.825     6.44     3.344446     20.49232     29.45826        10     1.263     0.922  57.38   0
        56    682.1675    884.6418 300.0981870 +22.8321357     574.0638     72.68971      2.025     7.77     3.347361     20.49232     51.78379        13     1.706     0.989  -4.38   0
        57    867.8008    881.0630 300.1572021 +22.8867527     813.0175     72.61572      1.893     5.00     3.419791     20.49232      57.1285        16     1.311     0.980  25.37   0
        58    207.6104    881.5408 299.9515179 +22.6889004     506.5288      72.5787      2.337     3.33     9.096086     20.49232     39.26765         5     1.081     0.297 -68.16   0
        59    975.3904    876.0725 300.1923763 +22.9175599     300.5309     72.63423      1.532     4.84     3.363522     20.49232     27.05306         5     1.458     0.456 -82.79   0
        60    916.2845    872.3934 300.1751392 +22.8987926     576.9176     72.56019      1.680     6.37     3.329081     20.49232     50.00062        15     1.168     0.975  49.71   0
        61    767.7153    871.3553 300.1291627 +22.8539674     803.7599     72.61572      1.808     4.23     3.467467     20.49232     53.82212        15     1.088     1.014  78.93   0
        62     28.0137    869.9887 299.8994663 +22.6316836     356.3386     72.54166      1.517     4.84     3.577051     20.49232     35.71934         7     1.083     0.613 -68.91   0
        63    778.9668    868.5380 300.1335854 +22.8565312     547.1258     72.63423      1.562     4.35     3.464791     20.49232      48.2693        12     1.148     0.924 -21.51   0
        64    480.2226    867.6214 300.0408414 +22.7666944     4244.502     72.63423      1.647     3.35     3.089578     20.49232     391.3244        35     1.310     1.223   0.90   0
        65    524.0533    856.1252 300.0582232 +22.7765410     358.5064     72.65273      1.610     5.37     3.117631     20.49232     35.02436         7     1.224     0.665  40.09   0
        66    259.2768    856.5255 299.9757159 +22.6972308     306.7594     72.72668      1.346     2.52     5.074898     20.49232     45.99649         5     0.692     0.478 -16.60   0
        67    205.5489    853.3287 299.9600514 +22.6801922     740.7786     72.63423      1.665     3.88     6.251714     20.49232     79.66345        14     1.284     0.869 -14.48   0
        68     27.0216    983.3474 299.8622876 +22.6638731     649.0109     72.63423      2.394     3.73    0.3700679     20.49232     56.06938         8     0.975     0.581  72.79   0
        69    182.5849    850.2603 299.9539108 +22.6724212      1442.25     72.59721      1.730     3.87     6.230141     20.49232     123.1967        26     1.346     1.150 -16.62   0
        70   1008.5406    838.0494 300.2150832 +22.9165702      2181.35     72.68971      1.881     4.34     3.589033     20.49232      125.153        30     1.440     1.254 -29.06   0
        71    713.7036    837.7700 300.1232551 +22.8281352     451.2867      72.5787      1.945     4.97     3.483686     20.49232     29.62289         6     0.911     0.768  87.50   0
        72    791.9436    831.8950 300.1495462 +22.8499000     657.1555     72.68971      1.617     5.02     3.479369     20.49232     52.40775        11     1.003     0.818 -44.12   0
        73    215.0787    831.6123 299.9700752 +22.6768244     396.3557     72.61572      1.672     4.36     5.106132     20.49232     48.68154         6     1.109     0.500  68.29   0
        74    660.2518    825.8099 300.1104926 +22.8086783     4804.167     72.63423      1.570     3.17     3.492593     20.49232     453.2156        34     1.232     1.204 -12.71   0
        75    150.0255    826.8892 299.9513900 +22.6559490     352.7349      72.5787      1.509     5.25      4.83931     20.49232     51.14688         9     0.969     0.929 -10.95   0
        76    462.2646    822.6906 300.0498629 +22.7484169     612.4899     72.76362      1.564     4.12     3.489302     20.49232      58.6352        16     1.234     0.997  56.65   0
        77    210.4895    819.5446 299.9725721 +22.6719867      1358.65     72.67122      1.723     3.63     4.495645     20.49232      115.093        20     1.193     1.070  37.95   0
        78    680.7359    818.1917 300.1193506 +22.8126321     666.9442     72.61572      1.466     3.60     3.520121     20.49232     68.03198        12     0.986     0.873 -56.86   0
        79    478.2239    817.4108 300.0565466 +22.7516882     201.5549     72.63423      1.590     4.43     3.427521     20.49232     34.44012         5     1.341     0.416  31.31   0
        80    230.2063    816.6874 299.9796307 +22.6770833      414.748     72.54166      1.656     4.35     4.279571     20.49232     42.45126         7     0.939     0.574 -53.79   0
        81    836.3580    805.4861 300.1719773 +22.8556271     4308.225     72.59721      1.664     3.46     3.497509     20.49232     369.8855        35     1.291     1.236  68.36   0
        82    244.8621    800.1680 299.9895580 +22.6767427     506.7162     72.65273      1.796     2.60     3.630186     20.49232     61.12151         8     0.860     0.647  83.98   0
        83    553.6390    798.1453 300.0862865 +22.7687738     583.4228     72.63423      1.456     4.02     3.356126     20.49232      65.9482        13     1.011     0.896 -31.86   0
        84    199.5453    795.8394 299.9768767 +22.6619047     1008.967     72.63423      1.666     3.74     3.499156     20.49232     113.4438        17     1.212     0.988 -41.59   0
        85    683.7972    791.3833 300.1290206 +22.8058536     151.9586     72.54166      1.404     4.55      3.61442     20.49232     25.64613         5     0.839     0.702  53.02   0
        86    614.9673    791.3892 300.1075799 +22.7852219     435.3493     72.63423      1.224     3.19     3.622577     20.49232     62.16064         7     0.762     0.657 -17.46   0
        87    349.3143    787.9694 300.0260078 +22.7045780     54030.08     72.63423      1.583     3.12     3.971343     20.49232     5930.337        91     1.426     1.364  25.20   0
        88    607.3284    786.9337 300.1066495 +22.7816528     1695.021     72.67122      1.517     3.24     3.633185     20.49232     155.4982        22     1.189     1.104  61.71   0
        89   1019.9327    786.6321 300.2353564 +22.9052115      903.278     72.09571      1.771     4.08     3.617556     20.49232     86.98492        14     1.086     0.964  49.44  16
        90    277.7225    786.1102 300.0043459 +22.6825690     544.2538     72.78208      1.573     5.20     3.848361     20.49232      59.2324        10     1.255     0.737 -31.19   0
        91    635.9374    782.9824 300.1168440 +22.7890952     991.4707     72.61572      1.585     3.51     3.662481     20.49232     91.81873        18     1.215     0.915  32.54   0
        92     36.0348    782.4929 299.9304046 +22.6090098     910.2599      72.5787      2.167     3.26     3.781753     20.49232     80.17002        12     1.124     0.725  63.16   2
        93      2.7824    782.7795 299.9199828 +22.5991115     690.6307     64.10397      1.663     3.97     3.775141     20.49232       73.052        13     1.193     0.860  64.53  24
        94    647.1727    781.5321 300.1208149 +22.7920469     575.0844     72.61572      1.385     3.26     3.667856     20.49232     79.33149        12     0.990     0.854 -76.51   0
        95    752.5989    777.8829 300.1548463 +22.8225992     531.9965     72.52314      1.630     5.36     3.660799     20.49232       44.934        12     1.213     0.859  52.68   0
        96    790.1153    768.3537 300.1696360 +22.8311061     665.2542     72.61572      1.429     3.82     3.778313     20.49232     63.30797        10     0.950     0.815  29.41   0
        97    399.0385    765.2154 300.0488739 +22.7129635     31594.27     72.65273      1.509     2.99     3.906168     20.49232     2978.345        66     1.314     1.300  18.17   0
        98    413.3472    765.8152 300.0531310 +22.7174269     2034.705     72.61572      1.470     2.74     3.881264     20.49232     269.4181        23     1.123     1.068  25.89   0
        99    289.0231    763.8502 300.0150962 +22.6795737     338.6094     72.63423      1.517     3.83      3.92459     20.49232     31.17749         5     1.261     0.333 -65.36   0
       100    922.1365    761.2972 300.2130888 +22.8686369     2945.978     72.72668      1.608     3.18     4.021638     20.49232     241.8289        29     1.278     1.137   5.06   0
       101    410.1690    759.6674 300.0541405 +22.7147097     562.7306     72.63423      1.608     5.06     3.896569     20.49232     49.29633        12     1.065     0.861 -32.26   0
       102    680.1063    757.3745 300.1389269 +22.7949833     978.6655     72.56019      1.575     2.95      3.79196     20.49232     101.7374        15     1.000     0.883  25.69   0
       103    281.6563    756.8892 300.0150680 +22.6753670     904.8767     72.67122      1.659     4.03     3.879121     20.49232     91.27168        16     1.211     0.944 -24.75   0
       104    516.7446    757.1494 300.0881279 +22.7459455     500.7219     72.67122      1.489     4.43     3.584886     20.49232     51.04931         9     0.867     0.798  14.79   0
       105     86.7590    752.9981 299.9557504 +22.6157760     330.3818     72.63423      1.233     3.40     3.973507     20.49232     52.47622         6     0.869     0.579 -34.79   0
       106    527.1961    751.8503 300.0931040 +22.7475583     903.4564     72.63423      1.505     3.62     3.568003     20.49232     86.99902        14     1.102     0.857  34.01   0
       107    928.3524    749.3344 300.2189162 +22.8670626     477.1385     72.65273      1.428     4.11     4.135476     20.49232     60.23605        10     0.931     0.837  45.18   0
       108    473.4170    747.1635 300.0778874 +22.7300881     337.2617     72.63423      1.048     3.12      3.78448     20.49232     59.91295         7     0.957     0.489 -85.47   0
       109    429.0385    748.2932 300.0637092 +22.7171046     318.2831     72.63423      1.315     4.06     3.880982     20.49232     38.84976         7     0.858     0.600 -23.61   0
       110    385.0698    747.3116 300.0503475 +22.7036371      357.966     72.80054      1.477     4.56     3.949132     20.49232     40.67199         6     0.914     0.645  33.88   0
       111    114.8755    746.7059 299.9665321 +22.6224088     661.3784     72.78208      2.027     4.76     3.868611     20.49232     65.14216         7     1.273     0.527 -14.58   0
       112    905.8131    743.7537 300.2137016 +22.8587071      397.971     72.65273      1.630     5.81     4.174542     20.49232     44.31438        10     1.265     0.752  48.04   0
       113    279.2825    741.1633 300.0194413 +22.6701437      690.399     72.59721      1.694     5.52     3.861425     20.49232     53.69836        14     1.491     0.790  57.30   0
       114    602.6340    732.1180 300.1230065 +22.7645100     462.3211     72.59721      1.392     4.16      3.86986     20.49232     55.96083        11     1.175     0.718  -6.54   0
       115    572.0745    730.0421 300.1141651 +22.7547531     703.8707     72.61572      1.377     3.60     3.733165     20.49232     64.99654         9     0.823     0.730  41.81   0
       116    481.0750    729.4359 300.0860329 +22.7272966     346.6457      72.5787      1.296     3.66     3.832045     20.49232     47.02325         6     0.794     0.486  -8.87   0
       117    988.6229    726.6345 300.2450934 +22.8785951     4509.059     72.65273      1.659     3.51     3.892938     20.49232     367.3852        34     1.275     1.252   4.53   0
       118    594.1761    727.4016 300.1219056 +22.7606206         1333      72.5787      1.453     3.03     3.845264     20.49232     135.9269        19     1.080     1.019 -47.80   0
       119    514.2517    726.9633 300.0971636 +22.7365341     345.9181     72.65273      1.407     3.47     3.730469     20.49232     58.06404         5     0.890     0.710 -19.08   0
       120    977.0867    717.9446 300.2443195 +22.8726429     1814.813     72.68971      1.691     4.08     4.114221     20.49232     141.5604        26     1.286     1.214 -29.71   0
       121    206.3266    712.7355 300.0059966 +22.6401039     251.5334     72.67122      1.247     3.76     3.797766     20.49232     37.90799         5     0.864     0.470 -43.61   0
       122    340.0862    711.7879 300.0478994 +22.6799533     847.0644      72.5787      1.347     2.89     3.972197     20.49232     102.9544        15     1.078     0.845 -12.25   0
       123    803.4460    709.2061 300.1930170 +22.8181136      2684.74     72.65273      1.576     3.32     4.091824     20.49232     217.4851        27     1.302     1.060  -3.95   0
       124   1008.2420    708.0676 300.2572486 +22.8791363     1611.606     72.61572      1.646     3.78     4.194564     20.49232     125.4552        22     1.255     1.117 -89.23   0
       125     25.6450    699.4243 299.9541750 +22.5820747     788.0264     72.65273      1.644     4.34     3.866028     20.49232     77.60523        16     1.116     1.027  53.04   0
       126    885.4465    694.9663 300.2232085 +22.8385905     539.3463     72.67122      1.817     4.25      4.44889     20.49232     52.08562        10     1.094     0.782 -63.84   0
       127    188.6205    695.2444 300.0061764 +22.6297750      627.143     72.68971      1.568     4.16     4.074829     20.49232     78.32629        16     1.324     0.820  58.90   0
       128    921.8706    686.1733 300.2374242 +22.8469754     149721.7     72.63423      1.543     3.02     4.498701     20.49232     13244.49       158     1.455     1.435 -53.04   0
       129    774.3328    686.4006 300.1913550 +22.8028403     797.6347     72.59721      1.467     3.38     4.040786     20.49232     93.63666        13     1.051     0.873  -7.56   0
       130    526.9933    687.0331 300.1141072 +22.7288924     192.0003     72.63422      1.346     4.71      3.92262     20.49232     30.74808         6     0.911     0.690 -50.26   0
       131    684.3475    689.9630 300.1621587 +22.7768983     315.2877     72.65273      1.205     2.49     4.001021     20.49232     58.20359         7     0.784     0.602  60.54   0
       132    954.2575    678.9656 300.2498672 +22.8546053     413.1706     72.65273      1.431     3.47     4.634257     20.49232     55.88808         8     0.931     0.828  48.69   0
       133    608.0198    675.0505 300.1432303 +22.7497403     1611.277     72.61572      1.350     2.70     4.041981     20.49232     205.4132        21     1.030     0.988  17.36   0
       134    789.3590    672.2928 300.2006227 +22.8032904     9492.053     72.65273      1.433     2.71     4.077878     20.49232     1006.504        40     1.192     1.161  45.10   0
       135    271.2373    673.7955 300.0388325 +22.6484034     267.4484     72.67122      1.490     2.80     4.003664     20.49232      40.6755         5     0.711     0.675  18.32   0
       136    290.7703    667.2549 300.0470321 +22.6523852     5156.247     72.63423      1.532     3.00     3.975497     20.49232     515.2988        36     1.259     1.173  33.12   0
       137    372.9901    665.5770 300.0731518 +22.6765603     1216.498     72.63423      1.357     2.85     4.004228     20.49232     144.6415        19     1.095     0.971 -20.99   0
       138      4.6207    665.5567 299.9586490 +22.5660544     1614.108     71.13877      1.776     3.79     3.586789     20.49232     168.2892        27     1.358     1.276 -39.01  16
       139    248.5602    663.0562 300.0352705 +22.6385207     571.6072     72.61572      1.561     3.09     4.176629     20.49232     62.54797         9     1.054     0.563 -26.81   0
       140    580.9838    661.0152 300.1393718 +22.7376070     741.9232     72.59721      1.426     3.73     4.159978     20.49232     85.04254        16     1.149     0.963  85.97   0
       141    572.7463    653.0116 300.1394074 +22.7328400     3310.709     72.63423      1.348     2.64     4.226074     20.49232     438.5548        25     1.086     1.019 -81.56   0
       142    562.8670    646.6733 300.1383907 +22.7280591     1378.254     72.68971      1.483     3.02     4.258039     20.49232     180.8833        23     1.457     1.015  46.48   0
       143    491.9300    646.2598 300.1164410 +22.7066764     291.7183     72.67122      1.428     4.90      4.02814     20.49232     32.44093         7     1.024     0.663  17.23   0
       144    956.6880    644.9606 300.2616755 +22.8455620     392.5631     72.61572      1.405     3.13     4.609537     20.49232     49.32116        11     0.994     0.717  14.86   0
       145    473.5843    643.9861 300.1114695 +22.7005240     277.6377      72.5787      1.291     3.57     3.990393     20.49232     39.87658         7     0.881     0.724   7.79   0
       146    226.5221    643.0591 300.0349155 +22.6261735     599.7717     72.67122      1.344     3.29     4.421279     20.49232     95.55007        13     1.118     0.753 -12.50   0
       147    240.6304    641.2488 300.0398901 +22.6298856     642.0645     72.65273      1.463     3.45     4.376118     20.49232     74.52746        11     1.069     0.698  -1.14   0
       148   1009.7347    638.0673 300.2804627 +22.8594672     458.3518     72.68971      1.450     4.72     4.677152     20.49232     46.58073        12     1.129     0.790 -36.49   0
       149    297.6426    638.3831 300.0585500 +22.6461617     347.7577     72.65273      1.730     3.82     4.195086     20.49232     32.54169         5     0.960     0.437 -14.44   0
       150    266.4303    638.0465 300.0489528 +22.6367046     484.0241     72.65273      1.433     3.01     4.291236     20.49232     68.99138        12     0.937     0.872 -35.00   0
       151    586.9454    637.0744 300.1490070 +22.7325199     514.7461     72.67122      1.371     3.61     4.430123     20.49232     64.33763         9     0.928     0.711  19.07   0
       152    487.6997    636.5516 300.1182785 +22.7026214     1803.286     72.67122      1.357     2.66     4.027715     20.49232     243.2247        18     1.005     0.961  30.80   0
       153    521.2814    635.9771 300.1289187 +22.7125231     187.9701     72.59721      1.213     4.53     4.181113     20.49232     39.45799         5     0.988     0.590 -18.41   0
       154    141.7370    631.3860 300.0123523 +22.5973929     19833.77     72.59721      1.606     3.19     4.560065     20.49232     1897.344        56     1.385     1.288  25.65   0
       155     62.6353    633.0436 299.9872338 +22.5741378     667.2001     72.68971      1.805     3.28     4.059016     20.49232     63.81565        13     1.013     0.895  52.34   0
       156    608.2636    631.6528 300.1574073 +22.7373524     238.1731     72.68971      1.173     3.92     4.566405     20.49232     47.18813         6     0.803     0.549 -46.50   0
       157    572.8613    631.7826 300.1463407 +22.7267792     1044.794     72.59721      1.323     2.41     4.430047     20.49232       147.99        13     0.874     0.858 -46.34   0
       158    490.1313    629.3818 300.1213647 +22.7012921     222.6756     72.63422      1.189     3.52     4.050707     20.49232     36.41364         5     0.783     0.456  15.30   0
       159    990.7621    618.4120 300.2809302 +22.8481369     1051.872     72.63423      1.463     3.12     4.500536     20.49232     102.4441        16     1.138     0.828  20.94   0
       160     87.7500    615.4909 300.0007391 +22.5766380      1486.75     72.63423      1.926     4.25     4.423154     20.49232     127.8748        27     1.592     1.079 -78.44   0
       161    857.7641    616.4214 300.2401001 +22.8077324     397.9533     72.65273      1.346     3.39     4.506478     20.49232     56.03474         8     0.895     0.726  80.93   0
       162    154.1065    615.8377 300.0212477 +22.5966431     298.8686     72.61572      1.278     3.86     4.648025     20.49232     46.55908         5     0.812     0.526  49.38   0
       163    536.0988    612.4622 300.1411713 +22.7102133     417.4179     72.72667      1.302     3.66     4.404586     20.49232     66.20974         9     1.032     0.781 -26.51   0
       164    929.8111    610.7673 300.2644027 +22.8276868     883.7133     72.61572      2.162     8.33     4.509155     20.49232     71.14764        19     2.132     0.908   8.02   0
       165    675.2995    609.1260 300.1856059 +22.7509720     316.2104     72.76362      1.564     3.84     4.852048     20.49232     41.48274         5     0.761     0.708 -39.52   0
       166    492.6486    604.9149 300.1300969 +22.6950226     737.6852     72.61572      1.275     3.14     4.133863     20.49232     110.2597        10     1.014     0.643 -22.34   0
       167    640.7534    603.3953 300.1767066 +22.7389743     440.6651     72.61572      1.152     3.08      4.87125     20.49232     68.22292         8     0.913     0.625   4.78   0
       168    687.8564    601.8159 300.1918926 +22.7526350     467.3519     72.61572      1.363     3.67     4.794955     20.49232     65.21943         9     0.969     0.852   7.59   0
       169    658.5812    601.6768 300.1828180 +22.7438229     624.3907     72.63423      1.268     2.85     4.873109     20.49232     71.80808         8     0.970     0.535 -15.29   0
       170    537.1765    600.6255 300.1453520 +22.7071377     954.4367     72.59721      1.640     3.34      4.47878     20.49232     102.9115        17     1.146     0.925  15.21   0
       171    970.8675    596.2054 300.2819389 +22.8357972     3364.334     72.61572      1.475     2.86     4.454245     20.49232     334.3422        29     1.165     1.145 -83.49   0
       172    502.5247    595.9088 300.1360967 +22.6953972     1843.299     72.80054      1.377     2.56     4.264419     20.49232     264.8687        20     1.129     0.965  55.35   0
       173    867.7290    593.3519 300.2507016 +22.8040887     215.0992     72.61572      1.349     4.18     4.481777     20.49232     35.08435         6     0.749     0.667  78.36   0
       174     64.5462    589.4850 300.0019769 +22.5622175     5143.255     72.70819      1.686     3.13     4.169959     20.49232     556.9114        35     1.336     1.225  52.60   0
       175    478.1623    590.7249 300.1301974 +22.6866064     358.9781      72.5787      1.501     4.33     4.137115     20.49232     29.37832         7     0.885     0.604  30.20   0
       176    531.9097    586.8109 300.1481998 +22.7015926     270.8186      72.5787      1.175     2.72     4.526676     20.49232     54.36021         6     0.877     0.442  32.02   0
       177   1010.4436    586.3231 300.2974951 +22.8448075     277.4974     72.61572      1.136     3.10     4.421157     20.49232     54.19737         7     0.841     0.633   8.40   0
       178    365.9872    582.7232 300.0978900 +22.6506812     9021.775     72.65273      1.377     2.60     4.291379     20.49232     1182.747        35     1.151     1.103  61.77   0
       179    488.4972    579.7992 300.1369632 +22.6865675     9008.577     72.50461      1.347     2.45     4.262288     20.49232       1267.9        36     1.110     1.093 -13.71   0
       180    734.8118    576.2098 300.2148406 +22.7593481     262.7964     72.52314      1.202     3.99     4.698824     20.49232     53.29072         7     0.979     0.666 -79.36   0
       181    900.2431    573.8713 300.2671680 +22.8082289     1890.312     72.59721      1.404     2.82     4.459341     20.49232     227.3803        20     1.068     0.979 -77.04   0
       182    984.8671    571.2660 300.2944074 +22.8328214     12689.57     72.68971      1.499     2.87     4.437619     20.49232     1335.244        48     1.308     1.222 -44.31   0
       183    549.0300    569.4171 300.1591799 +22.7017292     11681.26     72.61572      1.325     2.46     4.735083     20.49232     1470.741        43     1.176     1.095  62.30   0
       184    718.5858    565.6631 300.2132104 +22.7514573     627.7402     72.59721      1.334     3.27      4.80009     20.49232     87.07608        10     1.021     0.749 -57.68   0
       185    276.4156    564.7062 300.0758815 +22.6186535     1293.876     72.56019      1.420     2.85      4.06309     20.49232     173.9656        16     1.076     0.905  49.84   0
       186    434.6875    564.2441 300.1252682 +22.6659722      413.542     72.61572      1.499     2.81     4.212224     20.49232     56.69878         6     0.740     0.586  56.81   0
       187    523.4379    562.7642 300.1533730 +22.6921488     313.2078     72.70819      1.368     3.24     4.610249     20.49232     52.43047         6     0.861     0.577  19.98   0
       188    823.5811    557.7281 300.2485101 +22.7806296     784.8179     72.65273      1.280     2.74     4.470071     20.49232     110.3557        12     0.971     0.786 -67.40   0
       189    480.7464    557.6254 300.1417527 +22.6778779     4324.333     72.65273      1.303     2.25     4.360721     20.49232      667.914        27     1.093     1.006  73.12   0
       190    459.0682    555.9005 300.1355657 +22.6708849     1233.063     72.72667      1.288     2.35     4.313066     20.49232     192.3598        15     1.025     0.814  84.44   0
       191    213.4369    555.1909 300.0593893 +22.5970373     759.4012     72.63423      1.421     2.89     4.103343     20.49232     91.62085        15     0.989     0.950  35.02   0
       192    900.6582    553.1187 300.2740383 +22.8023894     1449.628     72.68971      1.497     3.28     4.430394     20.49232      161.776        21     1.262     0.922 -37.54   0
       193    421.2312    551.8014 300.1251220 +22.6583664     444.1765     72.59721      1.514     4.29     4.221841     20.49232      47.7128         9     0.972     0.785 -62.57   0
       194    147.1589    553.3140 300.0393963 +22.5766216      213.589     72.61572      1.345     3.42     4.208683     20.49232     33.83931         5     0.772     0.439  13.77   0
       195    597.3615    545.1471 300.1821124 +22.7092431     200916.3     72.63423      1.308     2.39     4.923084     20.49232     24055.95       188     1.377     1.355   1.56   0
       196    781.0999    550.2894 300.2376849 +22.7657678     947.2899     72.80054      1.478     2.61     4.605853     20.49232     107.7369        12     0.917     0.780  70.36   0
       197    874.3928    548.6014 300.2673156 +22.7932253     279.7757     72.44898      1.064     2.35     4.411648     20.49232     63.50557         5     0.719     0.442  21.73   0
       198    984.9744    547.4764 300.3021682 +22.8260156     225.8015     72.65273      1.425     3.77     4.434126     20.49232     29.72576         6     0.820     0.498   3.11   0
       199    283.3892    544.9905 300.0844533 +22.6150862     3617.749     72.52314      1.423     2.54     3.864802     20.49232     500.0043        27     1.138     1.028  49.07   0
       200    849.4962    541.1848 300.2619622 +22.7836377     552.9228     72.54166      1.598     3.02     4.393035     20.49232     63.30843         8     0.791     0.704  19.62   0
       201    629.1650    531.9895 300.1962905 +22.7149936     274.9702     72.63423      1.245     3.78     4.932047     20.49232     41.15858         5     0.826     0.496 -39.16   0
       202    487.9631    525.4033 300.1544637 +22.6707889      2868.06     72.67122      1.392     2.37     4.420736     20.49232     342.4373        22     1.055     0.967 -68.79   2
       203    332.4054    527.8203 300.1052746 +22.6248540      423.296     72.61572      1.394     2.84      4.12013     20.49232     62.13416         8     0.916     0.810  30.20   0
       204    899.7332    521.9580 300.2838703 +22.7931570     423.9603     72.61572      1.333     1.96     4.273314     20.49232     58.43185         6     0.680     0.543  43.43   0
       205    804.8436    513.8427 300.2569223 +22.7624074     343.9119     72.72667      1.169     3.79     4.320005     20.49232     57.47045         7     0.938     0.543  62.01   0
       206    884.9085    511.7853 300.2825513 +22.7857940      1752.06     72.56019      1.357     2.51     4.167903     20.49232     243.6566        20     1.097     0.921 -19.58   0
       207     14.9363    510.0476 300.0123623 +22.5245490     709.8024     72.65273      1.531     4.83       3.7888     20.49232      80.0773        14     1.191     0.971  17.41   0
       208    756.2203    509.3671 300.2432213 +22.7465578     2424.835     72.63423      1.255     2.38     4.706394     20.49232     304.1229        22     1.029     0.958  49.66   0
       209    394.7449    509.7749 300.1305284 +22.6383615     319.7673     72.65273      1.572     3.79     4.228753     20.49232     31.37476         5     1.001     0.413  -3.97   0
       210   1000.6965    507.0167 300.3202131 +22.8190923     444.1909     72.54166      1.682     4.91     4.312823     20.49232     45.25636        10     1.160     0.612 -43.98   2
       211    999.3691    502.4608 300.3212785 +22.8173852     852.3643     72.67122      1.616     3.58     4.295557     20.49232     82.49912        14     1.110     0.877   9.74   3
       212    660.4468    505.9763 300.2144820 +22.7168937     457.3664     72.65273      1.339     3.42     4.928811     20.49232     55.68392         9     0.914     0.673  18.33   0
       213    543.3244    505.1587 300.1782723 +22.6815661     838.5616     72.61572      1.361     2.40     4.620217     20.49232     112.6659        13     0.892     0.857 -21.90   0
       214   1013.5410    503.4649 300.3253737 +22.8219165      1285.41     72.67122      1.570     2.82     4.308611     20.49232     133.3933        17     1.045     0.995 -49.22   0
       215    885.3336    501.6903 300.2859621 +22.7830199     2253.172     72.74515      1.634     3.83     4.094259     20.49232     223.4297        28     1.579     0.979  75.03   0
       216    638.4737    500.0797 300.2095523 +22.7086168     716.5961     72.74515      1.290     2.20     4.911627     20.49232     96.21388         9     0.861     0.602 -14.82   0
       217    923.3893    496.8831 300.2993904 +22.7930335     4288.202     72.59721      1.381     2.62     4.203886     20.49232     528.6558        29     1.102     1.080  44.04   0
       218    477.0403    498.3556 300.1598469 +22.6597486     346.8102     72.70819      1.176     2.65       4.2861     20.49232     61.25744         7     0.740     0.612  28.42   0
       219    424.5826    499.6486 300.1431010 +22.6443977     263.3866     72.67122      1.252     3.12      4.23347     20.49232     48.88391         6     0.861     0.475   3.97   0
       220    584.1873    492.7572 300.1950230 +22.6902486     354.5519     72.63423      1.199     2.62     4.759218     20.49232     67.72498         8     0.928     0.570  15.56   0
       221   1015.1705    487.3829 300.3311044 +22.8177809     617.0695     72.61572      1.407     3.06     4.261813     20.49232     89.02575        13     1.043     0.805  72.06   0
       222    155.3811    487.0657 300.0634638 +22.5600785     1001.152     72.59721      1.469     3.23     3.998225     20.49232     133.2499        16     1.114     0.894  29.83   0
       223    816.5529    481.1215 300.2711976 +22.7565113     221.0325     72.63423      1.014     2.19     4.078627     20.49232     49.92648         5     0.700     0.445 -65.76   0
       224    422.1432    480.4348 300.1485805 +22.6381498     295.6531     72.65273      1.176     3.57     4.221623     20.49232     43.91668         5     0.857     0.554 -47.54   0
       225   1011.2500    476.7411 300.3333368 +22.8135477     276.9099     72.68971      1.303     4.29      4.24002     20.49232     42.02688         6     0.981     0.534  25.29   0
       226    147.9758    477.1744 300.0643735 +22.5550194     486.5766     72.59721      1.548     3.73     3.993292     20.49232     55.07262         8     0.996     0.702  -8.69   0
       227    755.7729    471.3187 300.2554366 +22.7354911     298.2039     72.63423      1.193     2.98     4.606967     20.49232     55.26895         6     0.772     0.501 -43.02   0
       228    644.8845    468.8478 300.2216901 +22.7015655     407.2782     72.61572      1.490     4.72     4.894556     20.49232     58.15886         8     1.126     0.561  14.25   0
       229    696.8810    467.2099 300.2384200 +22.7166709     749.5243      72.5787      1.271     2.93     4.855526     20.49232     115.3585        13     1.066     0.794  52.96   0
       230   1011.6339    459.6849 300.3389946 +22.8087588     526.1014     72.59721      1.405     4.22     4.241019     20.49232     68.15146        13     1.214     0.806 -47.67   0
       231    757.5867    459.4128 300.2598675 +22.7326132     871.2274     72.56019      1.292     2.56     4.523455     20.49232     98.79523        13     0.924     0.819 -27.15   0
       232    914.8940    455.6790 300.3101201 +22.7786459     1019.208     72.76362      1.358     2.82     4.084785     20.49232     131.3552        14     1.004     0.867 -86.97   0
       233    879.5925    452.7346 300.3000679 +22.7672299     304.6754     72.61572      1.170     2.93     3.899995     20.49232     43.31314         5     0.721     0.452  69.99   0
       234    899.1370    452.3093 300.3063004 +22.7729596     676.6569     72.72668      1.398     3.27     3.999741     20.49232     81.38387         8     0.937     0.631  12.99   0
       235    643.4123    450.1023 300.2273175 +22.6957391     3147.848     72.52314      1.263     2.24     4.880749     20.49232     445.0954        22     1.058     0.892  69.62   0
       236   1004.0574    448.9002 300.3401324 +22.8033901      507.565     72.72667      1.596     4.47     4.233024     20.49232     45.27326        11     0.916     0.889 -64.94   0
       237    119.7908    441.3537 300.0672424 +22.5362882     375.0761     72.65273      1.363     2.31     4.012943     20.49232     46.07023         5     0.683     0.468 -11.42   0
       238    483.0103    436.9861 300.1816298 +22.6439138     521.5499     72.54166      1.532     2.88     4.226787     20.49232     55.87896         6     0.722     0.580  51.20   0
       239    415.1499    436.8687 300.1605481 +22.6235441     232.5529     72.63422      1.442     4.94     4.220861     20.49232     40.32729         9     1.172     0.855  57.85   0
       240   1013.0266    427.9098 300.3497453 +22.8000395     975.4023     72.59721      1.527     3.64     4.242019     20.49232     104.7303        18     1.223     0.940  40.69   0
       241    926.6651    428.8098 300.3225143 +22.7744460     536.2615     72.59721      1.393     5.26     4.147017     20.49232     70.20316        10     1.192     0.683  74.36   0
       242    663.1941    426.2008 300.2412388 +22.6947978     322.1765     72.44898      1.346     2.16     4.867017     20.49232     52.00191         6     0.741     0.510  44.32   0
       243    754.0372    424.0625 300.2702376 +22.7213917     1056.048     72.65273      1.247     2.30     4.354814     20.49232     165.0242        14     0.922     0.829 -34.62   0
       244    549.8911    424.5274 300.2064952 +22.6603748     444.9181     72.80054      1.184     1.86     4.289684     20.49232     78.96928         6     0.710     0.498   4.13   0
       245    257.9958    422.2129 300.1164193 +22.5722317     648.2957     72.48607      1.301     2.87     4.207562     20.49232     97.98704        10     0.954     0.684  67.41   0
       246     97.1820    420.3597 300.0670310 +22.5234839     283.5822     72.65273      1.373     4.83     4.022319     20.49232     37.26147         8     1.041     0.634  62.16   0
       247    320.3280    417.8269 300.1372287 +22.5896570     3745.099     72.61572      1.352     2.36     4.222823     20.49232     543.4517        29     1.119     1.051  33.42   0
       248    267.5551    412.6314 300.1225020 +22.5723467     7728.102     72.68971      1.378     2.38     4.242282     20.49232      1108.15        36     1.160     1.105  54.14   0
       249    646.1019    412.5710 300.2403390 +22.6857620     206.2461     72.56019      1.059     3.55     4.830925     20.49232     41.98794         7     0.904     0.613 -53.43   0
       250    408.3705    406.9226 300.1681590 +22.6129130     4880.609     72.61572      1.317     2.36     4.224129     20.49232      678.251        30     1.113     1.009  49.95   0
       251    652.5985    403.6426 300.2452607 +22.6851426     18731.39     72.63423      1.260     2.18     4.769481     20.49232      2908.54        49     1.167     1.072  88.32   0
       252    670.1532    403.7688 300.2506883 +22.6904369     861.6394     72.67122      1.863     6.80     4.773234     20.49232     65.90772        16     1.785     0.727 -42.84   0
       253    499.9546    405.1847 300.1972271 +22.6398571     380.1425     72.65273      1.812     3.21     4.212355     20.49232     40.39778         6     0.805     0.635   0.91   0
       254    896.2888    399.8821 300.3224317 +22.7570358     362.4725     72.74515      1.246     3.34     3.971697     20.49232     46.97528         7     0.856     0.585  52.65   0
       255    849.7248    394.4439 300.3096782 +22.7415317     460.2173     72.61572      1.342     3.45     3.880984     20.49232     62.00819         9     0.991     0.702  14.33   0
       256    272.5937    390.6249 300.1312114 +22.5675393     493.9506     72.61572      1.649     2.85     4.333251     20.49232     64.22124         7     0.824     0.790 -74.48   0
       257    986.4781    386.2466 300.3549871 +22.7801132     860.7212     72.63423      1.614     3.36     4.412482     20.49232     94.99386        17     1.122     1.007 -28.46   0
       258    695.8968    384.8105 300.2648620 +22.6926996     382.3018     72.54166      1.214     2.75     4.549424     20.49232     46.48019         6     0.749     0.546  38.65   0
       259    523.2048    385.4623 300.2108664 +22.6411580      330.379     72.61572      1.177     3.09     4.188067     20.49232     41.22403         5     0.732     0.449  22.02   0
       260    207.2677    383.6640 300.1131579 +22.5459584     2023.236     72.68971      1.395     2.40     4.408135     20.49232     291.3383        22     1.112     0.998  77.47   0
       261    593.2335    373.0800 300.2366903 +22.6585793     6641.941      72.5787      1.264     2.32     4.431993     20.49232     953.2847        33     1.145     0.995  61.36   0
       262   1006.7870    373.7342 300.3653841 +22.7825937     1091.214      72.5787      1.253     2.42     4.610348     20.49232     146.4146        16     0.953     0.918 -28.69   0
       263    308.1861    372.2672 300.1482388 +22.5729367      648.046     72.63423      1.274     2.71     4.361151     20.49232     83.02617        11     0.860     0.801 -40.10   0
       264    165.8081    365.4572 300.1061778 +22.5283029     466.5981     72.61572      1.267     2.73     4.522188     20.49232     89.89111        10     0.979     0.655  54.82   0
       265    852.9556    365.1422 300.3201958 +22.7340757     390.7495     72.67122      1.291     2.73      3.86402     20.49232     49.73849         8     0.816     0.634  36.17   0
       266     12.8410    363.1147 300.0594051 +22.4817650     1346.928     72.59721      1.635     3.51     4.155853     20.49232     141.1375        22     1.253     1.112  14.21   0
       267    706.9490    363.3857 300.2752589 +22.6898525     375.6215     72.65273      1.300     2.92     4.434052     20.49232     56.34215         7     0.820     0.581  22.69   0
       268    797.4605    362.0850 300.3038880 +22.7165817     1101.703     72.74515      1.306     2.59     4.171362     20.49232     129.0885        13     0.907     0.840  31.65   0
       269    499.8866    359.3124 300.2120938 +22.6266602     6033.919     72.76362      1.264     2.32     4.197534     20.49232     834.1523        30     1.082     1.000  68.66   0
       270    989.1904    353.9488 300.3663158 +22.7716375     420.5875     72.65273      1.189     2.37     4.640321     20.49232     103.0778        11     0.901     0.725 -50.46   0
       271    484.5971    348.0382 300.2109930 +22.6188409     412.0511     72.67122      1.153     2.35       4.2277     20.49232     84.18585         8     0.807     0.634 -47.09   0
       272    567.0453    346.3716 300.2372027 +22.6430612     455.6634     72.67122      1.214     2.42     4.233886     20.49232     76.24332         8     0.820     0.632 -48.25   0
       273     11.5711    344.9206 300.0649144 +22.4761633     1125.759     72.65273      1.524     2.42     4.113824     20.49232     154.1911        18     1.125     0.976  81.19   0
       274    547.4800    343.6985 300.2319779 +22.6364324     331.5757     72.76362      1.131     2.28     4.175862     20.49232     70.05402         6     0.778     0.510  39.93   0
       275    891.8439    353.9054 300.3359680 +22.7424871     1434.622     72.65273      1.286     2.11     3.949606     20.49232     236.0238        17     1.060     0.820  77.26   0
       276    864.6964    341.5555 300.3315110 +22.7308097     755.0549     72.65273      1.509     2.44     3.858682     20.49232      90.5653        11     0.876     0.769 -51.83   0
       277    387.3450    338.5094 300.1838191 +22.5869651     2556.431     72.68971      1.315     2.29     4.319712     20.49232     347.8464        24     1.099     0.994  55.50   0
       278    105.7536    335.8648 300.0971150 +22.5018043     1011.171     72.67122      1.432     3.00     4.516832     20.49232     138.0195        13     1.032     0.888  40.44   0
       279    735.0677    333.3225 300.2937766 +22.6896324     332.3428     72.72668      1.356     4.25     4.372949     20.49232     34.00769         7     0.744     0.691  -8.35   0
       280    505.3504    332.1463 300.2226101 +22.6204931     2142.624     72.67122      0.660     1.05     4.249413     20.49232     1075.779         8     0.520     0.411  -5.41   0
       281    356.7291    327.9211 300.1777293 +22.5747500     30145.92     72.74515      1.353     2.36      4.38625     20.49232     4516.202        68     1.268     1.158  63.98   0
       282    334.8254    332.0650 300.1695707 +22.5693763     285.8119     72.61572      1.044     3.13      4.44059     20.49232     41.29189         6     0.750     0.552 -58.40   0
       283    891.4594    325.6235 300.3450259 +22.7342404     1328.717     72.63423      1.325     2.40      4.07658     20.49232     200.0953        16     1.028     0.852 -56.61   0
       284    846.8347    323.4222 300.3318263 +22.7202493     431.7532     72.65273      1.514     2.17     4.044407     20.49232     54.05876         5     0.671     0.483 -12.96   0
       285     53.0398    315.7205 300.0872712 +22.4802179      4977.89     72.61572      1.524     2.87     4.401405     20.49232     629.9965        36     1.289     1.172  46.33   0
       286    806.8205    314.2034 300.3223435 +22.7056199     503.8659     72.59721      1.292     2.45     4.245063     20.49232     85.85366         9     0.779     0.726  66.95   0
       287    230.8462    314.0771 300.1430690 +22.5330485     445.8892     72.63422      1.639     4.03     4.700215     20.49232     52.58959         8     0.965     0.674  68.95   0
       288    455.2423    313.0767 300.2132003 +22.6000034     487.0406     72.61572      1.255     2.55     4.334123     20.49232     69.65679         8     0.795     0.633  53.19   0
       289    767.2225    307.7362 300.3120996 +22.6919055     2069.175     72.61572      1.311     2.46     4.330845     20.49232     304.9311        19     1.048     0.906  82.52   0
       290    575.2579    302.4264 300.2540192 +22.6328945     291.4041     72.63423      1.212     2.92     4.346461     20.49232     56.51149         6     0.940     0.625  60.62   0
       291    982.2694    300.7176 300.3814302 +22.7542577     680.4359     72.74515      1.331     2.94     4.624033     20.49232      82.3267        12     1.020     0.771  -5.25   0
       292    428.9725    292.3593 300.2117461 +22.5861819     2133.101     72.67122      1.441     3.19     4.421437     20.49232     266.5378        21     1.273     0.885  54.25   0
       293    641.3632    291.2951 300.2782190 +22.6494935     356.5891     72.63423      1.083     2.18     4.404698     20.49232     62.49786         5     0.675     0.467  76.50   0
       294    860.5394    286.5043 300.3480776 +22.7137372     316.7257     72.72668      1.711     3.81     4.176581     20.49232     32.55484         6     1.053     0.396  18.23   0
       295    868.1921    285.1911 300.3508898 +22.7156502     626.6713     72.48607      1.444     3.10     4.181977     20.49232      77.7069        10     0.884     0.761   8.71   0
       296    750.2989    283.1147 300.3148137 +22.6797609     361.7907     72.80054      1.161     2.05     4.371501     20.49232     71.38085         6     0.694     0.554  39.97   0
       297      1.7152    282.7837 300.0820118 +22.4553761     518.7134     58.62954      1.250     2.64     4.597022     20.49232     89.04082         8     0.840     0.659  65.34  24
       298    767.8057    282.6362 300.3204249 +22.6848647      271.983     72.67122      0.985     1.97     4.363454     20.49232     52.54589         5     0.710     0.422  23.90   0
       299    718.6418    282.0945 300.3052797 +22.6699893      204.069     72.65273      1.123     2.23     4.395371     20.49232     50.42902         5     0.701     0.448 -71.46   0
       300    504.8719    271.6827 300.2420781 +22.6029786     1251.303     72.76362      1.213     2.48     4.474717     20.49232     198.0269        16     0.956     0.924 -36.00   0
       301     77.2252    271.8090 300.1090310 +22.4748650     393.2149     72.63423      1.782     4.66       4.6509     20.49232      38.2504         7     1.223     0.565  33.26   0
       302    590.3989    269.8407 300.2693059 +22.6280654     368.4955     72.65273      1.274     3.03     4.419712     20.49232     38.65541         5     0.748     0.428 -67.18   0
       303    887.8724    265.3007 300.3634793 +22.7158213     247.6071     72.80054      1.119     2.23     4.290814     20.49232      55.5419         6     0.721     0.562  80.79   0
       304    749.7051    263.6407 300.3209463 +22.6739849      2224.33     72.65273      1.248     2.10     4.393933     20.49232     359.6714        23     1.086     0.975 -46.26   0
       305   1011.0182    258.0731 300.4042344 +22.7505950      3002.89     72.63422      1.403     2.94     4.776402     20.49232     358.9539        25     1.106     1.074 -56.76   0
       306    382.4542    249.6657 300.2111204 +22.5599812     220.8931     72.68971      1.201     3.46     4.677608     20.49232     37.72022         5     0.772     0.447 -69.68   0
       307    457.8960    247.4637 300.2353118 +22.5819489     574.7462     72.72667      1.155     2.48     4.641134     20.49232     91.79958         9     0.833     0.683  12.27   0
       308    163.5124    241.5592 300.1456598 +22.4920457     581.3643     72.61572      1.499     3.46     4.724568     20.49232     76.41263        12     1.065     0.816  33.53   0
       309    132.9391    241.5566 300.1361576 +22.4828813     1433.973     72.63423      1.711     3.23     4.703636     20.49232      161.827        20     1.294     0.939 -27.30   0
       310    870.2057    235.5408 300.3676243 +22.7019757     346.9122     72.59721      1.109     2.52     4.316209     20.49232     54.10937         6     0.743     0.498   1.15   0
       311    216.9412    233.5453 300.1648691 +22.5057572     401.2581     72.68971      1.419     3.22     4.934412     20.49232     55.80481        10     0.941     0.717  82.26   0
       312   1012.1479    231.3906 300.4132424 +22.7432577     365.5512     72.63423      1.667     3.40     4.797589     20.49232     32.33445         5     0.752     0.445  19.32   0
       313    892.7349    227.7544 300.3771750 +22.7064791     413.2041     72.63423      1.380     3.22     4.364323     20.49232     47.57484         8     0.878     0.659  70.50   0
       314    821.3840    224.9598 300.3558351 +22.6843206     551.8245     72.65273      1.167     2.43     4.407565     20.49232     96.97792        10     0.865     0.685  59.66   0
       315    411.7086    224.7238 300.2283132 +22.5615801     409.8734     72.78208      1.305     2.89     4.795376     20.49232     54.94466         7     0.796     0.679 -29.03   0
       316    919.5995    214.1027 300.3899807 +22.7105922     2031.791     72.50461      1.371     2.56     4.483102     20.49232     234.9841        24     1.140     1.001  45.82   0
       317    337.9997    211.3323 300.2097228 +22.5356514     2248.053      72.5787      1.392     2.40     4.923812     20.49232     276.1116        21     1.062     0.992   2.17   0
       318    415.9240    206.4245 300.2355598 +22.5575855     1079.845     72.65273      1.507     2.62     4.811527     20.49232     120.2488        16     1.069     0.865 -44.92   0
       319    167.8799    206.7635 300.1583022 +22.4833635     308.1068      72.5787      1.297     2.59     4.846768     20.49232     59.30486         6     0.863     0.578 -64.64   0
       320    818.0621    205.9438 300.3609672 +22.6778582     534.7884      72.6897      1.335     3.90     4.548253     20.49232     64.68304         9     0.954     0.873 -20.34   0
       321    463.2373    203.3282 300.2512890 +22.5708677     353.6908     72.59721      1.603     6.64     4.780366     20.49232     40.83816         8     1.625     0.761  65.98   0
       322    925.1498    203.2811 300.3952216 +22.7091406     411.3273     72.65273      1.074     2.06     4.572565     20.49232     62.91887         5     0.709     0.428  14.19   0
       323    232.6280    198.4622 300.1811245 +22.5003829     676.4135     72.63423      1.439     3.43     5.021659     20.49232     98.01527        14     1.144     0.828  60.18   0
       324    351.1331    197.4019 300.2183262 +22.5355844     295.7405     72.63423      1.526     4.13     4.928658     20.49232     35.15434         5     0.920     0.528 -48.86   0
       325    770.5947    195.4505 300.3495745 +22.6606331     1719.523     72.61572      1.264     2.23     4.641451     20.49232     244.0656        18     1.045     0.868  76.65   0
       326    835.6269    195.0597 300.3699728 +22.6799853     622.1344     72.63423      1.219     2.65     4.612201     20.49232     80.76963         9     0.850     0.683 -18.41   0
       327    253.9735    191.7798 300.1899290 +22.5048597      431.157     72.63423      1.297     3.19      5.04334     20.49232     64.49936         9     1.053     0.642  65.73   0
       328    774.7875    187.0767 300.3535970 +22.6594803     752.8503     72.65273      1.327     2.86     4.695289     20.49232     107.3712        11     0.983     0.697  63.42   0
       329    695.2251    186.3680 300.3290332 +22.6354601     1367.884     72.63423      1.262     2.24      4.66075     20.49232     174.9778        21     1.114     0.924  56.81   0
       330    544.2361    187.8152 300.2815356 +22.5906680     362.9504     72.63423      1.466     2.92     4.761969     20.49232     42.69875         6     0.750     0.545 -50.59   0
       331    516.3211    182.8463 300.2744557 +22.5808804     437.1617     72.63423      1.305     2.69     4.769691     20.49232     63.69541         8     0.832     0.666  76.10   0
       332    621.3446    177.9622 300.3087438 +22.6109248     1074.943     72.63423      1.409     2.70     4.673355     20.49232     125.5098        15     0.998     0.861  75.72   0
       333    890.6342    177.6225 300.3927789 +22.6914322     1446.421     72.65273      1.328     2.46      4.74485     20.49232       200.29        18     1.081     0.882  57.09   0
       334    902.6041    176.9699 300.3967233 +22.6948263     748.2254     72.59721      1.231     2.66     4.759902     20.49232     107.4405        13     0.947     0.836 -71.76   0
       335    948.8068    176.0364 300.4114358 +22.7083825     314.3175     72.63423      1.383     2.57     4.834562     20.49232     42.85809         5     0.765     0.482  26.51   0
       336   1019.4799    167.0930 300.4363833 +22.7269537     1259.285     72.76362      1.602     3.92     5.049192     20.49232     129.6617        22     1.332     1.035  61.40  16
       337     43.3687    163.8609 300.1335193 +22.4337271     393.2338     72.67122      1.275     2.50     5.494146     20.49232     68.34517         7     0.718     0.677  54.12   0
       338    253.5724    160.2021 300.2000435 +22.4956697     736.4709      72.5787      1.385     2.72     5.083121     20.49232     92.78855        11     0.950     0.719 -12.13   0
       339    115.2769    154.7532 300.1588168 +22.4526641     2212.703     72.63423      1.563     2.82     5.046057     20.49232     266.5193        27     1.245     1.112  47.36   0
       340    938.3066    152.1600 300.4159032 +22.6983725     698.4662     72.65273      1.298     3.17     4.922503     20.49232     87.89702        11     1.041     0.750  34.96   0
       341     64.7234    151.8801 300.1440387 +22.4366879     507.2363     72.74515      1.392     4.00     5.315348     20.49232      66.3109        10     0.996     0.758 -12.19   0
       342    272.6909    148.1662 300.2098915 +22.4979405     5722.714     72.61572      1.407     2.46     5.109241     20.49232     712.1995        36     1.316     1.063  55.64   0
       343    254.6992    149.5668 300.2038422 +22.4929525      422.143     72.61572      1.384     2.76     5.083139     20.49232     44.54014         5     0.693     0.479  14.49   0
       344     56.8816    142.5128 300.1446391 +22.4316481     1321.259     72.76362      1.533     3.31     5.385832     20.49232     151.2877        20     1.212     1.002  32.22   0
       345    256.2172    139.0854 300.2077125 +22.4903965     683.7504     72.59721      1.341     2.91     5.082901     20.49232     73.72668        10     0.897     0.731  31.43   0
       346    916.8342    129.8190 300.4164501 +22.6855212     3657.359     72.65273      1.404     2.70     4.920355     20.49232     505.4056        28     1.230     1.023  82.81   0
       347   1020.5110    128.6698 300.4491639 +22.7162069     2899.999     70.83588      1.543     2.95     5.061736     20.49232     306.3645        28     1.253     1.106  59.46  24
       348    219.1557    125.7152 300.2005226 +22.4754522     275.4845     72.61572      1.065     2.20     5.042783     20.49232     46.97227         6     0.720     0.535 -51.45   0
       349    466.2464    125.0327 300.2776130 +22.5492697     626.4987     72.67122      1.198     2.15     4.803469     20.49232     104.5975        10     0.800     0.728   1.48   0
       350    580.6417    122.8974 300.3139213 +22.5829095     397.7241     72.63423      1.380     2.92     4.789369     20.49232      49.6892         6     0.738     0.613 -11.20   0
       351    390.5739    116.8269 300.2567230 +22.5242487     697.2014     72.59721      1.880     3.16     4.902508     20.49232     71.27106        11     1.009     0.765 -24.49   2
       352    156.7046    114.0491 300.1848893 +22.4533894     650.2148     72.68971      1.323     2.85     5.095431     20.49232      84.5453        10     0.886     0.736   4.46   0
       353    517.5638    112.2947 300.2977176 +22.5609756     1655.252     72.63423      1.272     2.51     4.795361     20.49232     221.8927        17     1.061     0.847  65.16   0
       354    445.8504    112.8854 300.2752028 +22.5396708     518.6683     72.61572      1.354     2.00     4.819387     20.49232     79.65826         8     0.767     0.595 -52.39   0
       355     54.3810    113.0326 300.1534190 +22.4224340     265.2051     72.63423      1.204     4.51     5.422086     20.49232     39.99381         6     0.905     0.639 -47.73   0
       356    341.7095    108.1228 300.2443415 +22.5071120     263.5188     72.78208      1.271     3.23     5.005719     20.49232     45.11685         7     0.990     0.525 -19.09   0
       357    261.4449    107.8824 300.2194538 +22.4829994     297.2942     72.59721      1.016     2.57     5.084396     20.49232     57.48144         6     0.926     0.432 -27.36   0
       358    805.9450    101.8014 300.3909585 +22.6442817      383.641     72.56019      1.312     2.34     4.924727     20.49232     58.12459         6     0.701     0.563  38.83   0
       359    653.8964     98.4860 300.3446517 +22.5978214     209.9908       72.819      1.287     4.37     4.880054     20.49232     37.79334         6     0.988     0.550  67.78   0
       360    162.4458     98.4125 300.1917426 +22.4506188      214.297     72.63423      1.358     5.59     5.113514     20.49232     35.62754         7     1.048     0.841 -16.10   0
       361    291.6785     92.0436 300.2339909 +22.4875060     6037.623     72.61572      1.435     2.60     5.088933     20.49232     724.1291        39     1.269     1.135  70.52   0
       362    797.9972     92.8270 300.3913903 +22.6393222     305.6329      72.5787      1.276     3.62     4.928297     20.49232     46.43447         6     0.899     0.469  32.86   0
       363    702.7371     93.2474 300.3615663 +22.6109341     334.4567     72.65273      1.629     2.77     4.899418     20.49232     36.35958         5     0.807     0.635 -52.18   0
       364    142.8735     91.7962 300.1878034 +22.4428540      850.487     72.56019      1.733     3.66     5.115486     20.49232     93.48092        15     1.215     0.837  16.10   0
       365    921.0593     89.6999 300.4307744 +22.6752437     411.1273     72.72668      1.821     4.86     4.949443     20.49232     58.51336         9     1.321     0.675 -55.87   0
       366    264.0919     85.7399 300.2274545 +22.4774313     428.4164     72.70819      1.561     4.86     5.056049     20.49232     57.39166        10     1.220     0.813  19.78   0
       367    767.7667     82.5607 300.3852956 +22.6273230     185.0507     72.67122      1.450     5.22     4.896476     20.49232     32.09084         5     1.122     0.685 -77.19   0
       368     53.6332     82.5334 300.1630727 +22.4134522       239.64     72.63423      1.038     3.40      5.49722     20.49232     45.88139         5     0.925     0.439  75.82   0
       369    537.7990     77.4470 300.3153141 +22.5570173     6355.898     72.63423      1.321     2.21     4.793861     20.49232     986.6109        35     1.147     1.102  55.09   0
       370    423.2233     77.1978 300.2797291 +22.5226385     617.2891      72.5787      1.360     3.29     4.671318     20.49232     81.35986        13     1.104     0.800 -39.89   0
       371    594.7931     72.3844 300.3347031 +22.5726245     229.8181     72.56019      1.241     2.27     4.809277     20.49232     40.92127         5     0.683     0.470 -14.82   0
       372    731.8363     68.6580 300.3786044 +22.6125719      262.651     72.63423      1.212     1.93     4.845853     20.49232     60.83446         5     0.684     0.447  17.81   0
       373    790.1494     67.1519 300.3972667 +22.6295890     786.9711     72.67122      1.438     2.89     4.910906     20.49232     94.88934        10     0.953     0.674  39.76   0
       374    882.6502     66.2850 300.4263864 +22.6570164     375.9248     72.61572      1.141     3.04     4.917672     20.49232     60.90106         6     0.838     0.559  21.56   0
       375    230.4726     60.8877 300.2250549 +22.4602205     483.6888     72.78208      1.476     4.90     5.001541     20.49232     71.97929        10     1.200     1.015 -74.69   0
       376    589.5495     59.8704 300.3371261 +22.5674570     429.1323     72.63423      1.441     5.95     4.809277     20.49232     58.05786         9     1.208     0.826  -2.86   0
       377    666.1483     57.5869 300.3617257 +22.5897285     6242.158     72.67122      1.314     2.18     4.901279     20.49232     1049.589        33     1.140     1.047  88.01   0
       378    440.9836     56.5807 300.2919388 +22.5220314      1465.95     72.61572      1.315     2.19     4.520067     20.49232      224.498        17     1.029     0.857  48.67   0
       379    707.2995     54.8149 300.3754454 +22.6012475     944.0375     72.54166      1.419     2.72     4.860396     20.49232     125.4637        14     0.955     0.918 -42.48   0
       380    777.4860     52.5481 300.3980530 +22.6215992     498.3922     72.65273      1.396     2.83     4.881584     20.49232     47.14471         6     0.857     0.437 -70.78   0
       381    723.2657     50.9779 300.3816641 +22.6049223     599.8181     72.61572      1.359     3.21     4.830072     20.49232     84.85658         8     0.991     0.624  42.15   0
       382    993.2103     48.8462 300.4665228 +22.6850714     439.3346     72.65273      1.234     2.26     4.974918     20.49232     90.64339         8     0.812     0.644 -29.13   0
       383    189.9680     48.7685 300.2163888 +22.4446049     639.0951     72.65273      1.311     2.82     5.048898     20.49232     92.19054        12     0.921     0.864  60.99   0
       384    761.7692     46.7282 300.3950407 +22.6152222     537.6458     72.63423      1.108     2.19     4.847869     20.49232      83.1721         8     0.753     0.627 -23.01   0
       385    710.3281     42.4368 300.3804009 +22.5985941     2721.979     72.59721      1.319     2.35     4.841918     20.49232     395.7059        23     1.097     0.967  67.01   0
       386    351.2592     42.9661 300.2684314 +22.4912497     455.5812     72.67122      1.445     5.07     4.424026     20.49232     53.50544         9     1.253     0.581  55.48   0
       387    725.5590     41.4195 300.3854767 +22.6028595     946.7335     72.67122      1.871     4.73     4.809834     20.49232      106.364        15     1.638     0.597  48.74   0
       388      3.7489     36.6267 300.1624526 +22.3853205     738.6431     68.22682      1.579     4.50     6.377236     20.49232     82.97624        13     1.245     0.806  38.28  16
       389    796.7673     34.0981 300.4100427 +22.6220616     1413.309     72.61572      1.304     2.51     4.912041     20.49232     202.6333        17     0.985     0.876 -86.48   0
       390    956.5305     32.5134 300.4603740 +22.6694004     345.7129     72.74515      1.513     2.86     4.937828     20.49232      47.6742         5     1.017     0.650  28.70   0
       391    875.0646     28.9863 300.4361099 +22.6440163      353.591     72.59721      1.434     2.48     4.910164     20.49232     38.33788         5     0.606     0.596   4.59   0
       392    734.6724     27.3334 300.3928817 +22.6015353      881.532     72.67122      1.336     2.65      4.76735     20.49232     113.4624        13     0.943     0.856  19.56   0
       393    113.0582     26.7638 300.1996129 +22.4152422     573.5298     72.63423      1.251     3.96     5.148138     20.49232     74.58352        12     1.236     0.749 -33.62   0
       394    540.3420     26.5853 300.3325903 +22.5431568     1149.213     72.61572      1.393     2.29     4.774477     20.49232     151.9037        15     0.959     0.864 -88.38   0
       395    444.1470     24.5558 300.3033021 +22.5137738     859.8582     72.65273      1.366     3.14     4.284958     20.49232     113.7549        14     1.038     0.852  61.21   0
       396    740.5744     21.2302 300.3966989 +22.6015461     214.7909     72.63423      1.314     3.44     4.762058     20.49232     33.01176         5     0.798     0.428 -68.45   0
       397    276.0619   1011.2351 299.9306107 +22.7466284     2607.417     72.65273      6.522    22.37     54.90266     20.49232     99.77478       124     5.518     2.518  -5.27  19
       398    245.3009    997.0020 299.9256773 +22.7333154     4220.258     72.52314      8.616    37.22     62.98734     20.49232     94.06204       369     8.920     4.310 -85.38  19
       399    263.7635    995.4370 299.9319269 +22.7384081     5437.711     72.70819     10.615    42.82     51.90513     20.49232     105.7193       520    10.512     4.841 -62.87  19
       400    282.3274    984.9674 299.9411057 +22.7409780     7851.592     72.63423      9.293    34.29     37.48611     20.49232     168.9541       832    11.081     5.323  64.44  27
       401    214.0453   1008.5534 299.9122018 +22.7272452      1881.11     72.67122      3.664    11.97     83.56597     20.49232     57.95415        41     2.413     1.654 -15.07  19
       402    217.9818   1001.9649 299.9155693 +22.7265381     1712.723     72.63422      5.382    14.58     77.58805     20.49232     60.02915        47     2.566     2.304 -21.77   3
       403    777.9867    998.2974 300.0910670 +22.8934853     685.7257     72.52314      1.955     7.65     2.369302     20.49232      49.7305        17     1.493     1.115  -0.68   0
       404    400.2661   1008.5355 299.9701210 +22.7831279     639.0568     72.68971      1.810     5.18     3.023559     20.49232     41.40841         9     1.537     0.493  59.69   0
