#   1 NUMBER                 Running object number                                     
#   2 X_IMAGE                Object position along x                                    [pixel]
#   3 Y_IMAGE                Object position along y                                    [pixel]
#   4 ALPHA_J2000            Right ascension of barycenter (J2000)                      [deg]
#   5 DELTA_J2000            Declination of barycenter (J2000)                          [deg]
#   6 FLUX_APER              Flux vector within fixed circular aperture(s)              [count]
#   7 FLUXERR_APER           RMS error vector for aperture flux(es)                     [count]
#   8 FLUX_RADIUS            Fraction-of-light radii                                    [pixel]
#   9 FWHM_IMAGE             FWHM assuming a gaussian core                              [pixel]
#  10 BACKGROUND             Background at centroid position                            [count]
#  11 THRESHOLD              Detection threshold above background                       [count]
#  12 FLUX_MAX               Peak flux above background                                 [count]
#  13 ISOAREA_IMAGE          Isophotal area above Analysis threshold                    [pixel**2]
#  14 A_IMAGE                Profile RMS along major axis                               [pixel]
#  15 B_IMAGE                Profile RMS along minor axis                               [pixel]
#  16 THETA_IMAGE            Position angle (CCW/x)                                     [deg]
#  17 FLAGS                  Extraction flags                                          
         1    409.2680     20.1956 300.3408993 +22.5071007     2243.608     72.43573      1.383     2.55     4.075917     20.44153     252.1148        22     1.227     0.885  77.20   0
         2    199.3915     12.2757 300.2781922 +22.4419438     272.6685     72.43573      1.446     3.30     4.974464     20.44153     42.42791         5     0.817     0.668 -41.61   0
         3    678.6176     10.7337 300.4278255 +22.5850435     332.9054     72.43573      1.395     3.43     5.080245     20.44153     33.85723         5     0.781     0.437  70.79   0
         4    883.6358      8.5132 300.4924411 +22.6457717     274.4184     72.43573      1.367     4.04     5.290303     20.44153     47.99544         7     1.014     0.459  80.87   0
         5    251.0667      5.2830 300.2965253 +22.4554201     405.5874     72.36185      1.342     2.81     4.555868     20.44153     45.62626         7     0.732     0.642 -26.42  16
         6    117.5588      1.1053 300.2563782 +22.4142112     306.5446     55.06934      1.049     2.26      4.96236     20.44153     74.07196         5     0.869     0.302   4.02  24
         7    128.8393   1022.9555 299.9279362 +22.7106905     935.9377     60.39632      5.173     8.56     22.35868     20.44153     32.83212        15     1.715     1.195  34.69  26
         8    524.0319   1022.3885 300.0510181 +22.8291780      1528.85     63.20896      1.614     3.51     2.856333     20.44153     120.8656        22     1.168     1.094  10.98  24
         9    190.9630   1022.8257 299.9472835 +22.7293111     886.0348     61.03499      5.686     7.91     12.82109     20.44153     42.64929        14     2.274     0.769  17.19  24
        10    114.7453   1022.2759 299.9237785 +22.7062626      687.178      63.7566      1.607     3.93      23.9842     20.44153     40.54862         5     1.288     0.343  77.53  25
        11     62.0222   1019.1905 299.9084042 +22.6895421      2925.09     72.45419     13.652    25.60     26.03943     20.44153     62.35676       165     5.800     3.138 -50.39  27
        12     73.8828   1018.0037 299.9124748 +22.6927649     2879.036     72.38033     17.718    32.65     25.69271     20.44153     59.06472       214     5.959     4.967  15.28  19
        13     84.6284   1003.8929 299.9204062 +22.6919502     858.5927      72.3988      6.251     6.03     22.58367     20.44153     35.10526         9     1.093     0.937  29.93   1
        14     40.5721   1000.6749 299.9077688 +22.6777949     3631.502     72.47264     10.322    30.73      22.0863     20.44153     73.23666       304     9.297     2.820 -15.81  19
        15    894.6984    995.6146 300.1752000 +22.9326949      2085.72     72.36185      1.753     3.77     3.744099     20.44153     146.0341        30     1.338     1.216 -44.85   0
        16     94.5485   1011.7362 299.9209348 +22.6971768     697.6319     72.50953      4.806     4.56     24.21762     20.44153     29.82132         5     1.348     0.437  60.75   0
        17    393.4789    991.5101 300.0204470 +22.7811400     345.7436     72.58326      1.468     4.55     3.589685     20.44153     36.72781         6     1.069     0.658  44.87   0
        18    577.1666    990.0535 300.0780850 +22.8358504     156.0919     72.47264      1.112     2.85     3.106575     20.44153     48.39186         6     0.894     0.442  53.88   0
        19    683.7187    984.5631 300.1130527 +22.8662442     848.5201     72.41727      2.041     6.93     3.653934     20.44153     52.71358        21     1.584     1.148  49.73   0
        20   1010.5742    983.9899 300.2151193 +22.9641015     459.8321     72.45419      1.658     6.41      3.68784     20.44153     49.60596        11     1.315     0.878  47.53   0
        21    381.0306   1003.9807 300.0125153 +22.7809783     507.9333     72.45419      1.665     6.23     3.572993     20.44153     46.88321        12     1.143     0.955 -32.69   0
        22    495.9888    979.5330 300.0562413 +22.8084733     467.2242     72.47264      1.450     3.02     3.162539     20.44153     47.63292         8     0.804     0.679 -77.94   0
        23    718.4234    978.5770 300.1258117 +22.8749377     1056.388     72.41727      1.628     3.59     3.689823     20.44153     97.39435        18     1.161     1.005   3.42   0
        24    740.6357    972.3429 300.1347610 +22.8798120     11343.02     72.45419      1.593     3.11     3.698904     20.44153     991.7026        49     1.327     1.259  86.00   0
        25    931.7161    972.0695 300.1944066 +22.9370370     355.7777     72.56483      1.553     6.31      3.68459     20.44153     52.94112         8     1.394     0.801 -20.19   0
        26    786.0857    972.2678 300.1489469 +22.8934226     396.0465      72.5464      1.438     4.23     3.627012     20.44153     47.81973         7     0.779     0.656  31.62   0
        27     52.0622    964.2593 299.9231902 +22.6708143     380.3257     72.49109      1.577     4.98     13.63034     20.44153     52.68864         9     1.068     0.783 -35.56   0
        28    446.2208    960.5371 300.0469373 +22.7880903     432.6183     72.41727      1.750     4.49     3.451632     20.44153     43.75462         8     1.136     0.504  71.66   0
        29    792.4765    960.4441 300.1547871 +22.8919465     291.6685     72.43573      1.258     3.39     3.600936     20.44153     53.26735         6     0.903     0.433  17.89   0
        30    749.1876    954.4438 300.1432516 +22.8772415     1305.749     72.45419      1.428     3.01     3.675928     20.44153     133.3265        17     1.082     0.908  49.47   0
        31    932.2897    953.6390 300.2005848 +22.9319188     384.8403     72.43573      1.468     5.09     3.679715     20.44153     39.44425         8     1.017     0.720  23.86   0
        32    465.1550    952.9431 300.0553006 +22.7915952     137.9582     72.47264      1.122     3.82     3.383583     20.44153     35.64777         5     0.815     0.515  39.79   0
        33    600.8849    951.6024 300.0979855 +22.8319385     499.1232     72.38033      1.849     5.51      3.47498     20.44153     42.95182        10     1.220     0.702  15.22   0
        34    787.3138    948.2917 300.1571339 +22.8869110     734.8897     72.62009      1.645     3.81     3.594687     20.44153     65.85115        14     1.081     0.941  38.39   0
        35     41.4817   1017.3069 299.9026375 +22.6828324     4700.057     72.60168     13.264    48.81     25.79961     20.44153     96.99035       705    11.277     6.167 -16.13  27
        36    895.8507    945.0254 300.1920271 +22.9185209      412.321     72.47264      1.655     5.73     3.636084     20.44153     37.42274         9     1.196     0.772  -5.48   0
        37    835.5919    938.8220 300.1752620 +22.8986716     560.3258     72.45419      1.653     5.43     3.564426     20.44153     52.78191        15     1.508     0.903 -89.75   0
        38    686.9338    937.9753 300.1292182 +22.8538434     612.4321     72.43573      1.495     4.58     3.685243     20.44153      66.6835        15     1.252     0.948 -57.08   0
        39    399.6041    934.6635 300.0408548 +22.7666805     4128.682     72.41727      1.565     3.02     3.600533     20.44153       425.17        31     1.208     1.182  51.65   0
        40    698.4415    934.9597 300.1337842 +22.8564301     440.7688      72.5464      1.437     3.51      3.68828     20.44153     58.01644        14     1.083     0.912 -72.63   0
        41    177.9258    923.6898 299.9754981 +22.6969876     247.6229     72.62009      1.334     4.71     5.351668     20.44153     37.00089         6     0.916     0.685  71.93   0
        42    125.1182    920.3533 299.9601740 +22.6801746     591.5178     72.43573      1.385     3.75       6.1334     20.44153     72.29076        13     1.000     0.887   2.23   0
        43    101.9679    917.5840 299.9538824 +22.6724292     1640.745     72.43573      1.674     3.52     6.354841     20.44153     158.9269        23     1.231     1.138  73.65   0
        44     33.2195    918.9364 299.9320868 +22.6521701     325.6608     72.43573      1.275     3.88     5.058936     20.44153     37.61179         5     0.855     0.504 -33.44   0
        45    973.7349    906.1700 300.2289590 +22.9307168     2109.157     72.47264      1.574     3.24     3.659465     20.44153     174.9933        25     1.216     1.140  61.94   0
        46    928.0925    904.7477 300.2151886 +22.9166259     2026.608     72.50953      1.607     3.34      3.65697     20.44153     156.4472        28     1.310     1.189  34.04   0
        47    632.8977    905.2670 300.1230335 +22.8282504     489.1402      72.5464      1.862     5.36     3.674197     20.44153     38.88531         9     1.187     0.683 -37.78   0
        48    404.6022    904.3408 300.0522773 +22.7594860     214.6068     72.43573      1.293     4.36     3.541098     20.44153     41.05413         6     0.955     0.657  21.34   0
        49    134.0644    899.7158 299.9696689 +22.6769469     534.1462      72.5464      1.741     4.95     5.377507     20.44153     54.24161         9     1.298     0.587 -29.00   0
        50    711.4541    898.6005 300.1496704 +22.8499007     608.4847     72.38033      1.613     4.44     3.616752     20.44153     59.30514        15     1.212     0.916 -46.22   0
        51    459.7860    897.5858 300.0716449 +22.7741092     281.7513     72.38033      1.673     4.28     3.473681     20.44153     36.01208         5     1.181     0.443  57.84   0
        52    579.6428    892.7585 300.1105217 +22.8086862     4730.522     72.56483      1.444     2.65     3.648383     20.44153     565.6649        33     1.147     1.139  53.86   0
        53     69.3694    893.2626 299.9516690 +22.6556706     356.4859     72.47264      1.393     4.90     5.149897     20.44153      39.8563         7     0.981     0.694  77.72   0
        54    381.6435    889.9784 300.0498086 +22.7484774     656.3794     72.50953      1.568     4.68     3.507595     20.44153     74.90955        11     1.026     0.843 -15.21   0
        55    129.8590    886.7051 299.9725954 +22.6719555     1395.306     72.52797      1.734     3.98     4.987891     20.44153     109.6583        22     1.346     1.062  39.92   0
        56    600.1007    885.1937 300.1193529 +22.8126533     716.7533     72.34337      1.434     3.69      3.65063     20.44153     80.41226        11     1.009     0.780 -20.19   0
        57    148.7186    884.2423 299.9792570 +22.6769125     469.8509     72.41727      1.911     5.62     4.777601     20.44153     35.77663         9     1.348     0.661  86.78   0
        58    398.7224    884.4701 300.0569138 +22.7520235     277.4347     72.56483      1.193     3.50     3.493237     20.44153     38.76081         5     0.744     0.475 -15.54   0
        59   1010.1421    872.9556 300.2511230 +22.9320931     341.9001     72.49109      1.317     4.36     3.640127     20.44153     38.40261         8     0.966     0.672  66.35   0
        60    972.7656    872.7184 300.2395424 +22.9208219     1027.597     72.41727      1.524     3.83     3.640127     20.44153     112.4879        19     1.361     0.923  26.74   0
        61    755.7245    872.4834 300.1719612 +22.8556827     4108.463      72.5464      1.440     2.70     3.504663     20.44153     437.0634        27     1.135     1.061  54.25   0
        62    164.2782    866.9453 299.9897197 +22.6766266     370.2343     72.49109      1.311     2.99     4.241925     20.44153     52.98326        10     0.870     0.761   9.54   0
        63    472.7557    865.1521 300.0862339 +22.7686989     560.2086     72.47264      1.426     3.43     3.447768     20.44153     68.88707        10     0.906     0.857 -56.42   0
        64    119.2188    863.1707 299.9769460 +22.6620160     1049.492     72.45419      1.662     3.86     4.281078     20.44153     94.33965        18     1.244     0.995 -52.92   0
        65    534.0895    858.0170 300.1076445 +22.7850541     476.0089     72.38033      1.476     4.16     3.649712     20.44153     68.14999        10     1.046     0.873  61.26   0
        66    268.7066    855.1676 300.0260121 +22.7045996     53131.95      72.3988      1.521     2.73     3.875195     20.44153     5981.002        99     1.415     1.353  42.34   0
        67    526.6069    854.1693 300.1065672 +22.7817055     1752.733     72.45419      1.517     2.84     3.653235     20.44153     185.6998        21     1.170     0.947  57.41   0
        68    939.5641    853.2243 300.2355314 +22.9052727     932.4285     72.47264      1.478     3.21     3.635439     20.44153     97.95036        14     1.061     0.872  -3.52   0
        69    196.9207    853.4036 300.0042702 +22.6825450     575.2646     72.36185      1.643     5.53     4.072872     20.44153     43.00121        11     1.046     0.943 -30.29   0
        70    555.4730    850.2641 300.1168234 +22.7892450     898.5877     72.49109      1.295     2.68     3.735351     20.44153     96.91148        13     0.883     0.852  47.80   0
        71    566.4445    848.4229 300.1208380 +22.7920081     457.6267     72.50953      1.184     2.53     3.729229     20.44153     69.88097        10     0.874     0.726  46.10   0
        72    886.5254    845.5052 300.2215055 +22.8871572     415.0327     72.60168      1.521     4.36     3.643511     20.44153     38.23693         8     1.081     0.500  -0.25   0
        73    672.0522    844.6776 300.1549421 +22.8226102      334.698     72.47264      1.286     3.66     3.566988     20.44153     45.98535         9     0.922     0.758 -47.71   0
        74    613.3442    841.1299 300.1378130 +22.8039839     1144.431     72.47264      0.570     0.57     3.652165     20.44153     708.8068         6     0.681     0.284  25.89   0
        75    318.4029    832.3872 300.0488758 +22.7129840     31076.39      72.2879      1.477     2.63     3.600396     20.44153     3377.782        76     1.345     1.279  59.72   0
        76    709.3755    834.8188 300.1697755 +22.8309743      767.862     72.47264      1.366     2.89     3.495847     20.44153     92.66418        12     1.015     0.732 -36.06   0
        77    332.6464    832.7471 300.0531883 +22.7173619     2038.929     72.49109      1.506     2.72     3.545244     20.44153     266.5446        23     1.157     1.028  13.56   0
        78    208.0604    831.1846 300.0149606 +22.6795197      320.097     72.41727      1.355     3.60     4.027305     20.44153     32.53446         5     0.793     0.508 -54.11   0
        79    841.5485    828.0388 300.2131674 +22.8686593     2833.445     72.45419      1.427     2.63     3.675228     20.44153     314.9749        26     1.135     1.060 -74.60   0
        80    329.1855    827.1669 300.0539272 +22.7147231     739.2056     72.43573      1.826     2.85     3.552421     20.44153     70.24657        10     0.862     0.763  72.84   0
        81    599.3328    824.2626 300.1389374 +22.7949417     1027.794     72.50953      1.324     2.90      3.72338     20.44153     114.5641        15     1.009     0.873 -74.32   0
        82    435.9337    823.7029 300.0882604 +22.7457623     412.0295      72.5464      1.477     4.91     3.557781     20.44153     59.26964        12     1.397     0.743 -61.24   0
        83    201.1638    823.9860 300.0151585 +22.6753858     747.8153     72.45419      1.455     4.14     4.029327     20.44153     83.00407        14     1.210     0.828  74.70   0
        84    446.4593    819.1008 300.0930325 +22.7476004     897.8011      72.5464      1.345     2.96     3.578222     20.44153     97.44304        14     0.980     0.883  40.32   0
        85      5.8948    819.8425 299.9558382 +22.6155708     673.0473     72.45419      2.141     5.98     4.121238     20.44153     44.65751        11     1.210     0.833  17.30  16
        86    848.0367    815.8336 300.2191604 +22.8671006     528.9802     72.49109      1.378     4.98      3.74701     20.44153     54.26119        10     0.958     0.757 -25.46   0
        87    304.4352    815.1438 300.0501411 +22.7038476     302.5754     72.47264      1.370     4.77     3.594185     20.44153     44.41362         8     0.953     0.758 -43.10   0
        88    348.2728    815.3269 300.0637149 +22.7170559     405.3442     72.50953      1.407     3.83     3.492036     20.44153     50.09502         6     0.805     0.523  46.64   0
        89    391.9752    814.0791 300.0777147 +22.7298122     457.8548     72.43573      1.600     2.53     3.535153     20.44153     54.30251         8     0.787     0.660  44.61   0
        90     34.1018    813.8546 299.9665462 +22.6223250     465.0754      72.5464      1.490     4.57      4.05277     20.44153     54.59716        10     0.934     0.769 -72.68   0
        91    601.0738    813.0898 300.1431140 +22.7922581      374.729     72.62009      1.420     2.76      3.73721     20.44153     45.39996         8     0.800     0.662 -44.25   0
        92    825.0727    810.6335 300.2136942 +22.8587233       310.23     72.45419      1.251     2.87     3.655045     20.44153     48.00129         7     0.824     0.745  74.45   0
        93    198.8365    808.6284 300.0194304 +22.6702845     476.5215     72.47264      1.351     2.99     4.012758     20.44153     72.50959         9     0.931     0.684 -54.04   0
        94    521.7714    798.6598 300.1231195 +22.7643307     291.3254     72.45419      1.164     3.78     3.978179     20.44153     49.80359         6     0.891     0.568 -73.27   0
        95    491.5152    797.2407 300.1141640 +22.7548472     692.8744     72.41727      1.385     2.86     3.771171     20.44153     82.43745        11     1.021     0.685  82.00   0
        96    907.8692    793.3617 300.2451231 +22.8785842     4502.061     72.41727      1.429     2.62     3.782906     20.44153     476.6324        30     1.167     1.097 -64.63   0
        97    511.8050    795.4534 300.1210602 +22.7604212     3441.618     72.43573      1.170     0.06     3.918625     20.44153      2212.16        17     1.482     0.545 -35.27   0
        98    433.1259    794.2662 300.0969617 +22.7364766     322.9591     72.50953      1.241     4.20     3.668986     20.44153     43.60653         7     0.764     0.658  25.08   0
        99    594.8653    789.6309 300.1488114 +22.7836648     209.0335     72.45419      1.326     2.04     3.822178     20.44153      45.4806         5     0.703     0.435  22.20   0
       100    896.2042    784.7521 300.2442867 +22.8726157     1613.708     72.43573      1.398     2.71     3.874072     20.44153     189.2252        20     1.074     0.997 -87.60   0
       101    259.3466    778.8909 300.0479126 +22.6799205     835.7932     72.50953      1.346     2.99     3.673077     20.44153     98.53481        13     0.965     0.877  30.91   0
       102    722.8461    776.0771 300.1930798 +22.8181543      2736.11     72.45419      1.442     2.75     3.457288     20.44153     305.7294        26     1.317     1.021  14.01   0
       103    927.4863    775.0087 300.2572095 +22.8791939     1540.521     72.38033      1.426     2.63     3.874949     20.44153     170.5044        20     1.065     0.988  43.02   0
       104    941.2315    765.3599 300.2646339 +22.8805426     244.4967     72.50953      1.361     4.29     3.900567     20.44153     27.26238         5     0.944     0.555 -51.28   0
       105    108.1553    763.0905 300.0060602 +22.6300089     721.4471     72.43573      1.509     3.20     3.660807     20.44153     59.71878        11     0.880     0.838 -61.65   0
       106    805.1507    761.9852 300.2233089 +22.8387848     525.9284     72.49109      1.367     3.45     3.781576     20.44153     65.52577         9     0.947     0.666  58.03   0
       107    841.1071    753.0018 300.2374373 +22.8469842     145533.2     72.36185      1.386     2.52     3.971776     20.44153     18590.35       147     1.379     1.323  83.52   0
       108    603.3015    756.7158 300.1621433 +22.7767497      359.726     72.62009      1.354     3.10     3.843207     20.44153     47.99107         6     0.704     0.662  58.09   0
       109    988.1129    754.6406 300.2827412 +22.8915135     1192.751     72.43573      1.398     2.87     3.668013     20.44153     122.5302        16     1.025     0.898  15.37   0
       110    693.4044    753.3206 300.1913091 +22.8027947     677.2778     72.36185      1.217     2.45     3.437238     20.44153     90.31216        10     0.806     0.771  39.80   0
       111    446.4686    754.2340 300.1141328 +22.7289961     178.2238     72.45419      1.076     3.51     3.982375     20.44153     35.70638         5     0.777     0.458  71.70   0
       112    873.6254    745.8994 300.2498839 +22.8546919     394.5667      72.3988      1.356     4.42     4.093534     20.44153     64.41443        11     1.341     0.683 -41.16   0
       113    527.2842    741.8633 300.1433071 +22.7496888     1578.931      72.5464      1.238     2.14     4.091331     20.44153     241.3423        18     0.946     0.929  63.80   0
       114    708.5936    739.1618 300.2006452 +22.8032848     9302.199     72.49109      1.297     2.33     3.447932     20.44153     1198.033        39     1.128     1.067  82.45   0
       115    190.2031    741.0177 300.0387346 +22.6483091     319.9659     72.36185      1.336     3.28     3.456554     20.44153      48.6646         6     0.920     0.440 -35.41   0
       116    210.1158    734.5034 300.0470423 +22.6524177     4839.671     72.62009      1.421     2.63     3.479566     20.44153     499.6287        31     1.180     1.084  52.81   0
       117    292.0766    732.5828 300.0731483 +22.6764631     1213.666     72.45419      1.394     2.51     3.494951     20.44153     145.1091        17     1.078     0.865  -3.04   0
       118    167.7425    730.0616 300.0353164 +22.6384264     583.0266     72.50953      1.553     3.63     3.460403     20.44153     53.71256         9     0.928     0.779  58.98   0
       119    500.2923    728.0011 300.1394133 +22.7376153      774.525     72.34337      1.221     2.64     4.151012     20.44153     108.5195        10     0.824     0.753 -21.06   0
       120    492.0949    720.0881 300.1394350 +22.7328861      3288.79      72.6385      1.326     2.32     4.179739     20.44153     463.7191        25     1.055     0.990 -69.17   0
       121    482.3142    713.8640 300.1384149 +22.7281666     1368.925      72.5464      1.229     2.29     4.204585     20.44153     200.3891        16     0.939     0.822  71.41   0
       122    410.7530    712.7355 300.1165143 +22.7063768      341.541     72.49109      1.412     4.49     4.056212     20.44153     40.91063         6     1.033     0.555  52.92   0
       123    875.8953    711.6816 300.2617189 +22.8455463     389.0139     72.62009      1.139     2.22     4.165183     20.44153     73.38666         7     0.723     0.584  14.35   0
       124    393.1940    711.0995 300.1115835 +22.7006398     278.7357     72.34337      1.091     2.32     3.925143     20.44153     45.98397         6     0.732     0.541  47.38   0
       125    145.9506    710.3050 300.0349676 +22.6262212     504.8559     72.50953      1.171     2.47     3.701128     20.44153      88.9272         9     0.846     0.674  75.88   0
       126    159.6381    708.5220 300.0398009 +22.6298182     623.5403     72.43573      1.302     3.87     3.708384     20.44153     79.15034        12     1.130     0.805  50.41   0
       127     45.7371    708.2745 300.0044926 +22.5955577     287.9399     72.49109      1.717     6.24     3.902039     20.44153     30.62077         7     1.255     0.871 -86.75   0
       128    185.7283    705.4213 300.0489177 +22.6367595     639.3528     72.45419      1.630     3.92     3.766809     20.44153     67.19906        10     1.093     0.731 -30.64   0
       129    929.1777    704.8265 300.2805608 +22.8595456     461.5728     72.43573      1.388     3.48     4.215548     20.44153     53.22617         8     0.836     0.654  35.95   0
       130    506.0030    704.3185 300.1488912 +22.7325328     377.9732     72.36185      1.213     3.55     4.208068     20.44153     65.99159         8     0.903     0.650  50.69   0
       131    407.1092    703.6526 300.1183338 +22.7026780     1881.352     72.50953      1.396     2.43     4.040772     20.44153     225.6635        21     1.098     0.961  76.78   0
       132    216.5786    704.9305 300.0586665 +22.6458772     395.3573     72.45419      1.365     3.50     3.778437     20.44153     52.39564         6     0.950     0.493  87.84   0
       133    982.7594    700.5593 300.2986584 +22.8743758     867.2706     72.52797      1.487     3.19     3.878069     20.44153     100.3175        14     1.071     0.869  79.99   0
       134     61.0164    698.7112 300.0123479 +22.5974031     19604.29     72.38033      1.528     2.97     3.888105     20.44153     2082.898        59     1.345     1.296  45.90   0
       135    491.9387    698.7839 300.1463133 +22.7267264     978.1357      72.3988      1.350     2.37     4.233318     20.44153     146.6754        14     1.043     0.760  71.19   0
       136    527.4199    697.9532 300.1576271 +22.7371296      334.121     72.49109      1.214     2.51     4.205923     20.44153     67.55824         8     0.860     0.641  34.29   0
       137    245.2920    690.9708 300.0721311 +22.6504904     224.0645     72.41727      1.061     3.73      3.79454     20.44153     40.49048         5     0.818     0.490 -38.36   0
       138    910.1700    684.8741 300.2811214 +22.8481191     1042.645     72.47264      1.305     2.63     4.209992     20.44153     148.6387        15     0.924     0.913  15.80   0
       139      7.0011    682.8555 300.0007250 +22.5766426     1501.222     72.38033      1.927     4.48     3.938984     20.44153     125.6914        28     1.566     1.150 -86.54  16
       140    776.8423    682.9807 300.2401774 +22.8076160     356.0189     72.47264      1.184     2.87     4.037879     20.44153     79.35228        10     0.949     0.723  -6.24   0
       141     73.3116    682.8853 300.0213122 +22.5965569     393.9532     72.58325      1.447     4.47     3.952381     20.44153     47.07051         7     1.056     0.538  65.16   0
       142    455.3481    679.5129 300.1411914 +22.7102221      541.446     72.49109      1.244     2.85      4.22648     20.44153     73.24565         8     0.911     0.620  56.03   0
       143    850.1162    677.7021 300.2647308 +22.8280622     763.1876     72.62009      1.286     2.39     4.182433     20.44153      93.6521        10     0.803     0.744 -77.05   0
       144    247.9171    678.5891 300.0769724 +22.6477271     270.4043     72.41727      1.212     3.71     3.852425     20.44153      44.9004         6     0.816     0.485  -7.30   0
       145    846.0224    677.3948 300.2635546 +22.8267471     368.3924     72.43573      1.350     4.70     4.177729     20.44153     44.93236         8     1.044     0.600 -21.43   1
       146    604.4467    676.2205 300.1886736 +22.7539912     155.4329     72.50953      1.131     3.46     4.284145     20.44153     29.68043         5     0.794     0.437  69.03   0
       147    594.1467    676.0629 300.1855176 +22.7508576     264.5249     72.50953      1.396     3.39     4.279002     20.44153     46.49527         5     0.766     0.538 -55.08   0
       148    412.3773    671.9207 300.1302891 +22.6951546     625.2949      72.3988      1.255     2.67     4.116327     20.44153     84.24289        12     0.958     0.740   4.15   0
       149    559.9543    670.2568 300.1767595 +22.7389381     517.0547     72.49109      1.253     2.38     4.278784     20.44153      82.6991        10     0.807     0.785 -19.81   0
       150    607.3072    668.7018 300.1920086 +22.7526909     332.7286      72.6385      1.204     2.73     4.310462     20.44153     64.88751         8     0.923     0.557  68.74   0
       151    456.5075    667.7284 300.1453832 +22.7071885     941.8134     72.60168      1.433     5.77     4.252077     20.44153      120.282        13     1.329     0.855  29.81   0
       152    577.7421    668.1010 300.1829983 +22.7436533     475.2821      72.5464      1.181     3.39      4.29374     20.44153     81.17989         9     1.006     0.695  44.21   0
       153    643.6978    667.3598 300.2037775 +22.7632168     278.5151     72.45419      1.516     3.47     4.145182     20.44153     36.37665         5     0.751     0.464 -12.04   0
       154    890.0557    662.9911 300.2819645 +22.8358066      3205.49     72.45419      1.311     2.39     4.204536     20.44153     452.3026        23     1.071     0.952 -68.81   0
       155    421.7883    663.1674 300.1360627 +22.6954660     1764.841     72.43573      1.256     2.27     4.155312     20.44153     266.3572        17     0.940     0.867  35.62   0
       156    988.1296    661.0912 300.3131657 +22.8646472     742.2543     72.62009      1.396     3.94     4.018254     20.44153     96.53601        12     1.029     0.850 -69.19   0
       157    786.9347    660.0550 300.2507757 +22.8040583     329.1679     72.50953      1.163     1.85     4.106699     20.44153     58.30156         5     0.579     0.566  14.41   0
       158    397.6983    658.2466 300.1301673 +22.6868282     369.0392     72.49109      1.459     3.50     4.057189     20.44153     45.86674         5     0.825     0.485 -43.40   0
       159    929.2294    652.6652 300.2975359 +22.8445791     327.0184     72.47264      1.229     2.77     4.193524     20.44153     51.16774         5     0.729     0.446 -15.61   0
       160    285.2486    649.9143 300.0979009 +22.6507037     9078.038     72.43573      1.341     2.32     3.728369     20.44153      1184.46        42     1.180     1.129  40.23   0
       161    407.6737    646.9275 300.1369502 +22.6865728     8811.463     72.50953      1.290     2.19     4.104131     20.44153      1321.41        40     1.133     1.069  83.05   0
       162    653.7467    643.2203 300.2147544 +22.7592999     278.0689     72.43573      1.095     3.18     4.118609     20.44153     47.99177         6     0.993     0.386  77.39   0
       163    173.1311    644.0805 300.0649426 +22.6153890     355.2987     72.56483      1.324     3.88     4.137448     20.44153     40.28543         6     0.750     0.575  60.28   0
       164   1012.2652    641.9271 300.3269243 +22.8663724     831.4575     72.49109      1.314     2.87     4.046048     20.44153     106.8092        15     1.033     0.855  53.11   0
       165    487.9765    643.7839 300.1629601 +22.7097556     190.7923     72.45419      1.812     3.80      4.36976     20.44153     26.10033         5     1.494     0.277 -11.97   0
       166    819.2867    640.7612 300.2671305 +22.8082141     1908.913     72.43573      1.262     2.31     4.144442     20.44153      275.086        18     0.980     0.905 -54.16   0
       167    903.9977    638.1012 300.2944028 +22.8328354     12237.29     72.34337      1.322     2.29     4.177006     20.44153      1729.05        46     1.177     1.123 -76.30   0
       168    468.2495    636.4801 300.1591948 +22.7017434     11460.31     72.49109      1.217     2.21     4.342323     20.44153     1492.318        42     1.172     1.012  58.62   0
       169    195.8179    632.1485 300.0758722 +22.6187749     1292.108     72.43573      1.333     2.35     4.109076     20.44153     185.2229        15     1.067     0.802  12.61   0
       170    637.6867    632.2190 300.2133286 +22.7513269     400.7166      72.3988      1.127     2.30     4.207961     20.44153      86.7193         9     0.848     0.646  22.70   0
       171    353.6445    631.1655 300.1252659 +22.6658439     312.5916     72.50953      1.041     2.97     3.918043     20.44153     48.73183         5     0.714     0.464 -77.52   0
       172    442.2441    629.5688 300.1533488 +22.6919608     439.5612     72.50953      1.293     2.56     4.244878     20.44153     62.59505         7     0.820     0.573  80.52   0
       173    399.9254    624.6624 300.1417765 +22.6778604     4357.887     72.49109      1.275     2.25      4.08365     20.44153     643.8341        26     1.071     0.936  66.54   0
       174    742.8538    624.5349 300.2485863 +22.7806464     753.3199     72.49109      1.203     2.71     4.061056     20.44153     110.1971        12     1.024     0.680  68.81   0
       175    378.1504    623.1653 300.1354890 +22.6708995     1257.069     72.47264      1.318     2.37      4.01261     20.44153     181.8059        17     1.017     0.898  54.41   0
       176    132.5342    622.4816 300.0593463 +22.5970124     751.9336     72.56483      1.447     2.94     4.113522     20.44153     95.89746        14     1.009     0.860  23.97   0
       177    516.5624    612.1964 300.1821243 +22.7092626     200713.6     72.49109      1.252     2.13      4.41995     20.44153     28634.48       204     1.399     1.378  60.81   0
       178    819.7141    619.9103 300.2740414 +22.8023540     1495.753     72.62009      1.423     2.93     4.145123     20.44153     162.6192        20     1.049     1.003 -43.68   0
       179     66.0555    620.1167 300.0394600 +22.5763829     226.7372      72.5464      1.209     3.97      3.66746     20.44153     29.43191         6     0.964     0.468 -38.43   0
       180    920.9086    618.6486 300.3059989 +22.8323147     187.9894     72.49109      1.367     4.71     4.156083     20.44153     33.72776         5     0.991     0.636 -86.80   0
       181    340.2727    618.2321 300.1253104 +22.6581222     379.4205     72.45419      1.209     3.97     3.933144     20.44153     54.28158         6     0.773     0.582  12.37   0
       182    700.0533    616.9678 300.2377115 +22.7656445     864.5085     72.47264      1.250     2.67     4.049316     20.44153     141.5112        12     0.913     0.823  26.38   0
       183    904.7983    613.5629 300.3026286 +22.8260267     332.0859     72.47264      1.412     3.61     4.150577     20.44153     44.09703         6     0.895     0.584  67.31   0
       184    202.6847    612.2748 300.0844657 +22.6151355     3456.427     72.56483      1.338     2.41     4.100441     20.44153     452.0532        23     1.065     0.983  55.11   0
       185    999.5750    610.1748 300.3332871 +22.8534481     1213.976     72.41727      0.727     1.56     4.208447     20.44153     533.9683         6     0.630     0.365  11.62   0
       186    381.4798    608.7217 300.1412190 +22.6677539     335.5701     72.58325      1.544     3.12     4.038342     20.44153     36.88709         5     0.724     0.451 -67.78   0
       187    768.6130    607.8045 300.2620506 +22.7835627     502.3608      72.3064      1.610     3.56     4.102225     20.44153     64.14758         9     1.060     0.793  67.40   0
       188    786.9770    606.4461 300.2682148 +22.7886763     238.8823     72.47264      1.258     3.52     4.129063     20.44153     41.12183         6     0.809     0.655  33.29   0
       189    407.1529    592.5439 300.1544636 +22.6708119     2822.251     72.49109      1.329     2.12     4.167532     20.44153     349.7947        25     1.068     0.983  76.46   2
       190    251.3325    595.2014 300.1051376 +22.6248340     422.0336     72.41727      1.389     2.95     4.026943     20.44153     54.03926         7     0.783     0.637 -56.37   0
       191    857.3680    592.6207 300.2946481 +22.8057994     319.2649     72.45419      1.620     4.15     4.113829     20.44153     32.31854         6     1.114     0.442  34.33   0
       192    818.9803    588.7329 300.2839458 +22.7931798     500.4583     72.41727      1.361     3.23     4.132518     20.44153     56.55414         7     0.876     0.576  27.83   0
       193    638.0473    587.9410 300.2278319 +22.7387233     140.2781     72.50953      1.112     4.60     4.292097     20.44153     43.40206         8     0.999     0.603  65.17   0
       194    511.6962    587.9839 300.1884785 +22.7008540     264.4501     72.36185      1.217     2.66     4.565369     20.44153     40.63317         5     0.782     0.478  29.79   0
       195    724.4752    581.1703 300.2569541 +22.7626856     362.2893     72.47264      1.040     2.26     4.221489     20.44153     74.11674         8     0.744     0.718 -26.21   0
       196    804.1059    578.5096 300.2826323 +22.7857861     1602.845     72.62009      1.212     2.30     4.141932     20.44153     227.4964        14     0.961     0.778  76.59   0
       197    690.3484    578.3313 300.2472452 +22.7516417     335.8619     72.43573      1.110     3.82     4.219824     20.44153     43.37456         5     0.912     0.460  44.75   0
       198    675.2523    576.2007 300.2432352 +22.7465050     2499.742     72.41727      1.216     2.02     4.221324     20.44153     404.6974        20     1.036     0.858  57.32   0
       199     35.4545    576.3264 300.0441845 +22.5546428     301.1677     72.45419      1.468     4.54     3.129982     20.44153     40.44765         7     0.868     0.683 -21.04   0
       200    919.8758    573.7131 300.3202814 +22.8190964     506.4754     72.58325      1.445     2.59     4.045078     20.44153      66.3804         8     0.789     0.673  85.03   2
       201    918.1669    569.0748 300.3212558 +22.8172519     645.9674     72.45419      1.251     2.97     4.031703     20.44153     87.53347        12     0.977     0.806  58.91   2
       202    884.9512    573.0632 300.3096032 +22.8084462     269.9685     72.49109      1.319     2.51     4.056547     20.44153     56.27881         8     0.800     0.726  17.21   0
       203    580.3929    572.8491 300.2147830 +22.7171065     503.3216     72.45419      1.270     2.73     4.523926     20.44153     78.55302         9     0.879     0.683  67.42   0
       204    462.7075    572.1428 300.1783796 +22.6816176     675.7247     72.50953      1.280     2.41     4.570094     20.44153     101.1646         9     0.851     0.654  36.61   0
       205    932.5899    570.1281 300.3254111 +22.8218754     1246.728     72.45419      1.271     2.44     4.031152     20.44153     165.8659        16     0.955     0.862  87.27   0
       206    804.3535    568.6598 300.2859104 +22.7830313     2254.254     72.49109      1.457     2.76     4.140886     20.44153     296.1956        28     1.628     0.900  78.17   0
       207    557.6296    566.9644 300.2096080 +22.7085927     629.2105     72.47264      1.134     2.07      4.63689     20.44153     98.93746         9     0.810     0.634  17.86   0
       208    343.7225    566.6684 300.1431402 +22.6443627     344.7286     72.56483      1.314     3.63     3.959038     20.44153     57.09074         6     1.007     0.598 -45.74   0
       209    842.5149    563.7236 300.2994090 +22.7930484     4164.022     72.56483      1.209     2.10     4.079169     20.44153     589.8748        24     0.997     0.951 -66.01   0
       210    395.9305    565.5232 300.1597528 +22.6596923     271.0832     72.56483      1.016     2.38     4.199549     20.44153     57.23841         5     0.725     0.447  22.96   0
       211    483.6813    563.4513 300.1877312 +22.6854123     294.2729     72.47264      1.234     3.41     4.732024     20.44153     38.23997         5     0.727     0.462 -19.22   0
       212    580.5169    560.1290 300.2189550 +22.7134920     258.4897     72.58325      1.217     2.75     4.567961     20.44153     40.01453         6     0.760     0.497  84.79   0
       213    934.3065    554.0223 300.3311802 +22.8177624     775.2732     72.36185      1.271     2.39     3.982982     20.44153     113.2155        13     0.903     0.874  74.01   0
       214     74.3864    554.2187 300.0634615 +22.5599871      975.735     72.41727      1.421     2.79     3.720246     20.44153     114.4729        15     0.994     0.919 -88.86   0
       215    874.1960    551.7930 300.3131621 +22.7991135     267.0777      72.2879      1.119     3.43     4.012038     20.44153     43.44925         7     0.969     0.564 -19.44   0
       216    735.7122    547.7305 300.2713217 +22.7564502     250.0569     72.62009      1.107     2.11     4.433607     20.44153     52.68298         5     0.765     0.645  34.46   0
       217     67.0666    544.4084 300.0643748 +22.5549772     474.7661     72.45419      1.406     3.20     3.629996     20.44153     57.33944         8     0.832     0.661 -88.39   0
       218    930.6329    542.9634 300.3336282 +22.8134845     387.2992     72.47264      1.229     3.43     3.950339     20.44153     52.06415         5     0.779     0.435  71.35   0
       219    674.7366    538.1478 300.2554396 +22.7354236     530.8074     72.50953      1.144     2.42     4.368617     20.44153     78.38604         8     0.828     0.618  74.05   0
       220    563.7798    535.9230 300.2216091 +22.7015252     342.2614     72.45419      1.150     2.91     4.668855     20.44153     55.10236         8     0.912     0.607  21.40   0
       221    615.8279    534.2836 300.2383481 +22.7166570     714.1512     72.45419      1.183     2.21     4.402854     20.44153     132.1965        12     0.877     0.815 -45.09   0
       222   1023.1147    531.8471 300.3660852 +22.8379917      863.576      59.4592      1.203     2.62     3.920977     20.44153     138.6303        12     0.998     0.685  76.92  24
       223    930.5293    526.2488 300.3390269 +22.8086510     652.8314     72.43573      1.443     3.59     3.904962     20.44153     73.34853        11     1.207     0.609  69.24   0
       224    676.6647    526.5422 300.2598110 +22.7326688      854.494     72.49109      1.085     2.23     4.353756     20.44153     138.8154        12     0.835     0.780  -3.25   0
       225    833.9817    522.5809 300.3101179 +22.7786731      1161.37     72.45419      1.296     2.28     4.098846     20.44153     158.3643        12     0.960     0.723  85.82   0
       226    818.0682    518.9958 300.3063225 +22.7728753     640.9703     72.43573      1.309     2.12      4.15626     20.44153      115.781         9     0.763     0.708  72.42   0
       227    798.7459    519.3422 300.3001878 +22.7671853     363.1547     72.50953      1.138     2.16     4.217688     20.44153     60.14417         6     0.658     0.624  64.36   0
       228    562.6313    517.1030 300.2273661 +22.6957777      3304.77     72.41727      1.222     2.07     4.553436     20.44153     512.9624        23     1.048     0.894  66.66   0
       229    923.0590    515.8337 300.3400814 +22.8034207     311.1117     72.47264      1.180     1.99     3.889893     20.44153     90.25541         8     0.769     0.657   5.58   0
       230     38.0842    508.4637 300.0670489 +22.5359720     351.0724      72.5464      1.513     2.88     4.157106     20.44153      39.1187         6     0.766     0.494  -6.69   0
       231    402.2256    503.9413 300.1817191 +22.6439069     285.4339     72.45419      1.093     3.12     4.303148     20.44153     56.10395         7     0.987     0.504  66.65   0
       232    973.9686    496.0277 300.3623929 +22.8129785     1183.628     72.45419      1.243     2.50     3.824885     20.44153      189.141        13     0.918     0.811 -38.58   0
       233    845.8862    495.7923 300.3225320 +22.7745438     382.6313     72.36185      1.213     2.32     4.082077     20.44153     83.38552        10     0.853     0.703  86.29   0
       234    932.2903    494.7059 300.3498242 +22.8001151     983.8096     72.62009      1.267     2.36     3.822216     20.44153     164.5899        13     0.951     0.839 -36.63   0
       235    673.0038    490.8191 300.2702764 +22.7213127     1075.111      72.3988      1.250     2.06     4.295526     20.44153     186.6739        15     0.974     0.813  73.71   0
       236    468.7279    491.7747 300.2063646 +22.6603546     397.1498     72.47264      1.198     2.80     4.464395     20.44153     66.95407         9     0.839     0.730  -0.86   0
       237    177.2885    489.4845 300.1164672 +22.5722942     590.3786     72.58325      1.204     2.77     4.327415     20.44153     81.84599        12     0.985     0.757  53.76   0
       238    239.4452    485.0603 300.1372262 +22.5896699     3668.815     72.47264      1.328     2.24     4.363358     20.44153     486.6369        28     1.089     1.009  82.38   0
       239    972.4911    483.2721 300.3660760 +22.8088703     4388.888     72.62009      1.248     2.17     3.790185     20.44153     565.4817        29     1.136     0.995   7.01   0
       240    186.6587    479.8725 300.1225018 +22.5723476     7488.466     72.49109      1.347     2.41      4.35823     20.44153     1017.163        37     1.172     1.079  55.63   0
       241    565.2138    479.3307 300.2404408 +22.6857068     377.8624     72.47264      1.658     3.35     4.314211     20.44153     42.18401         5     0.911     0.401 -83.91   0
       242    952.4616    474.2873 300.3627479 +22.8002893     1707.092      72.5464      1.165     2.28      3.80008     20.44153     225.5753        18     0.973     0.925  77.20   0
       243    327.4527    473.9938 300.1681874 +22.6128894     4777.377     72.41727      1.244     2.23     4.223948     20.44153     664.5918        28     1.108     0.949  73.54   0
       244    571.6849    470.6939 300.2452610 +22.6851666     18300.21      72.6385      1.200     2.06     4.280738     20.44153     2957.237        51     1.170     1.028  69.03   0
       245    589.2128    470.6020 300.2507484 +22.6903940     893.5289      72.2879      1.974     5.66     4.238644     20.44153      74.3055        15     1.621     0.633 -41.21   0
       246    815.4356    466.7934 300.3224607 +22.7570900     286.7723     72.47264      1.116     1.89     4.245735     20.44153     52.32748         5     0.649     0.480 -73.52   0
       247    768.7474    461.2829 300.3097002 +22.7415190     460.5523     72.49109      1.478     2.83     4.304245     20.44153     69.63134         7     0.889     0.570  45.26   0
       248    191.8034    457.6029 300.1313340 +22.5675017     302.4231     72.23238      1.016     2.05     4.422257     20.44153     48.65585         5     0.668     0.471  16.06   0
       249    905.0797    453.2849 300.3547947 +22.7800622     780.9633     72.60168      1.322     2.23     3.947299     20.44153     102.6414        10     0.843     0.693  86.14   0
       250    442.1626    452.3987 300.2108876 +22.6410866     452.2895     72.45419      1.492     4.54     4.517087     20.44153     48.98064         8     0.903     0.648  65.79   0
       251    614.9750    451.9828 300.2648183 +22.6927685      300.865     72.47264      1.417     2.74     4.198182     20.44153     36.36858         5     0.637     0.573 -89.68   0
       252    126.2368    450.8707 300.1131429 +22.5459019     2022.576     72.45419      1.418     2.72     4.470574     20.44153      251.277        26     1.232     1.083  71.08   0
       253    512.2751    440.1227 300.2366955 +22.6585807     6541.885     72.56483      1.232     2.04     4.482499     20.44153     1028.324        32     1.116     0.934  69.17   0
       254    925.9212    440.2305 300.3655336 +22.7825531     1197.212     72.45419      1.280     2.67     3.931714     20.44153     148.1081        16     0.976     0.883  -9.68   0
       255    227.2910    439.8676 300.1481256 +22.5730572     600.1243     72.58325      1.272     2.79     4.460587     20.44153     76.44738        13     0.936     0.875  56.83   0
       256     84.7425    432.8408 300.1061052 +22.5282815     455.4237     72.43573      1.385     2.90     4.629006     20.44153     59.59054         8     0.867     0.616 -89.39   0
       257    772.6467    431.5000 300.3205887 +22.7341312      376.151     72.47264      1.294     3.32     4.296285     20.44153     50.27058         5     0.731     0.465 -18.95   0
       258    716.4369    429.0261 300.3038778 +22.7165795     1199.169     72.47264      1.343     2.38      4.29366     20.44153     160.2724        16     0.993     0.852  58.58   0
       259    626.0858    430.2235 300.2753455 +22.6898494     500.6767      72.3988      1.219     2.51     4.215861     20.44153     74.34467         9     0.866     0.640  17.23   0
       260    418.9117    426.3801 300.2121029 +22.6266467     6147.795      72.3988      1.244     2.19     4.515827     20.44153     885.6883        28     1.118     0.922  72.89   0
       261    908.4208    420.6118 300.3664484 +22.7716736     534.8347     72.43573      1.202     2.59     4.033395     20.44153     81.45988        10     0.872     0.748 -89.52   0
       262    810.8818    420.5532 300.3360601 +22.7424405     1440.956     72.45419      1.316     2.29     4.266973     20.44153     210.8985        16     0.993     0.833 -76.33   0
       263    403.4637    414.8771 300.2110320 +22.6187131     509.2892     72.52797      1.292     2.77     4.516253     20.44153     64.14882         9     0.867     0.781   6.54   0
       264    486.4802    413.0287 300.2374656 +22.6430692     301.7253     72.47264      1.099     2.55     4.771826     20.44153     61.30883         6     0.755     0.486 -78.58   0
       265    466.7466    410.9716 300.2319920 +22.6365632     315.3019     72.47264      1.129     2.73      4.74172     20.44153     49.85064         7     0.740     0.642 -69.84   0
       266    783.7471    408.3476 300.3315671 +22.7308050     487.2993     72.49109      1.139     2.22     4.311535     20.44153     74.56042         9     0.827     0.630  72.18   0
       267    306.4391    405.6531 300.1838467 +22.5869743     2595.536     72.45419      1.234     2.16     4.483052     20.44153       337.77        21     1.151     0.828  69.41   0
       268    287.9380    407.9932 300.1773333 +22.5820981     193.4267     72.41727      1.020     2.52     4.487403     20.44153     46.78984         5     0.642     0.553 -89.77   0
       269     24.8305    403.1931 300.0971205 +22.5018027     964.8965     72.45419      1.501     2.90     5.020321     20.44153     108.1518        17     1.092     0.901  67.93   0
       270    654.1474    400.1549 300.2938500 +22.6896222     237.2358     72.47264      1.105     1.77     4.271012     20.44153     63.16893         6     0.706     0.505  50.60   0
       271    253.6241    399.0900 300.1695545 +22.5692530     181.2184     72.38033      1.308     4.85     4.474102     20.44153     26.80001         5     1.380     0.483 -88.16   0
       272    275.7954    395.1308 300.1777340 +22.5747654     29480.98     72.41727      1.304     2.22     4.445187     20.44153     4322.325        69     1.264     1.142  77.65   0
       273    810.4797    392.3726 300.3450863 +22.7342230     1356.445     72.47264      1.126     2.15     4.340817     20.44153     199.7827        16     0.949     0.815 -69.93   0
       274    765.9987    390.2832 300.3319022 +22.7202979     277.7595     72.34337      1.120     3.52     4.340796     20.44153     42.85924         7     0.744     0.669 -18.93   0
       275    725.6375    381.1431 300.3222939 +22.7055805     463.5521     72.45419      1.075     2.49     4.330707     20.44153     80.78893         9     0.886     0.607  40.17   0
       276    374.2070    379.9642 300.2132666 +22.5999193     555.6753     72.47264      1.370     3.53      4.51371     20.44153     64.01346        13     1.055     0.848  76.24   0
       277    150.1682    381.1642 300.1432152 +22.5330816     315.8533     72.47264      1.094     3.38     4.640018     20.44153     48.49854         7     0.854     0.631  41.47   0
       278    686.2675    374.6935 300.3121227 +22.6919323     1855.948     72.60168      1.195     2.19     4.311896     20.44153     304.5261        18     1.014     0.830  69.68   0
       279    815.7665    371.2371 300.3535971 +22.7297333      208.918     72.49109      1.371     3.42     4.396506     20.44153     29.57157         5     0.959     0.353  45.37   0
       280    494.4116    369.5893 300.2540394 +22.6329734     346.2912     72.34337      1.119     3.40     4.376412     20.44153     49.23849         6     0.816     0.548  44.32   0
       281    901.2957    367.2755 300.3815469 +22.7542110     507.8225     72.60168      1.180     3.06     4.238049     20.44153     80.43163        10     1.002     0.676  64.24   0
       282    347.9705    359.3599 300.2117948 +22.5861386     2214.137     72.47264      1.454     2.90     4.502253     20.44153     256.9106        24     1.332     0.910  69.39   0
       283    787.0870    352.0771 300.3508795 +22.7156372     541.9233     72.58325      1.157     1.97     4.433633     20.44153     118.1787         9     0.752     0.675  64.83   0
       284    686.3770    349.9673 300.3201850 +22.6848618     350.4986     72.45419      1.281     3.53     4.324002     20.44153     35.75611         6     0.810     0.649  53.07   0
       285    669.4409    349.6837 300.3150014 +22.6797062     385.2708     72.41727      0.993     2.79     4.309388     20.44153     69.75314         7     0.917     0.489 -83.68   0
       286    637.4575    348.6012 300.3053910 +22.6698126     245.6429      72.3988      1.225     3.31     4.289843     20.44153      47.7697         5     0.998     0.320  66.20   0
       287    423.8236    338.8327 300.2420573 +22.6029842     1201.094     72.45419      1.262     2.17     4.427144     20.44153     184.3373        14     0.914     0.784  64.79   0
       288    935.3032    334.5525 300.4027757 +22.7549889     234.6214     72.49109      1.150     2.72     4.214878     20.44153       43.446         5     0.699     0.463 -20.22   0
       289    163.8637    334.1984 300.1627188 +22.5237122      144.159     72.45419      1.060     3.99     4.677639     20.44153     29.08912         6     0.785     0.581 -42.39   0
       290    668.6820    330.5263 300.3209844 +22.6739753      2182.32     72.56483      1.172     2.13     4.324038     20.44153     335.8199        18     0.940     0.863  65.70   0
       291    929.9502    324.8666 300.4042509 +22.7506018     3123.603     72.43573      1.265     2.15     4.295976     20.44153     500.9985        24     1.063     0.908  69.13   0
       292    991.1030    319.3412 300.4251174 +22.7673231     404.2645     72.52797      1.307     3.23     3.973362     20.44153     52.76234         7     0.852     0.704   6.24   0
       293    376.9955    314.4982 300.2353871 +22.5819603     705.1063     72.34337      1.367     2.71     4.318374     20.44153     94.08325        11     0.953     0.758  82.28   0
       294    301.0134    316.3974 300.2111368 +22.5597275    -183.7955      72.2879      1.088     4.12     4.248315     20.44153     26.46911         5     0.778     0.622  87.88   0
       295    999.3884    312.6783 300.4298649 +22.7678880     1696.842     72.43573      1.397     2.25     3.962115     20.44153     240.9978        23     1.194     0.994  85.69   0
       296     52.0490    308.8524 300.1362016 +22.4829037      1463.75     72.49109      1.775     3.97     5.028429     20.44153     139.1144        23     1.378     1.034 -39.21   0
       297     82.8187    308.4892 300.1458790 +22.4920284     560.7421      72.3988      1.372     2.85      4.83752     20.44153     80.95118        11     0.969     0.727 -78.90   0
       298    945.4779    305.2481 300.4154620 +22.7496114     394.2225     72.45419      1.054     2.17      4.31386     20.44153     75.22834         7     0.766     0.574  11.45   0
       299    789.5058    301.9707 300.3678997 +22.7019627     484.5754     72.38033      1.410     4.68     4.437376     20.44153     41.85681         8     0.877     0.708  42.18   0
       300    135.9129    300.8242 300.1648649 +22.5057524     483.3313     72.41727      1.380     2.52     4.717551     20.44153     63.59205         6     0.722     0.562  55.35   0
       301    930.6921    297.6953 300.4133027 +22.7430131      286.958      72.6385      1.057     2.31     4.428901     20.44153     53.70043         6     0.660     0.636 -64.77   0
       302    811.7799    293.6535 300.3775416 +22.7062433     170.3144     72.43573      0.975     2.29     4.475813     20.44153     62.85972         5     0.732     0.422  21.47   0
       303    740.4102    291.9203 300.3558626 +22.6843697     702.4319     72.41727      1.243     2.30     4.374998     20.44153     104.8291        10     0.839     0.692  23.94   0
       304    330.8324    291.4843 300.2284972 +22.5615147     490.6624     72.41727      1.307     2.75     4.209165     20.44153     64.59448         9     0.938     0.640  68.14   0
       305    831.0576    285.0465 300.3863442 +22.7095427     388.4502     72.50953      1.382     3.16     4.527601     20.44153     59.46033         7     0.951     0.536  60.83   0
       306    838.4260    281.0227 300.3899471 +22.7105927     2079.025     72.41727      1.226     2.28     4.549593     20.44153     314.5216        17     0.977     0.822  70.56   0
       307    256.9627    278.4119 300.2097675 +22.5356164     2141.634     72.43573      1.290     2.40     4.335116     20.44153     276.0626        22     1.066     0.945  44.31   0
       308    334.7805    273.4690 300.2355721 +22.5575258     1142.877     72.45419      1.450     3.24     4.237271     20.44153     113.3117        17     1.116     0.947 -59.71   0
       309     86.7638    273.5055 300.1584586 +22.4831731     399.9078     72.45419      1.408     4.40      4.87787     20.44153     45.20251         8     1.040     0.529  72.08   0
       310    736.6314    272.6621 300.3609359 +22.6777037     464.0473     72.47264      1.006     2.18     4.383262     20.44153     92.15861         9     0.807     0.657  17.89   0
       311    843.8207    269.7832 300.3952768 +22.7089776     211.6511     72.43573      1.109     2.22     4.578792     20.44153      71.5247         6     0.754     0.494  53.73   0
       312    151.6488    265.7129 300.1811504 +22.5003946     705.0693     72.45419      1.326     2.84      4.74101     20.44153     100.9624        15     1.078     0.846  51.00   0
       313    269.6549    265.4826 300.2179101 +22.5357099     314.2662     72.50953      1.463     5.55     4.314655     20.44153     34.95545         8     1.136     0.764  67.13   0
       314    689.5552    262.4369 300.3495877 +22.6606648      1630.47     72.49109      1.143     2.08     4.385531     20.44153     241.1137        19     1.021     0.852  89.69   0
       315    754.5492    261.8983 300.3700125 +22.6799769     526.4242     72.52797      1.214     2.35     4.409118     20.44153     89.48048         9     0.778     0.730  18.46   0
       316    121.4317    261.1883 300.1732280 +22.4900349     110.4343     72.45419      1.003     3.42     4.823104     20.44153     27.65438         5     0.744     0.456  70.68   0
       317    173.1872    258.9610 300.1900358 +22.5049151     551.8166     72.45419      1.229     2.54     4.680382     20.44153      87.7355        10     0.862     0.731 -69.46   0
       318    961.0455    254.7617 300.4367040 +22.7397572     747.3788     72.50953      1.232     2.25     4.372639     20.44153     141.2505        11     0.880     0.737  86.89   0
       319    693.5378    253.7847 300.3536363 +22.6593715     681.6057     72.41727      1.201     2.47     4.393228     20.44153     102.3712        11     0.919     0.705  81.11   0
       320    614.1094    253.1421 300.3291049 +22.6353937     1185.909     72.50953      1.245     2.02     4.349051     20.44153     187.1382        14     0.929     0.808 -86.14   0
       321    435.2069    249.6768 300.2745371 +22.5807936     368.3393      72.3988      1.489     3.73     4.593619     20.44153     58.81646         8     0.971     0.778 -29.64   0
       322    540.2128    244.7936 300.3088048 +22.6108560     994.1534     72.32488      1.319     2.78     4.345933     20.44153     142.8908        12     1.000     0.705  68.84   0
       323    809.5372    244.5799 300.3927699 +22.6914670     1372.154     72.41727      1.173     2.04      4.48805     20.44153     203.4279        15     0.917     0.816  52.26   0
       324    821.4477    243.7981 300.3967360 +22.6948088     784.8369     72.43573      1.276     2.03     4.527864     20.44153     115.7792         9     0.780     0.653  70.01   0
       325    867.9836    242.5720 300.4116407 +22.7083907     170.5775     72.47264      1.112     3.89     4.685912     20.44153     44.19627         6     0.995     0.467  53.03   0
       326    982.3303    234.6147 300.4498813 +22.7403359     1674.521     72.47264      1.273     2.34     4.229459     20.44153     221.9072        17     0.993     0.878   9.44   0
       327    938.3281    233.9195 300.4363830 +22.7269637     1044.658     72.58325      1.298     2.48     4.608853     20.44153     154.3626        16     1.106     0.817 -86.55   0
       328    172.3337    227.1733 300.2000853 +22.4955350     793.2754     72.43573      1.424     2.86      4.72611     20.44153     87.23878        13     0.927     0.889  75.82   0
       329     34.2452    222.1839 300.1587959 +22.4526953     2140.458     72.47264      1.420     2.60     5.117013     20.44153     219.5648        23     1.119     0.993  41.53   0
       330    857.2250    218.8246 300.4159929 +22.6983426     721.7855     72.41727      1.228     2.08     4.657157     20.44153     116.1111         9     0.845     0.596  65.49   0
       331    191.6116    215.4464 300.2098824 +22.4979485     5608.377     72.45419      1.330     2.35     4.687926     20.44153     675.7077        29     1.107     1.033  79.44   0
       332    173.0090    216.3205 300.2038165 +22.4926222      334.259      72.3988      1.320     3.62     4.768475     20.44153     40.71749         5     0.805     0.488 -50.10   0
       333    175.0695    206.3035 300.2077069 +22.4903645     604.2903     72.58325      1.351     2.95     4.808512     20.44153     73.43844        10     0.919     0.753 -65.36   0
       334    990.4951    202.6455 300.4628020 +22.7335867     18091.73     72.47264      1.318     2.22      4.15855     20.44153     2510.319        56     1.273     1.110  80.70   0
       335    835.6404    196.7298 300.4164334 +22.6855282     3445.625     72.41727      1.245     2.29     4.508969     20.44153     499.9918        25     1.067     0.946  67.62   0
       336    939.3849    195.4510 300.4491952 +22.7162190      2629.26     72.45419      1.256     2.18     4.524706     20.44153     409.8857        27     1.221     0.935 -86.23   0
       337    137.9672    192.4217 300.2006790 +22.4752558     406.8822     72.45419      1.517     5.98     4.986193     20.44153     50.36074        10     1.453     0.693  66.72   0
       338    385.0690    191.8911 300.2776866 +22.5491723     626.7587     72.58325      1.357     2.57     4.826233     20.44153     86.85705         9     0.780     0.729  57.42   0
       339    308.8105    183.7658 300.2566015 +22.5239844     637.0109     72.43573      1.417     3.78     4.498723     20.44153      69.6562        12     1.026     0.852   5.86   0
       340    313.4211    182.7009 300.2583809 +22.5250605        286.3     72.38033      1.309     3.18     4.514688     20.44153     42.66726         5     0.730     0.444 -68.23   0
       341     75.3423    181.1042 300.1848906 +22.4532301     494.6086     72.52797      1.255     3.23     5.075522     20.44153     58.38245        13     0.987     0.866  49.69   0
       342    436.4701    179.3452 300.2977503 +22.5609715     1713.059     72.49109      1.158     2.21     4.877814     20.44153     216.5582        18     0.950     0.900 -56.80   0
       343    364.8140    179.5628 300.2753849 +22.5395616      428.419     72.45419      1.225     2.56      4.74002     20.44153     75.90976         9     0.959     0.579  60.64   0
       344    498.3440    178.7433 300.3172023 +22.5793373     529.5717     72.52797      1.680     2.36     4.350398     20.44153     49.95418         6     0.686     0.603  37.54   0
       345    260.3296    174.8654 300.2444123 +22.5068976     290.5441     72.49109      1.284     3.37     4.580283     20.44153     34.58521         6     0.748     0.617  27.07   0
       346    179.7443    174.8315 300.2193700 +22.4827313     429.0589     72.47264      1.539     4.27     4.936935     20.44153     50.85815        10     1.106     0.660  12.79   0
       347    724.8593    168.8621 300.3909498 +22.6443459     331.9265     72.49109      1.207     2.06     4.429595     20.44153     70.54201         6     0.734     0.514  53.52   0
       348    607.0293    164.2046 300.3557572 +22.6077182     266.7077     72.41727      1.078     3.03     4.345402     20.44153      36.2783         5     0.800     0.482  55.72   0
       349    870.5390    163.1168 300.4382183 +22.6863124     285.4506     72.56483      1.113     1.75     4.386461     20.44153     75.85252         5     0.674     0.444  63.43   0
       350    996.5828    162.1888 300.4778270 +22.7237738     391.8318     72.41727      1.866     3.44     4.114963     20.44153     31.31168         5     0.742     0.461 -72.45   1
       351   1000.9564    159.9120 300.4799300 +22.7244279     3650.703     72.45419      1.362     2.29     4.108734     20.44153     521.3805        27     1.106     1.029  69.51   0
       352    210.5709    159.2995 300.2339911 +22.4875131     5949.168     72.38033      1.356     2.44     4.860962     20.44153     679.0684        33     1.192     1.025  63.25   0
       353    716.8527    159.3077 300.3915547 +22.6392020     339.9597     72.50953      0.989     1.92     4.449821     20.44153     65.42629         6     0.676     0.599  68.40   0
       354     61.7995    158.7478 300.1879351 +22.4427527     795.2222     72.41727      1.573     2.59      5.06546     20.44153     96.11501        12     0.921     0.818 -74.43   0
       355    182.3308    152.9092 300.2272852 +22.4772130     255.9169     72.60168      1.313     4.32     4.996307     20.44153     40.06901         7     0.853     0.624  69.23   0
       356    225.8050    150.6621 300.2415290 +22.4895996     492.0966     72.43573      1.483     2.96     4.815105     20.44153     53.66875         9     0.884     0.698  83.09   0
       357   1018.8246    148.4567 300.4892204 +22.7264806     202.7771     72.45419      1.257     3.61       4.2007     20.44153      32.4296         5     1.022     0.367 -83.95  16
       358    456.5764    144.5277 300.3153019 +22.5569941     6169.602     72.49109      1.250     2.29     4.627669     20.44153     819.7821        32     1.129     0.967  74.17   0
       359    342.1711    144.4050 300.2797461 +22.5226787     691.1441     72.43573      1.312     2.64     4.805559     20.44153      89.5852        11     0.875     0.797 -77.34   0
       360    513.5875    138.7187 300.3349310 +22.5724049     385.2666     72.43573      1.400     4.10     4.310324     20.44153     40.24033         7     1.020     0.470 -80.74   0
       361    477.0121    138.9271 300.3234787 +22.5615076     357.2749     72.47264      1.550     3.75     4.368314     20.44153     37.13538         5     0.642     0.628  87.18   0
       362    709.1290    134.1920 300.3972955 +22.6296700     908.3625     72.43573      1.690     3.98     4.592572     20.44153     120.1752        12     1.326     0.611 -70.38   0
       363    650.6928    135.2471 300.3787495 +22.6124737     311.0989     72.47264      1.151     4.32     4.542611     20.44153     47.14218         7     0.981     0.732  26.50   0
       364    801.7945    133.0161 300.4265532 +22.6570776     414.6853     72.38033      1.172     2.80      4.67336     20.44153      66.8906         7     0.858     0.581  70.57   0
       365    869.7798    130.4568 300.4485762 +22.6766942     263.7112     72.47264      1.512     4.36     4.393729     20.44153     30.16185         5     0.803     0.707  60.92   0
       366    149.6625    128.2522 300.2251288 +22.4603410     565.1654     72.50953      1.523     3.13     5.054274     20.44153     56.54257         9     0.887     0.684  11.24   0
       367    508.0799    126.8248 300.3370744 +22.5673377     478.6885     72.43573      1.276     2.56     4.291097     20.44153     79.17432         9     0.842     0.711 -69.73   0
       368    584.9468    124.5417 300.3617464 +22.5897063     6186.848     72.50953      1.296     2.32     4.367741     20.44153     912.4554        32     1.147     0.979  70.75   0
       369    359.8286    123.6163 300.2919817 +22.5219991     1369.021     72.45419      1.249     2.26     4.951221     20.44153     220.1982        17     1.018     0.865  83.66   0
       370    696.0748    120.8664 300.3975508 +22.6219306      538.282     72.52797      2.118     7.23      4.67236     20.44153     40.59425        12     2.074     0.706  83.63   0
       371    626.0852    121.8156 300.3754418 +22.6012439     879.5915     72.41727      1.245     2.41     4.496572     20.44153     135.0896        13     1.100     0.675 -87.44   0
       372    641.8698    117.7451 300.3816782 +22.6048012     678.6538     72.49109      1.571     3.36     4.575253     20.44153     75.07421        12     1.040     0.843  88.27   0
       373    911.9206    115.4226 300.4665923 +22.6849848      545.337      72.3988      1.391     2.33     4.704908     20.44153     78.60253         8     0.789     0.632  79.35   0
       374    108.8665    115.9733 300.2164329 +22.4445859     747.2194     72.43573      1.422     3.15     5.041554     20.44153     90.71333        12     0.938     0.898 -25.58   0
       375    951.3736    114.4641 300.4792069 +22.6965174     268.9091     72.43573      1.218     3.68     4.805601     20.44153     51.14576         5     0.940     0.497  -2.79   0
       376    680.4904    113.2360 300.3951707 +22.6150706     515.8797     72.43573      1.224     2.66     4.725949     20.44153     81.45807         8     0.872     0.602  77.87   0
       377    629.1306    109.5293 300.3803752 +22.5986248      2678.34     72.49109      1.202     2.15     4.545597     20.44153     433.6109        18     0.973     0.838 -87.52   0
       378    644.3365    108.1213 300.3855679 +22.6027739      853.478      72.5464      1.750     4.91     4.621624     20.44153     93.80241        16     1.692     0.718  59.00   0
       379    269.6378    110.3656 300.2682278 +22.4911658      344.873     72.50953      1.263     3.34     4.792255     20.44153     51.03037         6     0.871     0.479  -3.76   0
       380    715.5557    100.8689 300.4101060 +22.6220154     1521.407     72.41727      1.230     2.21     4.766448     20.44153     234.3261        17     0.950     0.854  83.76   0
       381    875.7305     99.1971 300.4605706 +22.6694865     317.6023      72.3988      1.174     1.89     4.468288     20.44153     64.77453         5     0.690     0.429 -77.90   0
       382    793.9282     95.2310 300.4363569 +22.6438589     299.6802     72.45419      1.520     4.47     4.988328     20.44153     38.76309         7     0.888     0.639 -51.14   0
       383    653.5457     94.0946 300.3929855 +22.6015000     805.6783     72.50953      1.303     2.42     4.724008     20.44153     104.9348        11     0.843     0.775  53.10   0
       384    459.2984     93.4001 300.3327316 +22.5431210      1124.99     72.32488      1.358     2.65     4.534258     20.44153     145.3926        16     1.047     0.963  57.38   0
       385     32.0428     93.6816 300.1997934 +22.4151547     587.6937     72.41727      1.393     2.71     4.829897     20.44153     67.38417         9     0.858     0.683 -67.47   0
       386    362.9782     91.6631 300.3033244 +22.5137646      807.758     72.43573      1.228     2.35     4.984334     20.44153     124.7719        11     0.845     0.791  65.12   0
       387    745.2239     90.1723 300.4228193 +22.6278233     474.8574     72.43573      1.221     2.33     4.828781     20.44153     73.48251         8     0.802     0.632 -76.66   0
       388   1006.0128     88.3566 300.5047176 +22.7053593     2304.772     72.45419      1.349     2.31     5.036097     20.44153     307.0635        23     1.091     1.020  35.75   0
       389    134.4864     81.8555 300.2354586 +22.4424710     3876.859     72.50953      1.461     2.49     5.004135     20.44153     426.7086        28     1.244     1.003  46.19   0
       390    702.1424     81.9182 300.4120729 +22.6125515     697.8835     72.50953      1.265     2.83     4.846805     20.44153      88.3207        10     0.857     0.739  67.59   0
       391    556.6927     78.5610 300.3678613 +22.5680302      333.383     72.45419      1.105     4.30     4.466243     20.44153     46.85969         9     1.208     0.488  49.05   0
       392    460.2432     79.0418 300.3376819 +22.5392786      353.332     72.56483      1.357     2.34     4.458455     20.44153     47.25129         5     0.752     0.478 -32.29   0
       393    695.9187     74.0532 300.4126845 +22.6084270     769.1235     72.49109      1.219     2.63     4.875909     20.44153     129.3115        12     0.877     0.811  22.67   0
       394    250.3531     73.9181 300.2740507 +22.4749192     1264.457     72.45419      1.342     2.53      4.82184     20.44153      151.359        14     0.963     0.824  35.54   0
       395    477.0670     70.7853 300.3455954 +22.5419459     294.7702     72.43573      1.618     3.51      4.28415     20.44153     49.88047         5     0.996     0.529  69.39   0
       396    733.3476     69.2083 300.4259172 +22.6182405     782.2573     72.45419      1.427     3.36      4.88009     20.44153     83.36402        10     1.021     0.641  79.45   0
       397    656.9968     68.9724 300.4022074 +22.5953123      529.014     72.41727      1.311     2.81     4.813379     20.44153     85.26582         9     0.841     0.770  32.86   0
       398    753.5731     65.3348 300.4334757 +22.6231820     2195.691     72.43573      1.209     2.27     4.934862     20.44153     296.6584        19     1.023     0.854  89.07   0
       399    459.0737     63.8644 300.3422395 +22.5345674     486.3826     72.49109      1.322     2.63     4.397641     20.44153      74.8243         9     0.783     0.748 -42.40   0
       400    136.6973     60.8225 300.2429657 +22.4370947     1132.162     72.38033      1.832     3.17     4.993305     20.44153     118.5503        17     1.099     0.975   1.66   0
       401    928.5392     58.5979 300.4902037 +22.6736155     705.0009     72.43573      1.226     2.55     5.040311     20.44153     106.6125        13     0.942     0.823  32.73   0
       402    702.1076     57.9101 300.4198475 +22.6056392     788.5984     72.62009      1.164     2.29     4.927296     20.44153     152.4497        12     0.962     0.761  59.76   0
       403    459.9049     50.2445 300.3469145 +22.5309029     364.7168     72.47264      1.159     2.15     4.328047     20.44153     53.17113         7     0.704     0.630  10.98   0
       404    152.3501     50.0255 300.2513313 +22.4386862     206.7102     72.47264      1.328     4.42     4.987631     20.44153     25.06852         6     0.957     0.582  -0.89   0
       405    286.5565     47.5532 300.2938574 +22.4781957     350.0772     72.49109      1.448     4.21       4.3561     20.44153     38.28449         8     0.992     0.599  48.40   0
       406    554.5157     42.8172 300.3787738 +22.5571057      825.785     72.41727      1.334     3.11     4.863933     20.44153      106.971        16     1.131     0.810  71.75   0
       407    786.7903     41.8959 300.4514279 +22.6263864      288.028     72.38033      1.356     4.33     5.055145     20.44153     37.07708         5     0.766     0.697  85.83   0
       408    689.4781     40.4120 300.4215867 +22.5968274     277.4861     72.43573      1.286     2.84     4.988504     20.44153     48.62412         7     0.836     0.815  81.71   0
       409    288.9760     40.5879 300.2968681 +22.4769200     330.1277     72.45419      1.457     3.92      4.27116     20.44153     36.05295         5     0.760     0.623  85.73   0
       410    163.8389     40.0038 300.2581514 +22.4392518     532.3707     72.47264      1.486     2.50     4.982305     20.44153     79.66489         9     0.896     0.651 -33.18   0
       411    717.8449     37.6393 300.4313234 +22.6045230     775.3769     72.52797      1.253     2.24     4.993631     20.44153     120.6918        11     0.868     0.734  76.74   0
       412    526.2148     35.8592 300.3722188 +22.5466302     1911.927     72.41727      1.316     2.10     4.776481     20.44153     287.5121        22     1.121     0.918  71.85   0
       413    248.9871     33.4001 300.2867633 +22.4628729     768.5495      72.2694      1.353     2.89     4.685682     20.44153     103.6959        14     1.032     0.875 -67.24   0
       414    483.4475     29.6408 300.3609222 +22.5320341     1313.813     72.50953      1.284     2.48      4.27731     20.44153     170.6305        17     1.020     0.904  53.93   0
       415    588.8878     26.2432 300.3948501 +22.5626352     1395.483     72.45419      1.317     2.59     4.807224     20.44153     179.7518        18     1.017     0.927  79.06   0
       416    184.2078     25.4655 300.2691962 +22.4411815      471.463     72.43573      1.137     2.41     4.976221     20.44153     72.77267         8     0.821     0.615  60.78   0
       417    414.8123     23.7566 300.3414699 +22.5097847      307.588     72.45419      2.215     3.67     4.128688     20.44153     38.26274         5     0.884     0.438  46.54   0
       418    232.9771     23.3126 300.2850558 +22.4551781     432.6961     72.38033      1.218     2.98     4.869556     20.44153     60.35238         7     0.830     0.562  18.46   0
       419     40.0452    988.7036 299.9115018 +22.6742074     3263.765     72.47264      8.690    34.52     19.29967     20.44153     76.83925       349    10.029     3.299 -22.30  19
       420     56.3140     18.1904 300.2318098 +22.4007595     1403.441     72.38033      1.486     3.01      4.88243     20.44153     150.9023        19     1.111     0.989  82.55   0
       421    900.0823     17.2534 300.4947356 +22.6532074     177.7294     72.49109      1.007     3.08     5.184929     20.44153     58.92498         5     0.953     0.395  60.96   0
       422    540.2820     14.8719 300.3834026 +22.5448113     216.7768     72.58325      1.107     2.32     5.185636     20.44153     48.44087         7     0.703     0.639  78.44   0
       423    119.0221   1021.8127 299.9252580 +22.7074145     586.4696     65.77981      6.332     4.31     23.47119     20.44153      35.6041         5     1.450     0.365   5.60  25
       424    417.6832   1019.0998 300.0189953 +22.7963150      1033.91     72.62009      1.677     3.67     3.608997     20.44153     84.27242        19     1.187     1.033 -31.59  16
       425    700.9769   1018.9175 300.1072442 +22.8812766     358.8969     72.41727      1.578     2.96     3.660413     20.44153     41.70594         5     0.856     0.643  35.48  16
       426    348.4968   1017.0117 299.9981540 +22.7749469     6584.775     72.34337      1.685     3.29     3.527713     20.44153      623.093        39     1.338     1.283  21.47  16
