#   1 NUMBER                 Running object number                                     
#   2 X_IMAGE                Object position along x                                    [pixel]
#   3 Y_IMAGE                Object position along y                                    [pixel]
#   4 ALPHA_J2000            Right ascension of barycenter (J2000)                      [deg]
#   5 DELTA_J2000            Declination of barycenter (J2000)                          [deg]
#   6 FLUX_APER              Flux vector within fixed circular aperture(s)              [count]
#   7 FLUXERR_APER           RMS error vector for aperture flux(es)                     [count]
#   8 FLUX_RADIUS            Fraction-of-light radii                                    [pixel]
#   9 FWHM_IMAGE             FWHM assuming a gaussian core                              [pixel]
#  10 BACKGROUND             Background at centroid position                            [count]
#  11 THRESHOLD              Detection threshold above background                       [count]
#  12 FLUX_MAX               Peak flux above background                                 [count]
#  13 ISOAREA_IMAGE          Isophotal area above Analysis threshold                    [pixel**2]
#  14 A_IMAGE                Profile RMS along major axis                               [pixel]
#  15 B_IMAGE                Profile RMS along minor axis                               [pixel]
#  16 THETA_IMAGE            Position angle (CCW/x)                                     [deg]
#  17 FLAGS                  Extraction flags                                          
         1    729.5543     24.3413 300.3929106 +22.6014354     646.4568     72.46397      1.291     3.15      5.26456     20.43388     107.7622        14     1.137     0.801  62.11   0
         2    778.6512     12.6526 300.4119989 +22.6127641     741.5527     72.46397      1.438     2.15     5.238125     20.43388     114.4651        12     1.037     0.717  -8.32   0
         3    210.5618     11.8218 300.2354219 +22.4424484     3911.325     72.44553      1.507     2.51     5.773946     20.43388     515.7182        32     1.247     1.129  53.24   0
         4      2.8171     12.1261 300.1707613 +22.3802928     332.9324      64.1715      1.472     3.44     5.738513     20.43388     46.82224         5     1.064     0.454 -30.00  24
         5    536.3124      9.0036 300.3376878 +22.5391860     259.6003     72.35326      1.234     2.01       5.1187     20.43388     54.66871         5     0.734     0.444  24.43   0
         6    771.9941      4.3538 300.4126128 +22.6083845     869.2294     70.06408      1.331     2.44     5.266988     20.43388      128.853        15     1.091     0.819 -63.08  16
         7    326.5519      4.0274 300.2740194 +22.4749492     1184.831     69.08466      1.382     2.79     5.277728     20.43388     157.6887        17     1.107     0.873  24.24  16
         8    737.4567      3.6575 300.4020748 +22.5978499     336.5294     67.77645      1.249     2.82     5.322441     20.43388      45.3807         7     0.823     0.607  20.35  16
         9    553.6857      1.6605 300.3454764 +22.5422751     177.1099     58.34795      1.062     2.75     5.189215     20.43388     49.64563         5     0.816     0.660 -47.80  24
        10    864.8575      1.3845 300.4425238 +22.6353133     174.4192     56.62803      0.849     1.76     4.776134     20.43388     53.26868         5     0.673     0.439 -24.22  24
        11    672.5393    994.7232 300.0600820 +22.8631820     8462.066     72.48241      1.900     4.39     3.910916     20.43388     514.6624        47     1.488     1.439  37.43   3
        12    288.2655   1019.9109 299.9322925 +22.7551188     3051.296     72.02009      5.845    24.53     24.39313     20.43388     77.44788       152     4.727     3.533  86.72  27
        13    239.9182    994.3990 299.9255598 +22.7332924     4783.577     72.31631      8.153    21.78     58.71589     20.43388     98.63535       287     5.355     4.532 -76.91  19
        14    278.2006   1006.7267 299.9334521 +22.7483174     3683.083     72.31631     10.278    44.10     31.44137     20.43388     101.0311       498    16.311     3.309 -17.19  19
        15    259.5445    993.6230 299.9319142 +22.7389606     6561.779     72.46397     12.809    50.38     42.35258     20.43388     118.6719       795    10.916     6.501 -43.94  19
        16    277.6367    982.4833 299.9411635 +22.7411964     9280.941     72.40864     11.581    32.02     24.10336     20.43388     201.7469       875    11.735     5.207  61.61  27
        17      3.9616   1021.4600 299.8434374 +22.6702077     2410.496     63.37535      8.494    28.20    -31.44969     20.43388     61.35238       152     6.467     3.414 -22.28  27
        18    537.1889    983.5446 300.0215713 +22.8193784     399.8711     72.42709      1.888     5.67     3.637833     20.43388     38.70673         7     1.128     0.804 -19.32   0
        19    967.2299    978.7571 300.1571283 +22.9469456       403.09     72.46397      1.726     3.78     3.678469     20.43388     41.56105         5     0.841     0.488 -63.22   3
        20    964.6022    978.3878 300.1564289 +22.9460521     438.5821     72.24237      1.638     5.61     3.688077     20.43388     39.17011        11     1.198     0.741 -54.00   2
        21    525.5215   1008.8727 300.0096992 +22.8231453     379.4576     72.53769      1.637     6.62     3.710126     20.43388     34.59246         9     1.456     0.845  27.93   0
        22    115.3932    924.9114 299.9094576 +22.6759910     4042.077     72.33479     16.724    52.32     11.47587     20.43388     97.88492       900    12.005     6.326 -35.84   3
        23    183.4462    964.6353 299.9176869 +22.7078078     1578.098     72.46397      3.556    10.53     48.17241     20.43388      54.9477        30     2.521     1.459  55.15   2
        24    186.5398    963.3053 299.9190811 +22.7083551     1069.957     72.51926      3.413     7.06     46.44426     20.43388     54.95906        12     1.806     0.772  54.12   3
        25    691.0273    961.9434 300.0765049 +22.8593178     6774.287     72.42709      1.806     3.91     3.821214     20.43388      470.857        46     1.460     1.375  32.54   0
        26     20.6470    980.8636 299.8618256 +22.6635841     1259.351     72.46397      6.246    20.00    -3.453707     20.43388     58.33257        47     6.151     1.806  25.50  19
        27    203.3808    976.9731 299.9198700 +22.7173290     947.4055     72.44553      2.846     9.02     57.16797     20.43388     50.39035        20     2.330     0.975  68.76   3
        28      2.2259   1013.7461 299.8454079 +22.6674759     2002.105      61.2962      3.475    13.31    -31.26639     20.43388     66.84993        56     3.618     1.362 -77.72  27
        29    571.1375    956.7047 300.0408714 +22.8218598     363.6161     72.51926      1.489     5.15     3.585428     20.43388     48.37793         6     1.265     0.593 -16.54   0
        30    117.9727    957.6853 299.8996000 +22.6861611     5078.891     72.42709     23.404   105.39     37.23779     20.43388     245.7733      3142    17.738    17.375 -61.52  19
        31    842.1283    956.3840 300.1253992 +22.9030239     434.3033     72.42709      1.698     4.49     3.866072     20.43388     30.08664         5     1.321     0.434  31.62   0
        32     18.6778    954.9472 299.8696436 +22.6555649     550.9123     72.46397      4.359     5.56   -0.5978832     20.43388     31.75037         9     1.177     0.739  74.83   0
        33    599.4744    952.6194 300.0510235 +22.8291863     1635.557     72.42709      1.726     4.39     3.622967     20.43388     119.4903        22     1.234     1.189 -76.62   0
        34    493.4547    949.0933 300.0191647 +22.7963747     1104.709     72.48241      1.769     3.79     3.467314     20.43388     95.28313        18     1.151     1.052  42.03   0
        35    423.9436    947.0970 299.9981824 +22.7749491     6613.205     72.51926      1.783     3.74     3.527912     20.43388      564.759        45     1.461     1.330   6.30   0
        36    456.5875    934.3971 300.0124709 +22.7810988     674.1909     72.26086      2.092     4.41     3.474136     20.43388     48.17276        11     1.072     0.943  13.22   0
        37    142.2110   1021.4484 299.8863901 +22.7117163     4877.556     67.28179      7.174    29.86     91.14909     20.43388     127.4894       271     7.415     3.338   6.88  27
        38    160.1522    925.2598 299.9232535 +22.6895262     1100.135     72.48241      9.161    10.36     20.71054     20.43388     40.34676        17     1.845     1.623  46.30   3
        39    970.3231    925.9304 300.1752776 +22.9327002     2119.937     72.53769      2.006     4.95     3.679279     20.43388     125.6547        33     1.539     1.359 -32.09   0
        40    620.0212    922.7271 300.0671447 +22.8267692      393.742     72.44553      1.481     5.71      3.51934     20.43388     32.44275        10     1.365     0.775  86.47   0
        41    469.5432    922.1815 300.0204758 +22.7814804     257.9869     72.42709      1.714     4.32     3.453879     20.43388     26.93738         5     0.913     0.583  44.21   0
        42    759.3140    915.1306 300.1130072 +22.8663534     841.3528     72.53769      2.164     7.67     3.894584     20.43388     47.46038        17     1.512     1.090  28.25   0
        43    793.9871    908.9417 300.1258254 +22.8749707      1038.12     72.39018      1.778     5.09     3.926376     20.43388      67.1126        19     1.280     1.091 -70.35   0
        44    571.1154    909.6062 300.0561833 +22.8083371     463.9064     72.35326      1.788     6.26     3.439194     20.43388     47.04324        12     1.505     0.810  38.76   0
        45    121.8182   1016.6406 299.8816173 +22.7042156     4459.732     72.44553      8.738    37.95     87.60542     20.43388     94.09032       470     8.200     5.623 -75.52  27
        46    678.2117    992.6942 300.0625090 +22.8643007     9557.117     72.37172      1.933     4.51     3.903456     20.43388     589.4679        48     1.482     1.454 -32.29   3
        47      4.3585    905.5490 299.8812608 +22.6371067     256.7336     70.08315      1.235     4.79     3.529018     20.43388     43.72856         7     1.012     0.643 -47.32  16
        48    816.1349    902.7184 300.1347523 +22.8798227     11392.26     72.53769      1.758     3.81     3.955424     20.43388     821.9863        48     1.424     1.353 -46.85   0
        49   1006.7808    902.4990 300.1942708 +22.9368940      512.224     72.35326      1.776     5.85      3.69829     20.43388     37.52321        10     1.197     0.804  39.25   0
        50    861.9654    902.8820 300.1489854 +22.8936066     467.5452     72.39018      1.662     5.42     3.961246     20.43388     32.76178         9     1.319     0.629 -32.52   0
        51    772.6263    995.6492 300.0909634 +22.8934601     721.8627     72.44553      2.023     7.24      3.87906     20.43388     52.02214        15     1.322     1.109  43.50   0
        52    949.1923    896.5752 300.1782349 +22.9179363     325.0494     72.42709      1.809     5.18     3.876859     20.43388     26.69362         5     1.250     0.607 -27.54   0
        53    127.5625    894.0946 299.9232602 +22.6708083     1090.765     72.40864      3.754     4.61     10.07091     20.43388     63.90135        17     1.273     1.062 -20.50   0
        54    521.3556    890.7994 300.0468081 +22.7880163     410.1416     72.42709      1.603     5.31     3.420485     20.43388     51.17225         8     1.004     0.833 -48.55   0
        55    867.3958    889.8213 300.1549259 +22.8914833     457.5288     72.39018      2.012     5.15     4.003038     20.43388      30.9001         5     0.991     0.758 -19.30   0
        56    824.6772    884.8719 300.1432188 +22.8772584     1390.009     72.53769      1.671     4.19     4.019166     20.43388     105.0833        21     1.259     1.047 -23.49   0
        57    117.7825    884.8632 299.9232229 +22.6652259     592.6511     72.40864      3.593     7.22     7.854784     20.43388     36.36917         9     1.468     0.995  69.00   0
        58   1007.2529    882.4376 300.2009424 +22.9312723     541.8995     72.44553      2.156     5.84     3.855311     20.43388     44.41871         8     1.340     0.716 -73.43   2
        59    677.0159    882.1607 300.0980890 +22.8322147      530.951     72.44553      1.633     4.85     3.679327     20.43388     42.76613         9     0.931     0.739 -12.67   0
        60    862.6600    878.0980 300.1572620 +22.8866971     984.0989     72.50084      1.933     4.88     4.045158     20.43388     60.22497        20     1.243     1.159  73.09   0
        61    203.1277    878.2034 299.9519130 +22.6889308      356.432     72.37172      1.896     4.37     9.512259     20.43388     32.68835         5     0.777     0.701 -48.41   0
        62    911.1420    869.6113 300.1751378 +22.8987890     624.2251     72.39018      1.771     5.75     4.005012     20.43388     53.43455        16     1.327     0.986  -7.97   0
        63    762.6324    868.5499 300.1291896 +22.8539738     839.1312     72.46397      1.818     5.32      3.93105     20.43388     62.36229        15     1.255     0.930   4.97   0
        64     23.0509    867.1611 299.8995483 +22.6317143     271.2296     72.44553      1.194     3.35     4.513929     20.43388     45.53141         6     0.891     0.469 -39.65   0
        65    774.2355    865.6458 300.1337498 +22.8566180     585.0198     72.46397      1.804     3.34     3.977282     20.43388     57.62661         7     1.027     0.660  31.15   0
        66    475.1674    864.7851 300.0408909 +22.7666980     4121.729     72.40864      1.581     3.11     3.474069     20.43388      459.598        30     1.231     1.186 -16.45   0
        67    253.4464    853.4771 299.9755959 +22.6969387     303.7188     72.42709      1.734     5.07     5.615608     20.43388     37.21407         7     1.224     0.595 -38.92   0
        68    518.6932    852.9850 300.0582753 +22.7763657     369.3766     72.35326      1.762     4.38     3.511257     20.43388     29.95044         6     0.903     0.604  -0.58   0
        69    137.5280    853.0097 299.9397154 +22.6620186     338.7172     72.40864      1.385     2.39     6.346476     20.43388      44.3626         6     0.758     0.499 -88.39   0
        70    200.4874    850.3594 299.9601453 +22.6801530     588.8105     72.40864      1.583     4.19     6.688132     20.43388     63.82221        15     1.235     0.902  44.23   0
        71    177.4792    847.4602 299.9539361 +22.6724170     1651.146     72.48241      1.784     4.24     6.844289     20.43388     142.8647        22     1.297     1.131  28.06   0
        72    109.7692    848.3323 299.9326102 +22.6523461     351.5411     72.40864      1.860     3.80     5.027975     20.43388     32.00995         5     1.002     0.413  84.69   0
        73   1003.6400    835.2511 300.2151593 +22.9166333      2167.93     72.42709      1.929     4.48     4.060794     20.43388     120.0331        30     1.462     1.277 -42.57   0
        74    787.1280    828.8139 300.1497435 +22.8499055     531.2603     72.42709      1.478     3.69     4.034381     20.43388     68.38624        13     1.046     0.942  84.26   0
        75    209.3465    828.6927 299.9699430 +22.6765972     316.5225     72.48241      1.678     4.66     5.700333     20.43388     39.73498         7     0.880     0.841  47.25   0
        76    655.1343    822.9160 300.1105364 +22.8086459     4798.269     72.53769      1.542     3.23     3.773497     20.43388     489.9346        32     1.226     1.196  38.65   0
        77    206.6179    984.0772 299.9185654 +22.7203375     1657.815     72.42709      4.068    15.70     62.79922     20.43388     46.91941        47     3.118     2.198  83.68   2
        78    457.5046    819.8752 300.0499951 +22.7485127     610.4577     72.57452      1.443     3.48     3.840897     20.43388     71.48294        12     1.071     0.779 -29.41   0
        79    205.4473    816.7259 299.9726210 +22.6719949     1267.491     72.42709      1.575     3.20     5.225269     20.43388     159.0591        19     1.210     0.980  43.05   0
        80    675.7966    815.6681 300.1193288 +22.8127592     622.6562     72.40864      1.462     3.84     3.809397     20.43388     67.35117        16     1.163     0.925   1.73   0
        81    831.2322    802.7512 300.1719632 +22.8556382     4178.884     72.46397      1.632     3.70     4.093285     20.43388     352.5909        33     1.285     1.203  14.90   0
        82   1003.1725    796.9202 300.2274755 +22.9054799     1367.448     72.44553      0.511     2.24     4.166875     20.43388     925.3386         6     0.462     0.331 -33.69   0
        83    240.3109    796.5259 299.9900257 +22.6766613     377.7166     72.59293      1.250     3.14     4.497165     20.43388     54.26704         6     0.867     0.460 -86.29   0
        84    548.2201    795.1857 300.0862578 +22.7686301      580.912     72.39018      1.474     3.65     3.881092     20.43388     60.60409        12     1.050     0.782  -4.13   0
        85    194.4529    792.9523 299.9769311 +22.6618769      1027.26     72.46397      1.814     3.74     4.511593     20.43388     104.7564        20     1.255     1.098  26.60   0
        86    609.9882    788.4529 300.1076792 +22.7852167     628.6317     72.42709      1.860     4.63     3.896864     20.43388     60.10867        12     1.316     0.706  12.48   0
        87    344.2573    785.1773 300.0260397 +22.7045888     53885.23     72.42709      1.580     3.01     4.189483     20.43388     5828.521        90     1.407     1.356  -1.48   0
        88    602.0735    784.3925 300.1065344 +22.7816782     1663.146     72.37172      1.519     2.84      3.90621     20.43388     153.0201        21     1.132     0.969  12.74   0
        89   1014.9581    783.5501 300.2354985 +22.9051686     865.4785     72.44553      1.843     4.98     4.246379     20.43388     59.14427        21     1.327     1.125   9.70   0
        90    272.2979    783.3369 300.0042583 +22.6824743     458.0771     72.51926      1.865     6.98     4.497454     20.43388     38.40582        11     1.520     0.900   5.33   0
        91    317.8316    783.3238 300.0184229 +22.6961302     244.8843     72.42709      1.611     4.87     4.350801     20.43388     27.75491         7     0.993     0.675 -10.73   0
        92     30.2687    780.0187 299.9301171 +22.6088964     904.5596     72.42709      1.874     3.90     4.278903     20.43388       88.549        13     1.341     0.906 -52.05   0
        93    631.0975    780.1564 300.1169501 +22.7891632     871.3222     72.42709      1.454     3.54     3.911417     20.43388     89.74142        15     1.125     0.864  65.43   0
        94    641.9921    778.7491 300.1208007 +22.7920251     526.7382     72.42709      1.392     3.52     3.911874     20.43388     62.70642         9     0.967     0.648 -26.77   0
        95    962.2877    776.4266 300.2213846 +22.8873435     267.9227     72.40864      1.372     5.76     4.295305     20.43388     29.04214         7     1.068     0.873  23.29   0
        96    747.3848    775.0441 300.1548381 +22.8225520     513.3338     72.44553      1.607     3.04      3.91156     20.43388     61.88108         9     1.066     0.775 -12.02   0
        97    542.2480    772.0703 300.0919121 +22.7602039     334.4031     72.40864      1.637     3.08     3.930507     20.43388     41.94118         6     0.927     0.713  34.88   0
        98    785.0120    765.4113 300.1696949 +22.8310621      611.634     72.31631      1.406     3.63     4.190618     20.43388     72.41939        13     1.121     0.804 -26.76   0
        99    393.9811    762.4081 300.0489086 +22.7129691     31698.75     72.39018      1.530     2.97     4.098827     20.43388      3308.26        75     1.358     1.316  27.82   0
       100    408.2142    762.9567 300.0531586 +22.7173952     2168.511     72.44553      1.585     3.20     4.086428     20.43388     239.5481        27     1.257     1.174 -64.79   2
       101    405.1278    756.9576 300.0541481 +22.7147479     670.3341     72.40864      1.794     3.64     4.089137     20.43388     73.24603        11     1.136     0.722 -23.48   2
       102    917.1465    758.4666 300.2131445 +22.8686596     2787.268     72.46397      1.641     3.63     4.395607     20.43388     202.8004        30     1.313     1.186  12.95   0
       103    946.4070    756.6832 300.2228491 +22.8769132     367.1418     72.35326      1.680     5.25     4.411503     20.43388     35.59649         8     1.204     0.646  59.24   0
       104    674.9624    754.6636 300.1388989 +22.7949923     910.8057     72.42709      1.394     3.03     3.963977     20.43388     90.58469        13     0.949     0.869  24.57   0
       105    511.2689    754.3455 300.0880291 +22.7458271     633.6426     72.46397      1.928     3.81     3.917698     20.43388     47.43311         9     0.942     0.850  13.74   0
       106    276.4802    754.2023 300.0150278 +22.6753703     774.1404     72.33479      1.514     3.39     4.489755     20.43388     97.34139        16     1.053     1.003  41.09   0
       107     81.1843    749.7759 299.9557630 +22.6155045      474.729     72.42709      1.574     6.57     4.267673     20.43388     59.90601        11     1.362     0.889  44.85   0
       108    522.0670    749.1813 300.0930688 +22.7475823     786.2246     72.40864      1.417     3.15     3.943458     20.43388     96.76129        15     1.094     0.872  14.97   0
       109    923.1852    746.3200 300.2189755 +22.8669789     541.1149     72.40864      1.514     4.26     4.473662     20.43388     45.78643        13     1.085     0.862   1.55   0
       110    423.7885    745.7107 300.0636095 +22.7171164     409.6064     72.37172      1.564     6.19     4.055382     20.43388     44.48716        10     1.259     0.856   5.67   0
       111    467.9160    744.1364 300.0778534 +22.7298972     454.0017     72.51926      1.348     2.97     3.910267     20.43388     61.03084         7     0.816     0.672 -39.48   0
       112    380.4545    744.2762 300.0505931 +22.7037088     295.8849     72.46397      1.377     2.82     4.111733     20.43388     49.45938         5     0.873     0.492  84.07   0
       113    109.9721    743.5436 299.9667330 +22.6223558     659.0295     72.42709      1.908     4.77     4.186923     20.43388     62.01192        12     1.345     0.927 -32.14   0
       114    676.8170    743.4209 300.1431306 +22.7923197     370.8371     72.40864      1.401     2.20     3.988991     20.43388     50.60607         5     0.681     0.471 -17.60   0
       115    901.0871    741.2624 300.2137284 +22.8589054      388.735     72.51926      1.444     5.45     4.485062     20.43388     42.96603         8     1.237     0.678  15.69   0
       116    273.8029    738.6390 300.0192530 +22.6701018      456.232     72.46397      1.484     3.92     4.468431     20.43388      67.8178        11     1.004     0.915 -34.20   0
       117    597.2762    729.4846 300.1228863 +22.7644753     378.4219     72.53769      1.291     3.05     4.046345     20.43388     60.23069         6     0.788     0.500  -0.47   0
       118    567.1091    727.6265 300.1140967 +22.7548982     610.9532     72.37172      1.491     5.25     4.023916     20.43388     59.66533        15     1.205     0.955  18.99   0
       119    476.1743    726.5219 300.0861479 +22.7273173     384.8707     72.42709      1.244     3.74     3.878857     20.43388     54.87167         6     0.822     0.488  -9.21   0
       120    983.5643    723.7474 300.2451431 +22.8785797     4589.786     72.44553      1.664     3.55     4.533358     20.43388      377.809        33     1.280     1.258  74.80   0
       121    589.0354    724.6778 300.1218823 +22.7606247     1238.195     72.39018      1.401     2.77     4.053319     20.43388     148.9956        16     1.015     0.900   0.90   0
       122    508.6970    724.1882 300.0970292 +22.7363988     340.4881     72.31631      1.620     3.68     3.923805     20.43388     49.19223         6     1.101     0.471 -45.35   0
       123    670.7729    719.5140 300.1490171 +22.7836426      263.838     72.42709      1.293     2.63     3.999738     20.43388     50.65832         5     0.728     0.467 -18.74   0
       124    972.0723    715.2968 300.2443048 +22.8727090     1682.584     72.55611      1.651     3.58     4.532006     20.43388     128.2989        23     1.202     1.139   4.00   0
       125    350.8469    709.9534 300.0525361 +22.6849790     341.8836     72.42709      1.844     3.84     4.033265     20.43388     28.41912         5     0.816     0.519 -35.97   0
       126    335.1558    708.7766 300.0480376 +22.6799353     865.4102     72.48241      1.505     3.43      4.16589     20.43388     98.60437        17     1.219     0.899 -19.49   0
       127    200.4988    709.1204 300.0060540 +22.6396425     300.9026     72.55611      1.528     4.59     4.309371     20.43388     38.85809         6     1.334     0.449  33.67   0
       128    798.3427    706.4359 300.1930164 +22.8181163     2542.885     72.42709      1.561     2.86     4.445084     20.43388     238.6036        28     1.301     1.075   1.95   0
       129   1003.1461    705.2989 300.2572468 +22.8791430     1607.717     72.51926      1.701     3.48      4.53507     20.43388      139.434        28     1.415     1.188 -56.50   0
       130     20.7072    696.4535 299.9543016 +22.5820633     838.9333     72.48241      1.781     4.42     4.550767     20.43388     78.96124        15     1.215     1.138  -3.96   0
       131    880.6605    692.2301 300.2232937 +22.8386979     567.0715     72.46397      1.493     4.57     4.487715     20.43388     57.18882        14     1.232     0.853  48.23   0
       132    183.6284    692.6843 300.0061502 +22.6298660      680.647     72.42709      1.767     5.53     4.409632     20.43388     60.20967        13     1.156     1.112 -29.33   0
       133    916.7963    683.3856 300.2374353 +22.8469814     149365.6     72.27935      1.561     3.02     4.511941     20.43388     14351.89       158     1.461     1.432 -13.25   0
       134    422.6782    688.4182 300.0818811 +22.7003389     317.8557     72.42709      1.542     4.17     3.900229     20.43388     29.31189         5     1.025     0.484  -5.92   0
       135    678.9619    686.9665 300.1621442 +22.7767495     417.4599     72.46397      1.385     3.02     3.961156     20.43388      55.8442         8     0.897     0.710 -63.52   0
       136    769.0963    683.6219 300.1913147 +22.8027992      789.525     72.33479      1.535     3.16     4.209465     20.43388     88.79452        14     1.047     0.873  52.34   0
       137    521.4395    684.3012 300.1139565 +22.7287677     302.7771     72.42709      1.500     3.45     3.920478     20.43388     34.74744         5     0.762     0.452  70.50   0
       138     80.4400    682.1199 299.9775148 +22.5958765     506.9832     72.39018      2.128     6.75     4.436813     20.43388      40.8151         9     1.347     0.948  41.13   0
       139    949.4314    676.0970 300.2499812 +22.8546622     530.7975     72.39018      1.686     5.60     4.523299     20.43388     57.00236        10     1.283     0.741  38.72   0
       140    602.8552    672.1845 300.1432426 +22.7496939      1580.14     72.40864      1.358     3.21      4.31653     20.43388     175.6446        17     1.029     0.916  89.87   0
       141    784.2405    669.5441 300.2006085 +22.8032927     9321.983     72.40864      1.422     2.66      4.34051     20.43388     1044.822        40     1.198     1.135  26.64   0
       142    285.7612    664.4707 300.0470703 +22.6524062     4844.447     72.39018      1.505     2.89     4.545895     20.43388     534.2101        33     1.206     1.161  12.79   0
       143    367.7835    662.4862 300.0732269 +22.6764346     1209.646     72.39018      1.504     2.65     3.954663     20.43388     156.5723        19     1.225     0.959  54.56   0
       144    243.5974    660.2077 300.0353443 +22.6385366      447.255     72.24237      1.473     2.20     4.545951     20.43388     73.47713         8     0.805     0.638 -40.20   0
       145    576.1269    658.0986 300.1394959 +22.7376374     829.2385     72.57452      1.346     2.97     4.225004     20.43388     97.50613        12     1.018     0.729  10.80   0
       146    567.7341    650.2910 300.1394191 +22.7328797     3360.765     72.55611      1.354     2.58     4.235985     20.43388     393.0922        26     1.088     1.015  45.62   0
       147    558.0584    643.9941 300.1384521 +22.7281713     1524.622     72.39018      1.391     2.68     4.238718     20.43388     189.2619        20     1.163     0.914  -1.52   0
       148    486.5026    643.4302 300.1163597 +22.7065594     320.5616     72.37172      1.367     4.53     4.112784     20.43388     44.72944         7     0.996     0.647 -43.81   0
       149    951.5505    641.8149 300.2617803 +22.8454444     415.8374     72.46397      1.333     3.51     4.514852     20.43388     52.62379         8     0.887     0.646  28.81   0
       150    468.6567    641.3379 300.1114850 +22.7006087     183.8972     72.48241      1.032     2.54     4.121237     20.43388     60.90921         5     0.712     0.475 -88.16   0
       151    221.2952    640.2789 300.0348842 +22.6261287      493.947     72.53769      1.298     3.15     4.545568     20.43388      95.2509        11     1.096     0.694  -6.44   0
       152    235.3758    638.6016 300.0398067 +22.6298706     606.9639     72.37172      1.423     3.49     4.545934     20.43388     78.74982        11     1.044     0.785  33.77   0
       153   1004.9258    635.3059 300.2805440 +22.8595585     502.7336     72.57452      1.421     3.63     4.527622     20.43388     55.79632        11     0.962     0.848 -18.69   0
       154    261.3199    635.6186 300.0488425 +22.6367959     476.1861     72.42709      1.363     2.44     4.545747     20.43388     60.97723         7     0.754     0.608  23.13   0
       155    292.4870    635.2695 300.0586479 +22.6460429     311.7498     72.55611      1.304     4.04     4.530128     20.43388     50.44615         7     0.906     0.650 -20.88   0
       156    582.1281    634.3381 300.1490834 +22.7326128     481.2625     72.46397      1.343     2.63     4.369378     20.43388     58.53556         7     0.803     0.587 -21.76   0
       157    482.7543    633.6888 300.1183575 +22.7026388      1791.33     72.40864      1.332     2.83     4.182151     20.43388     246.5008        17     0.991     0.914  20.00   0
       158    516.5891    633.1727 300.1290570 +22.7126334     263.6194     72.42709      1.216     2.43     4.243402     20.43388     41.19379         5     0.719     0.438 -66.77   0
       159    136.6736    628.5787 300.0123812 +22.5973881     20037.55     72.42709      1.616     3.27     4.544688     20.43388     2107.996        60     1.412     1.287  16.00   0
       160    567.6239    629.1863 300.1462407 +22.7267861     1171.426     72.42709      1.453     2.60     4.365923     20.43388     139.4398        15     0.957     0.890  47.69   0
       161     57.8839    630.0687 299.9874154 +22.5741781       689.33     72.53769      1.731     4.22     4.611567     20.43388     64.99915        10     1.019     0.873  78.68   0
       162    602.5718    628.2862 300.1574155 +22.7370021     301.8328     72.42709      1.304     5.13     4.437456     20.43388     48.37676         7     1.025     0.727 -41.18   0
       163    622.6223    621.2302 300.1659518 +22.7409846      164.307     72.42709      1.146     3.46     4.424093     20.43388     27.34535         5     0.767     0.451 -73.24   0
       164    650.6936    616.8615 300.1761140 +22.7481422     255.9391     72.51926      1.307     2.79     4.364538     20.43388     39.74784         6     0.729     0.619 -28.45   0
       165    985.6899    615.5164 300.2809721 +22.8481096     1045.765     72.55611      1.480     3.54     4.517481     20.43388     105.8479        17     1.088     0.988  -5.27   0
       166     82.7591    612.7486 300.0007693 +22.5766725     1389.722     72.42709      1.825     4.63     4.615531     20.43388     121.5228        25     1.550     1.094  89.72   0
       167    852.1160    613.3152 300.2400327 +22.8074711     548.4138     72.53769      1.798     4.74     4.461436     20.43388     58.67289        10     1.118     0.830  33.83   0
       168    148.9912    613.4753 300.0211150 +22.5967497     510.3267     72.40864      1.507     3.81     4.552325     20.43388     52.45992         6     0.956     0.497   3.71   0
       169    531.1049    609.6708 300.1412099 +22.7102358     396.1582     72.53769      1.186     2.72     4.459186     20.43388     64.05376         7     0.801     0.716  43.92   0
       170    926.2599    608.2620 300.2647926 +22.8282264     868.9113     72.46397      1.874     3.66     4.496451     20.43388     72.69399        12     1.051     0.822  -5.81   0
       171    323.7618    608.8497 300.0769563 +22.6478386     282.8407     72.44553      1.320     3.89     4.502162     20.43388      58.1336         6     0.939     0.554 -13.34   0
       172    670.1000    606.4843 300.1855297 +22.7509768     238.4428     72.59293      1.043     3.71     4.365135     20.43388     39.91617         6     0.794     0.497  -4.45   0
       173    487.9058    601.8810 300.1302927 +22.6950501     748.9269     72.57452      1.352     2.71     4.411849     20.43388     100.0437        12     1.008     0.751  44.47   0
       174    635.5791    600.5923 300.1766908 +22.7389398      437.362     72.40864      1.308     3.65     4.433146     20.43388     56.77917         6     0.910     0.421  18.26   0
       175    682.9590    599.2527 300.1918844 +22.7527526     476.7641     72.42709      1.175     3.28     4.350811     20.43388     64.74228         7     0.765     0.633 -14.12   0
       176    653.5430    598.8792 300.1828425 +22.7438308     656.8355     72.46397      1.395     2.48     4.396591     20.43388     88.82187        10     0.926     0.731  32.63   0
       177    531.9516    597.8419 300.1453155 +22.7070927     973.5342     72.42709      1.434     2.75     4.505981     20.43388     123.6917        14     1.028     0.842  51.86   0
       178    965.9233    593.3889 300.2819941 +22.8358298     3389.394     72.42709      1.513     2.78     4.489059     20.43388     360.7399        28     1.191     1.172   7.86   0
       179    497.5507    593.2668 300.1360926 +22.6954676      1711.67     72.40864      1.249     2.40     4.448923     20.43388     228.4471        16     0.931     0.900 -23.27   0
       180    862.8542    590.9135 300.2506570 +22.8042498     323.6309     72.46397      1.321     3.98     4.457094     20.43388       39.079         6     0.800     0.565  44.63   0
       181     59.3657    586.7197 300.0019545 +22.5621871     5043.637     72.37172      1.724     3.23     4.625198     20.43388     587.5007        38     1.376     1.348  33.68   0
       182    526.7586    584.1028 300.1481611 +22.7015907     283.5287     72.42709      1.214     2.26     4.540275     20.43388     63.69549         6     0.721     0.608  29.68   0
       183    360.9121    579.9413 300.0979010 +22.6506794     9168.322     72.50084      1.379     2.76     4.461861     20.43388     1180.749        40     1.205     1.105  51.89   0
       184    483.4053    577.0014 300.1369722 +22.6865568     8982.337     72.24237      1.374     2.43     4.440733     20.43388     1265.735        37     1.130     1.115 -81.21   0
       185    122.3994    579.1815 300.0239882 +22.5789333     228.2314     72.35326      1.735     4.31     4.593129     20.43388     29.98679         5     1.170     0.453  32.42   0
       186    248.7923    574.1520 300.0649106 +22.6153981     276.8253     72.44553      1.438     3.27     4.568234     20.43388     40.21246         5     0.767     0.651  55.91   0
       187    729.7977    573.3729 300.2148828 +22.7593512     304.1035     72.37172      1.230     2.78      4.21362     20.43388     47.51472         6     0.723     0.613  75.73   0
       188    895.1039    571.1071 300.2671451 +22.8082165     1857.691     72.61134      1.397     2.98     4.451646     20.43388     197.1367        22     1.149     1.006 -74.97   0
       189    979.7675    568.4597 300.2944092 +22.8328092     12776.18     72.46397      1.527     2.86      4.45765     20.43388     1347.307        48     1.275     1.255  70.83   0
       190    543.9716    566.6334 300.1591934 +22.7017326     11694.53     72.44553      1.333     2.42     4.647284     20.43388     1683.694        42     1.123     1.096  61.01   0
       191    271.3527    562.0126 300.0758679 +22.6186792     1270.937     72.44553      1.461     2.50     4.559367     20.43388     189.9454        20     1.090     1.029 -21.02   0
       192    713.5591    562.3856 300.2133915 +22.7513294     566.7831     72.44553      1.395     2.89     4.222435     20.43388     64.26273         8     0.910     0.569  16.94   0
       193    429.3812    561.3004 300.1252578 +22.6658542     369.7505     72.33479      1.203     2.57     4.451236     20.43388     55.26579         6     0.730     0.539  42.96   0
       194    518.1641    559.5348 300.1534642 +22.6919591     390.5754     72.42709      1.290     4.62       4.5855     20.43388     60.51889         8     1.209     0.511  30.68   0
       195    475.6539    554.7845 300.1417744 +22.6778535     4370.492     72.39018      1.309     2.25     4.466192     20.43388     692.8351        31     1.125     1.027  61.10   0
       196    818.4648    554.9365 300.2485034 +22.7806148     776.5687     72.46397      1.298     2.05      4.32952     20.43388     117.3637         9     0.788     0.692  52.13   0
       197    453.9062    553.2789 300.1354948 +22.6709025     1193.943     72.55611      1.321     2.57     4.464928     20.43388     172.7854        16     0.978     0.848  10.06   0
       198    208.1519    552.4825 300.0593119 +22.5969912     646.8477     72.44553      1.402     3.02     4.613466     20.43388     89.65699        16     1.096     0.892   3.38   0
       199    895.5856    550.3939 300.2740222 +22.8024072     1667.417     72.31631      1.542     3.17     4.433587     20.43388     175.7844        20     1.190     0.956 -41.39   0
       200    592.2854    542.3542 300.1821212 +22.7092377     201042.7     72.40864      1.307     2.36     4.551275     20.43388     25452.04       189     1.407     1.326  -6.18   0
       201    776.0116    547.4202 300.2377123 +22.7657384     826.9931     72.40864      1.243     2.75     4.198218     20.43388      104.618        13     0.918     0.842  -7.90   0
       202    416.1197    548.6422 300.1252416 +22.6582442     256.9261     72.40864      1.275     3.46     4.462322     20.43388     44.23387         5     0.761     0.455 -14.32   0
       203    869.3023    546.4033 300.2671230 +22.7933887     209.2409     72.33479      1.237     3.73     4.429935     20.43388     39.92889         5     0.956     0.430  16.10   0
       204    980.4177    544.2266 300.3024820 +22.8260373     421.3692     72.44553      1.418     3.49     4.424149     20.43388     33.73046         5     0.777     0.453  72.00   0
       205    278.3938    542.2278 300.0844819 +22.6151114     3496.062     72.42709      1.402     2.58     4.562254     20.43388      423.913        27     1.154     1.059  50.99   0
       206    844.0921    538.6203 300.2617907 +22.7836014     519.1948     72.35326      1.601     3.27     4.384219     20.43388     59.74364         9     0.974     0.670  30.83   0
       207    623.9225    528.8785 300.1963496 +22.7148465     319.2174     72.53769      1.326     3.33     4.501864     20.43388     44.20678         8     0.854     0.718   2.99   0
       208    482.8546    522.9216 300.1543619 +22.6708614     2793.912     72.46397      1.418     2.48     4.537329     20.43388     379.8756        30     1.458     1.002 -83.91   0
       209    327.1237    524.9908 300.1052342 +22.6247736     443.3911     72.40864      1.302     2.58     4.527933     20.43388     59.88609         9     0.791     0.736  12.56   0
       210    639.5198    519.9681 300.2041007 +22.7169600     404.0508     72.42709      2.283     5.38     4.490255     20.43388     31.02342         8     1.078     0.758 -60.34   0
       211    894.0967    518.8427 300.2838034 +22.7928921     407.2561     72.42709      1.553     4.92     4.446679     20.43388     37.38024         9     1.032     0.665  55.54   0
       212    713.9935    518.5552 300.2277596 +22.7388659     294.3248     72.44553      1.211     2.89     4.266001     20.43388     42.05652         6     0.776     0.497   1.53   0
       213    911.8021    514.7827 300.2906428 +22.7970270     286.6625     72.33479      1.433     4.33     4.438061     20.43388     30.10266         5     0.751     0.712 -49.07   0
       214    800.0349    511.5826 300.2568367 +22.7626351     263.5659     72.42709      1.153     3.09     4.313496     20.43388     58.83425         9     0.911     0.739  -7.01   0
       215    879.8074    508.9258 300.2825679 +22.7857624     1735.075     72.37172      1.372     2.69      4.46393     20.43388     224.0953        21     1.098     0.981  44.93   0
       216    766.7249    509.2577 300.2472100 +22.7519899     356.7439     72.48241      1.323     3.80     4.274168     20.43388     43.80272         6     0.779     0.532 -44.34   0
       217    751.1362    506.6389 300.2432023 +22.7465679     2596.196     72.40864      1.311     2.45     4.260548     20.43388     360.9604        21     1.033     0.946 -11.02   0
       218      9.8785    507.4718 300.0123128 +22.5246054     740.1119     72.53769      1.696     4.10     4.270077     20.43388     76.10342        12     1.268     0.818  23.48   0
       219    111.2419    506.9138 300.0439857 +22.5548495     203.1382     72.40864      1.071     4.34       4.6537     20.43388     42.31546         6     0.944     0.569 -27.53   0
       220    995.8723    503.9447 300.3203831 +22.8190831     515.7297     72.44553      1.960     4.54     4.321394     20.43388     52.36122        11     1.149     0.831 -14.99   0
       221    655.9932    503.2626 300.2146559 +22.7170960     523.9764     72.39018      1.372     3.64      4.48825     20.43388     54.52654         9     0.976     0.606  49.82   0
       222    538.2820    502.3710 300.1782885 +22.6815699     618.9838     72.44553      1.196     2.62     4.717506     20.43388     86.67316         8     0.817     0.651  -6.56   0
       223   1008.4684    500.5170 300.3254256 +22.8218686     1284.565     72.53769      1.462     2.67     4.293618     20.43388     150.8519        18     1.057     0.985  -4.89   0
       224    880.2156    499.0792 300.2858922 +22.7830542      2178.06     72.44553      1.563     3.00     4.473564     20.43388     257.6093        28     1.556     1.017  79.28   0
       225    994.2238    499.7652 300.3212259 +22.8173879     716.6827     72.44553      1.641     4.10     4.314715     20.43388     81.41557        15     1.178     0.982 -21.88   0
       226    633.6006    497.2191 300.2096432 +22.7086508     839.7809     72.35326      2.255     2.75     4.580755     20.43388     86.22493        10     0.917     0.806 -10.94   0
       227    472.0564    495.5962 300.1598726 +22.6597772     334.7261     72.39018      1.170     3.18     4.583253     20.43388     55.18095         8     0.801     0.696  73.67   0
       228    918.3829    494.0856 300.2994150 +22.7930476     4260.795     72.39018      1.376     2.72     4.437828     20.43388     471.9861        27     1.116     1.067  69.35   0
       229    419.3021    496.9089 300.1430289 +22.6443428     255.0578     72.61134      1.138     3.38     4.532629     20.43388     41.75167         7     0.836     0.610  62.60   0
       230    559.7639    493.6319 300.1878140 +22.6854968     340.4025     72.46397      1.094     2.36     4.722151     20.43388     54.07819         5     0.735     0.419  23.33   0
       231    960.9681    503.5882 300.3096112 +22.8085303     238.5773     72.42709      1.441     3.67     4.376409     20.43388     40.51744         6     0.789     0.491  -2.99   0
       232    578.8993    489.9188 300.1949778 +22.6901639     370.6522     72.55611      1.289     1.86     4.715052     20.43388      79.5224         6     0.714     0.595  73.76   0
       233   1010.2747    484.6418 300.3311434 +22.8178445     854.0485     72.40864      1.497     2.97     4.241534     20.43388     99.07053        14     1.007     0.900 -21.79   0
       234    150.3581    484.3850 300.0634558 +22.5601151      859.394     72.44553      1.376     3.18     4.739662     20.43388     109.3941        17     1.184     0.880  -2.50   0
       235    949.3848    482.2240 300.3129347 +22.7989199     202.8272     72.42709      1.180     3.71     4.377705     20.43388     29.12685         5     0.977     0.405  -6.30   0
       236    811.7086    478.4009 300.2712484 +22.7565945     367.4404     72.31631      1.271     3.40     4.383728     20.43388     51.88925         5     0.772     0.434 -20.91   0
       237    416.8002    477.5883 300.1485225 +22.6380445      221.261     72.24237      1.528     3.38     4.573602     20.43388     29.11866         5     0.740     0.447  20.43   0
       238   1006.6642    474.0450 300.3334574 +22.8137166      345.059     72.44553      1.270     4.34     4.236516     20.43388     66.35996         9     1.182     0.597  55.10   0
       239    142.9433    474.2270 300.0644486 +22.5549761     422.2031     72.42709      1.403     3.30     4.749415     20.43388     55.74281        11     1.027     0.718 -14.87   0
       240    750.7657    468.4517 300.2554845 +22.7354826     477.0122     72.44553      1.165     2.53     4.350615     20.43388     74.63254         8     0.840     0.627 -15.58   0
       241    359.5017    466.8805 300.1341711 +22.6177951     311.2729     72.55611      1.155     2.70     4.606494     20.43388     52.25421         7     0.844     0.614 -15.45   0
       242    639.6872    466.0712 300.2216509 +22.7015250     432.6529     72.57452      1.372     4.29     4.617217     20.43388     50.40557         7     0.898     0.584 -61.75   0
       243    691.9252    464.4022 300.2384653 +22.7166941     771.7108     72.33479      1.210     2.40     4.435647     20.43388     126.7493        10     0.818     0.749  82.03   0
       244   1006.3511    457.0379 300.3388808 +22.8087323     574.0793     72.44553      1.329     2.72     4.238728     20.43388     73.29871        11     0.939     0.726 -10.42   0
       245    752.6116    456.9563 300.2597914 +22.7327316     865.4905     72.42709      1.227     2.12     4.343246     20.43388     146.1205        11     0.889     0.687 -14.81   0
       246    909.8567    452.9893 300.3100978 +22.7786797      1055.09     72.39018      1.301     3.04     4.451948     20.43388     133.0772        13     0.982     0.796 -54.13   0
       247    874.7949    449.4950 300.3002992 +22.7671769      271.718     72.31631      1.289     4.22     4.497912     20.43388     47.57949         8     0.954     0.730  85.65   0
       248    893.9472    449.1998 300.3063669 +22.7728267     611.8779     72.37172      1.234     3.29     4.473054     20.43388     90.30443         9     0.954     0.642  53.66   0
       249    638.4117    447.3224 300.2273396 +22.6957557     3202.269     72.42709      1.262     2.31     4.638703     20.43388       393.79        22     0.995     0.971  63.01   0
       250    999.0493    446.3304 300.3400787 +22.8034674     523.5275     72.42709      1.454     2.95     4.255758     20.43388     55.03591         9     0.848     0.703 -59.36   0
       251    114.3956    438.1925 300.0672725 +22.5360728      196.884     72.27935      1.143     3.33     4.726018     20.43388     42.51228         5     0.806     0.399  66.23   0
       252    410.8196    435.1835 300.1604259 +22.6240737     293.8582     72.40864      1.649     3.37     4.864105     20.43388     34.81536         5     0.966     0.340  46.08   0
       253    478.3273    434.2525 300.1817372 +22.6440370     287.9484     72.42709      1.217     3.35     4.768956     20.43388     52.76564         5     0.819     0.475  42.97   0
       254    537.8772    429.0476 300.2019642 +22.6603854     202.3472     72.42709      1.026     3.88     4.803038     20.43388     28.29493         5     1.284     0.335  26.53   0
       255   1008.1473    425.1243 300.3498005 +22.8000924     938.7723     72.42709      1.402     3.13     4.233379     20.43388     102.6159        19     1.106     1.010 -74.31   0
       256    921.6528    426.2566 300.3224538 +22.7745252     614.5677     72.48241      1.267     3.09     4.437691     20.43388     76.24212        12     1.131     0.674  16.03   0
       257    658.2336    423.3176 300.2413053 +22.6947957     439.9512     72.39018      1.584     2.63     4.550722     20.43388     58.77468         7     0.856     0.701  41.84   0
       258    749.0369    421.4147 300.2702138 +22.7214458     1100.134     72.42709      1.308     2.53     4.319131     20.43388     147.4969        14     0.913     0.836  73.79   0
       259    544.4753    421.8474 300.2063554 +22.6602937     424.1907     72.42709      1.352     3.29      4.81549     20.43388     67.02076         9     0.917     0.742  88.14   0
       260    252.6545    419.2513 300.1163983 +22.5720897     657.9341     72.46397      1.418     3.42     4.863853     20.43388     95.33568        11     1.234     0.683  48.70   0
       261    315.2769    415.1052 300.1372190 +22.5896712     3655.972     72.53769      1.292     2.43      4.90294     20.43388     512.0718        23     1.009     0.995  56.40   0
       262    262.4853    409.7813 300.1225285 +22.5723177     7528.884     72.37172      1.397     2.47     4.918287     20.43388     1155.382        37     1.197     1.097  63.80   0
       263    403.3118    404.0797 300.1681843 +22.6128902     5005.742     72.57452      1.319     2.43     5.005548     20.43388      653.162        31     1.158     0.988  67.02   0
       264    647.4824    400.8339 300.2452534 +22.6851140     18691.57     72.39018      1.276     2.22     4.665701     20.43388     2876.511        55     1.231     1.115  26.61   0
       265    664.8531    400.9284 300.2506336 +22.6903443     840.0589     72.40864      1.721     5.24     4.592641     20.43388     76.19592        19     1.465     0.893 -49.50   0
       266    494.8255    402.4450 300.1971956 +22.6398435     352.6672     72.44553      1.397     3.61     4.815116     20.43388     45.48789         6     0.791     0.495   3.69   0
       267    844.3609    391.4495 300.3096505 +22.7413765     395.4259     72.44553      0.966     2.18     4.473093     20.43388     64.20361         5     0.660     0.465  22.17   0
       268    267.3723    387.3606 300.1313239 +22.5673449     436.5576     72.46397      1.420     4.44     5.008581     20.43388     79.39032         8     1.158     0.717  47.76   0
       269    981.2126    383.4314 300.3549295 +22.7800397     878.8976     72.40864      1.675     2.57     4.316809     20.43388     117.1245        15     1.127     0.959 -63.27   0
       270    690.8082    382.1570 300.2648111 +22.6927232     373.9555     72.44553      1.447     2.58     4.616452     20.43388     52.74341         5     0.747     0.620  58.36   0
       271    202.0664    380.8726 300.1131237 +22.5459050     1970.118     72.46397      1.398     2.79     4.918859     20.43388     267.8885        22     1.081     1.026  32.93   0
       272   1001.9988    370.8177 300.3655072 +22.7826334     1186.243     72.33479      1.524     2.74     4.278533     20.43388     156.8108        17     1.002     0.989 -76.43   0
       273    588.1556    370.2519 300.2367002 +22.6585547     6579.471     72.44553      1.261     2.30     4.829847     20.43388      911.254        32     1.137     0.999  68.12   0
       274    303.2019    369.8354 300.1481534 +22.5730519     619.9365     72.39018      1.253     2.96     5.125655     20.43388     95.43483        12     1.079     0.738 -38.13   0
       275    160.5674    363.0974 300.1059909 +22.5283605     483.6486     72.40864      1.226     2.37     4.971416     20.43388     88.65465         8     0.918     0.559 -19.47   0
       276    848.3068    362.3537 300.3203225 +22.7341924     289.2272     72.44553      1.342     2.77     4.503727     20.43388     50.53069         6     0.810     0.526 -43.42   0
       277    701.8320    360.3819 300.2753115 +22.6897660     477.3141     72.40864      1.283     2.77     4.703934     20.43388     81.63382         9     0.829     0.749  82.58   0
       278      8.0479    360.4720 300.0594512 +22.4818743      1250.56     72.40864      1.483     3.00     4.053968     20.43388     138.6878        17     1.028     0.999  79.42   0
       279    792.5022    359.3586 300.3038987 +22.7166230     1362.642     72.40864      1.545     2.40     4.507657     20.43388     149.0544        15     0.988     0.844  20.01   0
       280    494.8351    356.5381 300.2120951 +22.6266575     6189.342     72.44553      1.272     2.21     4.815116     20.43388     973.1849        30     1.085     0.998  65.78   0
       281    212.8353    358.2932 300.1237979 +22.5426503      110.067     72.39018      1.090     4.20     4.962512     20.43388     24.13033         6     0.764     0.658  70.31   0
       282    886.7742    350.9203 300.3360261 +22.7424210     1277.807     72.40864      1.395     2.53     4.488636     20.43388     178.2418        20     1.098     0.973  70.15   0
       283    984.2147    351.4128 300.3662560 +22.7717294     493.5099     72.35326      1.165     2.81     4.329123     20.43388     68.63139         8     0.872     0.601  11.31   0
       284    479.2605    345.4634 300.2108404 +22.6188095      422.018     72.46397      1.165     2.63     4.831384     20.43388     64.69804         6     0.754     0.498  -3.25   0
       285    562.0026    342.9970 300.2373997 +22.6428886     510.2644     72.20537      1.374     2.87     4.838676     20.43388     67.55684         9     0.919     0.667  74.26   0
       286    840.0555    342.5651 300.3241710 +22.7260323     280.2311     72.44553      1.226     2.51     4.546282     20.43388     43.24616         6     0.758     0.495   2.41   0
       287    542.4118    341.2513 300.2318663 +22.6365184     389.2638     72.44553      1.423     3.78     4.832411     20.43388     44.97627         8     0.915     0.656  69.98   0
       288      6.3167    341.6206 300.0650293 +22.4759448     1089.767     72.39018      1.663     3.49     4.137628     20.43388     145.6976        17     1.177     1.004  59.83  16
       289    859.3908    338.7440 300.3314388 +22.7307221     513.3652     72.42709      1.215     2.17      4.55511     20.43388     98.46372         8     0.819     0.610  78.49   0
       290    382.3758    335.6322 300.1838798 +22.5869557     2668.633     72.40864      1.298     2.31     5.119692     20.43388     392.9192        23     1.061     0.968  59.58   0
       291    100.7455    333.1675 300.0971091 +22.5018328     821.0557     72.44553      1.391     3.51     4.795506     20.43388     122.6921        18     1.274     0.928 -15.19   0
       292    729.8461    330.3896 300.2937715 +22.6895337      359.493     72.44553      1.250     3.01     4.768544     20.43388     51.80131         7     0.799     0.627  21.75   0
       293    351.6850    325.1331 300.1777376 +22.5747431     30029.54     72.51926      1.338     2.37     5.087986     20.43388     4178.579        63     1.244     1.154  55.04   0
       294    886.4063    322.7883 300.3450389 +22.7342210     1515.749     72.29784      1.414     2.40     4.553493     20.43388     193.4786        19     1.100     0.949  34.23   0
       295    842.1015    320.8776 300.3318453 +22.7204087     372.1019     72.55611      1.484     4.58     4.622643     20.43388       40.417         7     1.096     0.569  -9.18   0
       296     48.0126    312.8972 300.0872999 +22.4802031     5086.395     72.31631      1.527     2.91     4.610238     20.43388     590.2266        30     1.237     1.145  58.02   0
       297    801.7617    311.9606 300.3221631 +22.7057679      558.725     72.50084      1.243     2.16     4.686642     20.43388     97.26431         9     0.791     0.682 -81.55   0
       298    450.1731    310.3489 300.2131790 +22.6000062     551.3496     72.44553      1.329     3.17     4.911491     20.43388     64.89792        11     0.915     0.813  56.84   0
       299    225.9596    311.6366 300.1430146 +22.5331870     377.9819     72.50084      1.195     3.31     4.976268     20.43388     58.88172         6     0.949     0.441 -13.15   0
       300    762.1551    304.9972 300.3120777 +22.6919077     2041.312     72.42709      1.275     2.25     4.816055     20.43388     315.8945        19     0.973     0.939   4.89   0
       301    570.5125    299.7173 300.2540903 +22.6330000     342.6439     72.53769      1.122     2.32     4.897328     20.43388     56.57698         5     0.682     0.469  69.65   0
       302    977.2044    298.0431 300.3813847 +22.7542804      589.566     72.44553      1.276     3.08     4.429544     20.43388     88.47978        12     1.034     0.850  75.69   0
       303    423.9636    289.6263 300.2117445 +22.5862000     2160.188     72.44553      1.435     2.72      4.86704     20.43388     306.6011        21     1.147     0.893  69.42   0
       304    636.2458    288.1169 300.2783248 +22.6493527     259.5836     72.39018      1.270     4.52     4.960155     20.43388     53.33612         7     0.970     0.597  73.57   0
       305    862.8762    282.6906 300.3507103 +22.7156462     641.7867     72.57452      1.233     2.51      4.72614     20.43388     117.8443        12     0.882     0.821  27.42   0
       306    855.6157    283.3543 300.3482313 +22.7136638     270.0556     72.44553      1.400     3.88     4.734462     20.43388       51.637         5     1.018     0.548 -31.42   0
       307    745.7086    280.2089 300.3149934 +22.6798566     385.0007     72.35326      1.379     3.72     4.936752     20.43388     55.00123         5     0.909     0.438 -43.14   0
       308    713.9780    279.4450 300.3053538 +22.6701365     372.0105     72.48241      1.529     4.09      4.95806     20.43388     47.59838         6     0.785     0.608 -48.55   0
       309    499.7297    268.8746 300.2420570 +22.6029347     1261.812     72.50084      1.246     2.41     4.827184     20.43388     192.7587        14     0.994     0.768  54.53   0
       310    307.0135    268.9669 300.1820608 +22.5452234     229.8692     72.40864      1.224     3.25     4.968597     20.43388     37.00525         5     0.616     0.613  83.02   0
       311     72.2218    269.2315 300.1089845 +22.4749259     380.9651     72.42709      1.560     3.61     4.952752     20.43388     41.44672         6     0.967     0.634 -26.43   0
       312   1011.0223    265.0320 300.4026428 +22.7549040     430.4701     72.42709      1.452     4.06     4.687748     20.43388     43.68397         7     0.901     0.522  43.78   0
       313    882.9542    262.4826 300.3635254 +22.7158441     228.9823     72.39018      1.108     3.73     4.752466     20.43388     41.91375         6     0.955     0.497   3.59   0
       314    744.6579    260.8009 300.3209611 +22.6739618     2077.537     72.37172      1.317     2.30     4.944422     20.43388     349.8962        20     1.031     0.991 -86.39   0
       315   1005.9533    255.2851 300.4042229 +22.7505831      3278.25     72.40864      1.469     2.58     4.793491     20.43388     421.8672        31     1.210     1.135 -59.96   0
       316    453.0371    244.6800 300.2353703 +22.5819954      598.516     72.39018      1.111     2.34     4.765567     20.43388     106.7579         9     0.879     0.604 -50.73   0
       317    158.6704    238.9528 300.1456699 +22.4921458      651.825     72.40864      1.402     2.54     4.942909     20.43388     77.98108        11     0.920     0.746 -63.15   0
       318    127.6143    238.7071 300.1360969 +22.4827666     1542.408     72.35326      1.820     3.51     4.938632     20.43388     138.4119        23     1.230     1.133 -42.01   0
       319   1021.6320    235.9041 300.4154004 +22.7496984     468.1388     66.52288      1.351     3.78     5.035167     20.43388     53.42983        10     0.959     0.754  49.30  16
       320    865.1836    232.1606 300.3678188 +22.7018042     420.0074     72.44553      1.425     3.58     4.882952     20.43388     50.21825         7     0.833     0.744 -50.55   0
       321    211.8115    230.9908 300.1647717 +22.5057860     483.9464     72.31631      1.214     2.37     4.938138     20.43388     77.69545         7     0.717     0.655 -69.37   0
       322   1007.4601    228.5277 300.4133712 +22.7433358     303.1024     72.46397      1.211     4.31     5.078834     20.43388     34.87497         8     1.060     0.498   1.68   0
       323     67.4252    228.1040 300.1208314 +22.4616798     353.2563     72.35326      1.504     2.93      5.21246     20.43388     47.02579         5     0.728     0.464  72.41   0
       324    887.8574    224.2307 300.3774604 +22.7063093     296.9809     72.44553      1.321     2.75     4.905715     20.43388     61.21929         5     0.792     0.509  49.88   0
       325    816.2728    222.1954 300.3558023 +22.6842986     454.6855     72.37172      1.177     2.41     4.928217     20.43388     89.17098        10     0.836     0.708  15.41   0
       326    406.8869    221.5557 300.2285073 +22.5615258     429.1764     72.40864      1.111     2.72     4.742019     20.43388     83.06439         8     1.012     0.589 -12.86   0
       327    907.0190    215.9432 300.3861232 +22.7096599     272.2547     72.42709      1.312     2.90     4.919115     20.43388     41.98125         5     0.640     0.574   0.77   0
       328    914.5906    211.3885 300.3899615 +22.7106156     2072.805     72.31631      1.392     2.35     4.931052     20.43388     269.8748        20     1.050     0.968 -78.33   0
       329    410.8433    203.7652 300.2355072 +22.5575989     1130.229     72.48241      1.359     2.84     4.743069     20.43388     154.1907        14     1.000     0.860 -27.00   0
       330    162.8152    203.5383 300.1584417 +22.4832175     262.2498     72.37172      1.330     2.62     4.924368     20.43388     66.99058         8     0.921     0.782  87.86   0
       331    812.8638    203.0439 300.3609501 +22.6777702     574.5471     72.42709      1.301     3.16     4.960696     20.43388     89.07514         7     0.894     0.668 -12.75   0
       332    568.8801    202.6378 300.2850671 +22.6046081     170.6697     72.39018      1.372     3.41     4.813529     20.43388     29.43644         5     0.782     0.431  19.00   0
       333    332.9352    208.5032 300.2097318 +22.5356206     2153.649     72.53769      1.333     2.47     4.878586     20.43388     307.2809        20     1.039     0.943  59.46   0
       334    227.6983    195.8102 300.1811186 +22.5004420     846.2788     72.31631      1.279     2.46     4.896508     20.43388     115.3988        10     0.865     0.722 -50.36   0
       335    346.2206    195.0909 300.2182135 +22.5357474     273.0802     72.37172      1.210     3.93     4.864085     20.43388     33.08158         6     0.917     0.481  55.70   0
       336    765.5179    192.7180 300.3495412 +22.6606288     1660.438     72.55611      1.308     2.28     4.973897     20.43388      242.288        17     0.959     0.928 -20.46   0
       337    830.3869    192.4054 300.3698623 +22.6799551     538.4111     72.29784      1.237     2.53     4.955559     20.43388       73.761         7     0.765     0.638 -20.74   0
       338    249.1533    189.0160 300.1899928 +22.5049193     570.4192     72.44553      1.391     2.58     4.884738     20.43388     86.69754         9     0.819     0.730  81.38   0
       339    769.6194    184.2933 300.3535511 +22.6594337     723.8316     72.35326      1.147     2.19     4.985317     20.43388     114.1544        11     0.904     0.718 -72.78   0
       340    539.0994    185.1294 300.2814712 +22.5906571     254.0555     72.57452      1.137     2.12      4.74156     20.43388     61.33364         8     0.796     0.610 -50.10   0
       341    690.1465    183.5709 300.3290208 +22.6354357     1247.512     72.42709      1.200     1.87     4.990536     20.43388     230.0692        15     0.954     0.814  78.79   0
       342    511.5376    180.0170 300.2745479 +22.5809336     340.5635     72.40864      1.092     2.28     4.740422     20.43388     48.06679         6     0.742     0.498  88.01   0
       343    616.2972    175.2558 300.3087123 +22.6109348     972.4927     72.51926      1.223     2.54     4.956999     20.43388     119.2776        12     0.894     0.759  23.19   0
       344    897.4109    173.9802 300.3967340 +22.6947132     735.4963     72.40864      1.448     4.92     4.967759     20.43388     95.70323        17     1.489     0.873  62.26   0
       345    885.5221    174.9547 300.3927108 +22.6914359     1344.636     72.40864      1.285     2.51      4.94695     20.43388     186.4461        15     0.987     0.877  78.85   0
       346    943.8378    173.3076 300.4114311 +22.7084119     283.5224     72.42709      1.181     3.10     5.057746     20.43388     52.70671         5     0.921     0.347  49.24   0
       347   1014.4999    164.2171 300.4364214 +22.7269375     1142.994     72.33479      1.501     3.15     5.204815     20.43388     174.3892        22     1.222     1.180 -68.45   0
       348     38.3956    160.9809 300.1335747 +22.4337046     496.0089     72.37172      1.362     3.52     5.625855     20.43388     68.50908         8     1.044     0.562 -54.97   0
       349    248.4188    157.5549 300.1999641 +22.4956613     627.6895     72.46397      1.307     2.69     4.845841     20.43388     80.14716        11     0.911     0.722  23.67   0
       350    110.1998    151.9568 300.1588112 +22.4526345     2201.359     72.40864      1.526     2.99     5.440225     20.43388     256.6387        25     1.210     1.056  62.97   0
       351    933.2313    149.4869 300.4158461 +22.6983848     642.0646     72.40864      1.198     2.15       5.0674     20.43388     100.4089         8     0.776     0.626  74.52   0
       352     59.6687    149.0186 300.1440617 +22.4366459     623.3987     72.42709      2.083     3.63     5.609135     20.43388     81.24894        10     1.210     0.726  -1.39   0
       353    267.6236    145.3082 300.2099063 +22.4978970     5729.642     72.35326      1.432     2.60     4.856377     20.43388     769.6378        37     1.272     1.109  59.27   0
       354    249.2696    146.3428 300.2038633 +22.4926952     340.4241     72.44553      1.274     2.65     4.858973     20.43388      42.9192         6     0.691     0.626 -65.64   0
       355     51.6142    139.6898 300.1445831 +22.4315528     1383.425     72.37172      1.714     3.45     5.618189     20.43388      153.495        21     1.299     1.016  55.46   0
       356    250.8685    136.3426 300.2076021 +22.4903012     672.7454     72.44553      1.442     3.31     4.870014     20.43388      63.7911        11     0.939     0.831  -2.68   0
       357    911.8013    127.1115 300.4164165 +22.6855351     3571.745     72.35326      1.371     2.57     5.017973     20.43388     430.1046        26     1.128     1.044 -69.25   0
       358   1015.4183    125.9517 300.4491135 +22.7162005     2749.929     72.46397      1.409     2.63     5.434793     20.43388     320.8341        24     1.114     1.084 -30.17   0
       359    461.1638    122.1702 300.2776203 +22.5492205     738.6437     72.44553      1.410     2.74     4.778883     20.43388     100.6239        13     1.020     0.765  65.24   0
       360    214.2954    122.8697 300.2005972 +22.4754728     359.5928     72.55611      1.265     2.50     4.887308     20.43388     51.86357         6     0.728     0.566 -43.29   0
       361    575.6142    120.2434 300.3138764 +22.5829375     341.0024     72.44553      1.194     2.06     4.850523     20.43388     53.00472         5     0.667     0.470 -74.44   0
       362    385.5928    114.1150 300.2567137 +22.5242723      721.163     72.35326      1.649     3.25       4.8822     20.43388     82.65228         9     1.062     0.573 -24.68   2
       363    151.6741    111.0760 300.1849525 +22.4533214     652.7619     72.51926      1.278     2.43     5.005655     20.43388     89.48068        11     0.937     0.687 -15.72   0
       364    512.5260    109.4680 300.2977259 +22.5609498     1830.339     72.50084      1.390     2.29     4.755562     20.43388     247.8586        19     1.089     0.910  72.76   0
       365    440.7520    110.1834 300.2751528 +22.5396623     535.2738     72.46397      1.525     1.90     4.823046     20.43388     74.92116         6     0.696     0.528 -40.31   0
       366    574.3935    108.8216 300.3171985 +22.5792881     385.2352     72.40864      1.152     1.65     4.844479     20.43388     69.10989         5     0.644     0.458 -68.09   0
       367    336.3841    104.9933 300.2443607 +22.5069116     278.0405     72.35326      1.535     3.98     4.918428     20.43388     31.56958         6     1.042     0.435  76.65   0
       368    255.9282    104.8848 300.2193719 +22.4827790     383.1915     72.53769      1.207     4.24     4.906818     20.43388     68.29102         8     1.067     0.543  39.86   0
       369    729.0701    103.4912 300.3671092 +22.6240575     253.4166     72.55611      1.224     3.78     5.089283     20.43388      38.5659         6     0.822     0.499  -2.22   0
       370    800.8057     99.1538 300.3908723 +22.6442787     336.4691     72.42709      1.238     3.72     5.056694     20.43388     50.05684         5     0.943     0.483  25.72   0
       371    920.1420    112.8395 300.4236441 +22.6839241     274.5699     72.40864      1.309     3.96     5.036195     20.43388     30.43172         5     0.964     0.466 -45.52   0
       372    946.6840     93.3962 300.4382245 +22.6862700     323.8333     72.35326      1.763     4.16     5.164286     20.43388     36.02339         6     0.894     0.551  45.77   0
       373    286.5981     89.2462 300.2339785 +22.4874733     6004.182     72.42709      1.387     2.47     5.001597     20.43388     801.4694        36     1.252     1.083  58.81   0
       374    793.0287     89.9790 300.3914219 +22.6393122     463.5354     72.42709      1.390     3.04     5.075251     20.43388     46.82514         7     0.859     0.528  38.08   0
       375    401.6739     88.8932 300.2698921 +22.5218396     213.8944     72.57452      1.164     4.05     4.903771     20.43388     34.03717         6     1.105     0.424 -78.67   0
       376    137.5353     88.7978 300.1877781 +22.4426852     833.9464     72.42709      1.672     3.11     5.219108     20.43388     97.61315        12     1.022     0.811  -3.80   0
       377    915.9827     86.6746 300.4308278 +22.6751510     355.8658     72.42709      1.606     3.38     4.994893     20.43388     57.14459         8     1.015     0.796  86.86   0
       378    258.3489     82.9056 300.2272480 +22.4771890     316.0377     72.50084      1.187     3.27     5.054395     20.43388     48.72652         5     0.738     0.446 -73.48   0
       379    302.2683     80.6500 300.2416382 +22.4896971     260.5678     72.42709      1.159     2.78     5.045988     20.43388     44.42984         5     0.711     0.462 -12.64   0
       380     48.0955     79.9522 300.1628510 +22.4133424     366.6201     72.46397      1.397     3.75     5.652336     20.43388     45.25003         5     0.639     0.630  27.68   0
       381    532.7198     74.6532 300.3152965 +22.5569871     6437.047     72.44553      1.339     2.31     4.847308     20.43388     993.8472        35     1.169     1.089 -89.27   0
       382    418.0544     74.5955 300.2796231 +22.5226356     805.2303     72.40864      1.380     2.95     4.903375     20.43388     92.48451        14     0.986     0.913 -87.32   0
       383    784.9787     65.3717 300.3968879 +22.6298243      939.311     72.40864      1.874     4.68      5.12939     20.43388     110.3539        16     1.710     0.765 -73.88   0
       384    589.4021     69.6381 300.3345719 +22.5725147     345.6405     72.44553      1.100     2.89     5.021026     20.43388      51.2962         5     0.737     0.449 -17.15   0
       385    553.3102     68.7919 300.3236070 +22.5614664     262.9721     72.33479      1.187     3.76     4.899962     20.43388     49.47172         5     0.964     0.671  -6.93   0
       386    726.7006     66.5561 300.3783416 +22.6127247     279.0381     72.42709      1.151     3.25     5.166942     20.43388     43.16776         5     0.716     0.482  13.17   0
       387    877.7537     63.3632 300.4264616 +22.6570060     530.7355     72.46397      1.383     4.38     4.877063     20.43388     57.78007         9     1.021     0.879  79.22   0
       388    225.4227     58.5144 300.2249136 +22.4603169     439.1437     72.37172      1.321     2.49     5.300291     20.43388     68.69429         8     0.770     0.745 -43.76   0
       389    583.8032     57.2370 300.3368471 +22.5672726     458.2434     72.46397      1.252     2.22     5.065696     20.43388     78.79053         6     0.701     0.579  -0.37   0
       390    661.1240     54.7973 300.3617208 +22.5897159     6426.594     72.33479      1.347     2.41     5.150633     20.43388      972.953        34     1.176     1.039  72.93   0
       391    435.9196     53.8001 300.2919219 +22.5220078     1465.218     72.29784      1.342     2.50     4.921318     20.43388     212.0254        18     1.054     0.891  64.77   0
       392    702.2985     52.3069 300.3753558 +22.6013230     747.5008     72.61134      1.250     2.55     5.176387     20.43388     115.6044        13     0.891     0.867 -29.81   0
       393    772.2336     50.1963 300.3978333 +22.6216448     438.9121     72.42709      1.669     3.79     5.173118     20.43388     51.75196         7     0.950     0.630  14.68   0
       394    718.1985     48.2670 300.3816192 +22.6049195      636.675     72.40864      1.282     2.60      5.19906     20.43388     79.81177        11     0.913     0.742 -31.65   0
       395    988.1074     45.9785 300.4665136 +22.6850148     659.5109     72.35326      1.522     3.32     5.429381     20.43388     82.68463        11     1.035     0.748  29.30   0
       396    185.1386     46.1842 300.2163844 +22.4447058     633.7267     72.37172      1.442     2.77     5.410473     20.43388     89.72862         9     0.946     0.669 -31.07   0
       397     31.6857     46.8641 300.1684746 +22.3989214     479.2731     72.51926      1.748     3.41     5.694157     20.43388     46.54446         5     0.988     0.340  -2.85   0
       398    756.7004     43.9650 300.3950115 +22.6152040     351.4695     72.40864      1.119     1.81      5.20347     20.43388     90.58276         7     0.689     0.590  87.87   0
       399    720.3379     38.3373 300.3855035 +22.6027035     935.9602     72.46397      1.836     4.48     5.221293     20.43388     114.4806        20     1.565     0.961  61.12   0
       400    705.1813     39.4357 300.3804249 +22.5984835     2716.673     72.42709      1.462     2.84      5.20145     20.43388      403.807        29     1.353     1.023  69.63   0
       401    346.4024     40.5953 300.2683467 +22.4914046     427.6381     72.24237      1.376     3.17     4.984654     20.43388     59.45257         7     0.868     0.644   5.91   0
       402    791.7676     31.1150 300.4101050 +22.6220004     1538.817     72.39018      1.392     2.81     5.185295     20.43388     190.7265        22     1.100     1.051 -84.27   0
       403    951.8152     29.8818 300.4604087 +22.6695266     275.8835     72.40864      1.256     3.88      5.04967     20.43388     39.72307         6     0.809     0.534  51.81   0
       404    771.5874   1022.0035 300.0820648 +22.9007136     378.3513     64.81375      1.794     3.15     3.879705     20.43388     33.63612         5     0.755     0.590  -0.53  16
       405    107.8909     23.8388 300.1996137 +22.4151423     544.3223     72.40864      1.488     4.18     5.703302     20.43388     63.21992         7     1.043     0.514  -7.46   0
       406    439.3304     22.0934 300.3032572 +22.5139141     663.8181     72.55611      1.191     2.14     4.979215     20.43388     116.8117        11     0.882     0.708 -70.24   0
       407    821.2467     20.6804 300.4226753 +22.6278185     559.2078     72.42709      1.471     2.62     5.070128     20.43388     79.40811         9     0.865     0.777 -32.38   0
       408    535.3449     23.6474 300.3326420 +22.5431072     1107.675     72.46397      1.485     2.49      5.05702     20.43388     153.9811        16     1.046     0.910  60.50   0
       409    334.5355   1020.4048 299.9465213 +22.7691473     1112.689     70.78504      2.013     4.60     9.379344     20.43388     85.61319        20     1.236     1.171  66.39  16
       410    170.1583   1016.2924 299.8967529 +22.7186286     1960.932     72.42709      3.454    13.82     87.80465     20.43388     58.77766        50     2.635     2.016 -35.13  16
       411    188.4895   1015.3932 299.9027429 +22.7238739     458.1924     72.33479      1.810     6.35     87.55991     20.43388     43.41837         8     1.288     0.891 -49.99  18
       412    213.5404   1008.0794 299.9129091 +22.7292970     2433.136     72.46397      5.478    19.33      82.5348     20.43388     64.73006        79     3.571     2.905  -1.66  19
       413    210.0549   1003.1113 299.9134419 +22.7268264     2357.419     72.46397      4.380    17.81     78.35307     20.43388     56.98887        75     4.955     1.778 -51.23  19
       414      5.5025    998.4067 299.8514155 +22.6640641     2612.858     72.33479     14.886    50.48    -20.84349     20.43388     61.28217       459    12.472     5.670  71.32  27
       415    394.4430   1006.1310 299.9698002 +22.7830313     683.0134     72.39018      2.245     4.71     3.677675     20.43388     63.63123        11     1.349     0.850  22.86   0
       416    586.1743    999.6510 300.0315823 +22.8386934     2203.307     72.44553      1.829     4.25     3.870177     20.43388      150.474        30     1.399     1.264  18.59   0
