#   1 NUMBER                 Running object number                                     
#   2 X_IMAGE                Object position along x                                    [pixel]
#   3 Y_IMAGE                Object position along y                                    [pixel]
#   4 ALPHA_J2000            Right ascension of barycenter (J2000)                      [deg]
#   5 DELTA_J2000            Declination of barycenter (J2000)                          [deg]
#   6 FLUX_APER              Flux vector within fixed circular aperture(s)              [count]
#   7 FLUXERR_APER           RMS error vector for aperture flux(es)                     [count]
#   8 FLUX_RADIUS            Fraction-of-light radii                                    [pixel]
#   9 FWHM_IMAGE             FWHM assuming a gaussian core                              [pixel]
#  10 BACKGROUND             Background at centroid position                            [count]
#  11 THRESHOLD              Detection threshold above background                       [count]
#  12 FLUX_MAX               Peak flux above background                                 [count]
#  13 ISOAREA_IMAGE          Isophotal area above Analysis threshold                    [pixel**2]
#  14 A_IMAGE                Profile RMS along major axis                               [pixel]
#  15 B_IMAGE                Profile RMS along minor axis                               [pixel]
#  16 THETA_IMAGE            Position angle (CCW/x)                                     [deg]
#  17 FLAGS                  Extraction flags                                          
         1    251.5264     11.5721 300.2965410 +22.4554286     360.1974     72.62418      1.174     2.80     4.802493     20.48427     53.33053         8     0.910     0.586  47.13   0
         2    117.8662      6.3260 300.2566993 +22.4138730     1216.616     72.66115      1.441     2.28      4.18896     20.48427     160.6524        16     1.014     0.839  48.23  16
         3    659.6455   1012.7238 300.0982849 +22.8651558     297.7201      72.5872      1.351     3.48     3.450124     20.48427     37.34856         5     0.754     0.462  78.11   0
         4    348.9837   1023.0055 299.9982667 +22.7748817     5362.096     60.07726      1.344     3.23      3.26714     20.48427     631.2932        23     1.173     0.901   3.31  24
         5    187.3673   1022.9604 299.9480423 +22.7263481     468.0011     60.50043      2.938     3.90     11.82221     20.48427     33.76912         5     0.909     0.480  86.55  24
         6    179.6848   1022.4797 299.9458116 +22.7239035     471.3131      62.9584      2.769     5.04      12.9403     20.48427     37.92253         7     1.095     0.656 -43.77  24
         7    108.4300   1022.0886 299.9238013 +22.7023941     1139.196     64.72511     11.244    13.94     15.85118     20.48427     44.03188        26     3.148     1.716  -6.56  25
         8     82.6600   1006.9390 299.9207282 +22.6903147     1937.972     72.64267     21.765    68.86     13.29922     20.48427     73.18169       618    16.193     8.125  35.18  19
         9    684.1131    990.8978 300.1130096 +22.8662342     838.3341     72.77194      1.861     6.36     3.690609     20.48427     66.52177        15     1.541     0.738  58.29   0
        10   1011.2239    989.3833 300.2154467 +22.9638836     527.3956     72.60569      1.488     4.21     3.589495     20.48427     42.91434        10     0.955     0.821 -16.97   0
        11     39.1309   1019.8578 299.9030041 +22.6809421     5361.409     72.17908     17.423    50.98     11.39921     20.48427     147.8057       752    15.991     4.509  -2.31  27
        12    381.8336   1009.6169 300.0128411 +22.7809040     453.7385      72.5872      1.516     4.38     2.962696     20.48427     53.82014        11     1.108     0.926 -54.14   0
        13    718.8177    984.9137 300.1257664 +22.8749267      985.436     72.55019      1.352     3.16      3.69176     20.48427     121.3017        15     1.141     0.873 -33.86   0
        14    496.0648    986.2755 300.0559754 +22.8084928      425.315     72.67963      1.338     4.32     2.823763     20.48427     46.43099         9     1.083     0.601  13.17   0
        15    895.2386   1001.7441 300.1752591 +22.9326606     2167.459     72.60569      1.580     3.19     3.544906     20.48427     167.3426        22     1.152     1.047  36.01   0
        16    741.0658    978.6292 300.1347422 +22.8797962     11232.37     72.62418      1.397     2.63     3.687399     20.48427      1188.13        45     1.206     1.148  81.34   0
        17    786.8458    978.6879 300.1489852 +22.8935422      514.723     72.60569      1.593     3.60     3.687399     20.48427     59.47001         9     1.014     0.694 -69.86   0
        18    932.6235    978.4588 300.1944939 +22.9371857     497.5944     72.60569      1.854     4.48     3.547244     20.48427     37.41122         7     0.919     0.621  72.03   0
        19    545.4382    999.3680 300.0670786 +22.8270619     417.9674     72.64267      1.326     5.58     2.644868     20.48427     49.55674        10     1.336     0.656  64.19   0
        20    874.2582    971.7073 300.1784976 +22.9177496       394.35     72.66115      1.842     4.12     3.507923     20.48427      38.5488         6     0.986     0.549 -38.62   0
        21     52.4654    970.3934 299.9232453 +22.6707768     774.3315      72.5872      2.034     5.62     8.533197     20.48427     58.10262        14     1.191     1.022 -66.20   0
        22    447.8817    967.5386 300.0470827 +22.7886617     1166.534      72.6981      1.374     6.11     3.080733     20.48427      643.007        13     1.656     0.635  25.90   0
        23    393.4249    998.0034 300.0202267 +22.7810536      319.919      72.5687      1.305     3.18     2.970345     20.48427      47.4893         7     0.838     0.676  17.32   0
        24    749.5831    960.6154 300.1432590 +22.8771819     1339.988      72.5687      1.419     2.76     3.687399     20.48427     147.4702        19     1.083     1.012   6.77   0
        25    577.2682    996.4153 300.0779471 +22.8357650     346.6678     72.62418      1.392     5.29     2.784915     20.48427     50.72051        10     0.983     0.964  77.01   0
        26    932.9686    959.4734 300.2007815 +22.9318395     360.4253     72.60569      1.324     3.65     3.560252     20.48427     43.35312         8     0.845     0.654 -84.15   0
        27    792.9868    966.0347 300.1550173 +22.8917529      347.047      72.5872      1.198     2.51     3.687399     20.48427     59.00041         9     0.785     0.737  18.43   0
        28    602.1486    957.8020 300.0982611 +22.8321539      459.806      72.5872      1.347     4.33     3.341974     20.48427     57.90841         8     1.145     0.483 -44.65   0
        29    787.7390    954.2131 300.1572301 +22.8867869     881.0651      72.5687      1.491     3.06     3.687399     20.48427      104.526        15     1.075     0.891 -45.34   0
        30    896.1012    950.8982 300.1920795 +22.9183257      407.583     72.82727      1.493     5.48     3.502075     20.48427     44.06631         9     0.975     0.922  44.31   0
        31    836.3230    945.4922 300.1752075 +22.8988519      585.817     72.75349      1.539     3.59      3.56271     20.48427     65.24335        14     1.123     0.876  19.93   0
        32    687.4909    944.4354 300.1291851 +22.8539177     765.5413      72.5687      1.422     3.23     3.761594     20.48427     83.06379        12     0.978     0.822 -16.05   0
        33    290.7862    944.8505 300.0056105 +22.7350096     286.2165     72.62418      1.512     4.47     4.203852     20.48427     31.49356         5     0.830     0.685 -52.33   0
        34    698.9387    941.4028 300.1337374 +22.8564810     655.1721      72.5872      1.298     2.43     3.747239     20.48427      86.3458        11     0.902     0.718  75.10   0
        35    400.1392    940.9875 300.0408727 +22.7667217     4028.093      72.5687      1.365     2.51     3.581045     20.48427     472.0631        26     1.113     1.038  40.57   0
        36    178.3757    930.0606 299.9754849 +22.6970262     332.9203     72.60569      1.197     2.89     4.898222     20.48427      46.2585         5     0.734     0.440  69.80   0
        37    443.3868    929.1317 300.0581841 +22.7762996      262.207     72.62418      1.260     4.31     3.603198     20.48427     51.81776         7     0.819     0.647 -82.72   0
        38    125.4564    926.6381 299.9601566 +22.6801573     708.1973     72.60569      1.391     2.99     5.431665     20.48427     88.30641        13     0.985     0.898 -33.99   0
        39    102.5214    923.9383 299.9539103 +22.6724974     1620.394     72.67963      1.518     2.80     5.651671     20.48427     200.4324        24     1.258     1.117  15.91   0
        40    974.1436    912.4189 300.2289347 +22.9306734     2123.841      72.5872      1.460     2.82     4.083076     20.48427      222.051        27     1.234     1.150 -78.93   0
        41    928.3904    911.0213 300.2151239 +22.9165582     2067.969      72.5872      1.465     2.77     3.729112     20.48427     208.9411        21     1.080     0.995 -87.36   0
        42    633.8630    911.2637 300.1232810 +22.8283164      475.987     72.64267      1.471     4.32     3.843444     20.48427     57.64552        10     1.150     0.741 -39.17   0
        43    712.0175    905.1251 300.1496171 +22.8499940     721.7552     72.60569      1.274     2.42     3.806183     20.48427     108.5479        11     0.857     0.810   4.37   0
        44    134.6089    905.2068 299.9699735 +22.6767635     498.4595     72.45759      1.300     2.49     4.921094     20.48427     67.98673         8     0.836     0.628  40.76   0
        45    580.1271    899.0346 300.1105310 +22.8086903     4640.189     72.60569      1.275     2.27      3.86217     20.48427     716.6324        27     1.031     0.987 -39.27   0
        46     69.4678    899.9655 299.9514438 +22.6557033     372.4024     72.60569      1.559     5.37     4.931063     20.48427     50.99733        10     1.150     0.709 -13.04   0
        47    382.1972    896.0402 300.0499186 +22.7484494      569.532     72.62418      1.259     2.82       3.9619     20.48427     78.03381        10     0.920     0.733   3.42   0
        48    130.2587    892.9833 299.9725991 +22.6719543     1426.588      72.5687      1.438     3.01     4.744997     20.48427     165.6033        16     1.033     0.910  36.64   0
        49    600.7247    891.4225 300.1194200 +22.8126847     774.0618     72.60569      1.243     2.71     3.922662     20.48427     95.64407        13     1.000     0.751 -45.61   0
        50    149.5467    890.1439 299.9795155 +22.6769311     504.3519     72.66115      1.766     3.84     4.583197     20.48427     59.85563         7     1.110     0.493 -86.09   0
        51    398.6974    890.1831 300.0569565 +22.7517211      204.076     72.51316      1.217     4.34     3.917682     20.48427     35.58443         7     0.864     0.621  64.46   0
        52    731.6372    882.7919 300.1629956 +22.8494685     307.9619     72.62418      1.603     4.25     3.806878     20.48427     33.39265         5     1.088     0.473  32.40   0
        53    517.3450    882.2896 300.0964389 +22.7850541     304.8427     72.64267      1.363     2.91     3.956648     20.48427     43.06095         6     0.682     0.658 -34.52   0
        54    973.1567    878.7500 300.2395835 +22.9207106     1153.924     72.64267      1.449     2.81     4.187554     20.48427     128.9682        19     1.137     0.974 -22.84   0
        55    756.1510    878.6494 300.1719799 +22.8556301      4119.83     72.64267      1.249     2.26     3.799937     20.48427     565.9882        28     1.051     1.000 -46.94   0
        56   1011.0582    879.0024 300.2513211 +22.9321418     344.3891      72.5687      1.332     3.83     4.278228     20.48427     52.43827         8     0.949     0.677 -27.22   0
        57    486.8908    875.6621 300.0891183 +22.7740171     260.4113      72.6981      1.358     3.47     3.988611     20.48427     45.44387         5     0.832     0.419  17.75   0
        58    164.8040    872.9181 299.9898604 +22.6765741     452.8947     72.53168      1.283     2.90     4.322021     20.48427     71.59599         9     0.931     0.658  61.67   0
        59    472.9720    871.4168 300.0861687 +22.7686238     466.9808     72.60569      1.156     3.39     4.015775     20.48427     78.33168        10     0.964     0.739  86.88   0
        60    119.3438    869.3416 299.9768999 +22.6619019     950.2115     72.67963      1.416     2.82     4.316569     20.48427     121.3033        16     1.036     0.933  58.75   0
        61    269.1581    861.4863 300.0260122 +22.7046193     53025.89      72.5872      1.342     2.43     4.132695     20.48427     5933.902        85     1.272     1.227  87.21   0
        62    534.6914    864.7556 300.1075422 +22.7852278     449.5237      72.5872      1.190     3.39     4.091777     20.48427     79.14773        12     1.059     0.763  47.57   0
        63    526.9614    860.4340 300.1065424 +22.7816694     1580.529     72.64267      1.222     2.19     4.086561     20.48427     239.2924        16     0.917     0.846 -32.02   0
        64    939.9229    859.2535 300.2355647 +22.9051523     838.4236     72.64267      1.237     3.03     4.234383     20.48427     102.0161        15     0.989     0.927  53.61   0
        65    242.7078    859.5228 300.0184289 +22.6961179     311.6861     72.75349      1.001     3.17     4.174581     20.48427     50.32335         5     0.923     0.457  14.51   0
        66    197.2680    859.2230 300.0044038 +22.6823934     527.7719      72.5872      1.211     3.88     4.200961     20.48427     56.73269         6     0.777     0.555  55.35   0
        67    555.8454    856.4371 300.1168327 +22.7891867     903.8312     72.64267      1.287     2.21     4.089159     20.48427     142.2223        14     1.005     0.771 -60.28   0
        68    567.0033    854.7808 300.1208446 +22.7920583     575.2266      72.5687      1.265     2.82     4.084232     20.48427     81.16434         9     0.876     0.670  -9.24   0
        69    886.9139    851.8566 300.2214460 +22.8871405     420.4056     72.71657      1.452     4.36     3.882959     20.48427     43.29565         8     0.833     0.690 -34.72   0
        70    672.2093    850.8055 300.1548935 +22.8224693     470.6135     72.45759      1.282     2.22     4.036213     20.48427     76.29666         8     0.742     0.660  51.03   0
        71    709.8063    841.4388 300.1696502 +22.8310550     768.3836     72.64267      1.212     2.27     3.908257     20.48427     126.6595        11     0.825     0.757 -48.32   0
        72    318.8322    838.7084 300.0488659 +22.7129954     31411.51     72.55019      1.307     2.29     4.024093     20.48427     4526.362        64     1.194     1.144 -61.23   0
        73    333.1337    839.1887 300.0531566 +22.7174246     2005.748      72.5872      1.305     2.47     4.027323     20.48427      252.557        21     1.056     0.925  32.43   0
        74    841.9688    834.3729 300.2131256 +22.8686490     2870.838     72.60569      1.253     2.31     4.014799     20.48427     391.3367        22     1.014     0.927  -4.62   0
        75    329.8274    832.9745 300.0541500 +22.7146505     658.0629      72.5687      1.365     3.39     4.009639     20.48427     99.86388        10     0.989     0.741  46.96   0
        76    871.2310    832.0031 300.2230168 +22.8767398     354.3504      72.5872      1.317     2.81     4.024695     20.48427     46.79995         6     0.734     0.553 -53.25   0
        77    599.7661    830.5250 300.1389345 +22.7949252     832.8151     72.60569      1.172     2.32     4.068439     20.48427     137.6076        16     1.014     0.821 -21.95   0
        78    436.2446    830.7758 300.0879636 +22.7459487     361.0148     72.62418      1.034     4.03     4.027997     20.48427     54.68053         8     1.090     0.529 -42.99   0
        79    201.4718    830.6078 300.0150187 +22.6754521     692.7303      72.5872      1.212     2.55     4.045975     20.48427      104.236        13     1.005     0.744  37.26   0
        80      5.9463    826.3752 299.9556570 +22.6155429     630.9218     72.62418      1.595     5.59     3.998397     20.48427     60.00937        11     1.190     0.740 -67.18  16
        81    446.9276    825.5527 300.0929861 +22.7476554     808.2979     72.60569      1.201     2.28     4.036932     20.48427     127.7512        11     0.891     0.706  76.27   0
        82    848.0287    822.0006 300.2190391 +22.8669135     567.1014      72.5687      1.279     2.35     4.164537     20.48427       87.584         9     0.762     0.736 -71.37   0
        83    348.7785    821.5215 300.0637686 +22.7170526     360.0876     72.60569      1.094     2.17     3.989018     20.48427     59.30545         5     0.695     0.452 -23.76   0
        84    305.0255    821.0012 300.0503329 +22.7037749     314.9105     72.55019      1.297     4.90     3.961328     20.48427     33.53931         8     0.955     0.712  -5.26   0
        85     34.5368    820.0813 299.9665823 +22.6223233     685.9107     72.71657      2.163     3.77     4.033632     20.48427      64.2003        12     1.120     0.839  48.12   0
        86    392.9489    820.1622 300.0779481 +22.7299153     521.0659     72.62418      1.191     2.80     4.002769     20.48427       66.381         8     0.824     0.627 -42.87   0
        87    601.0891    819.3513 300.1429812 +22.7921159      289.748      72.5872      1.091     3.10     4.067255     20.48427     43.41537         7     0.729     0.665   3.05   0
        88    825.9070    816.9083 300.2138016 +22.8588207     344.1697     72.77194      1.105     2.55     4.231845     20.48427     71.34235        10     0.880     0.728 -88.11   0
        89    199.0103    814.6008 300.0194603 +22.6701243     561.8364     72.42052      1.476     3.52     3.957411     20.48427     79.78025        11     0.985     0.869  60.51   0
        90    231.4387    808.3421 300.0315746 +22.6780624     218.8035     72.60569      1.948     4.00     3.917403     20.48427     26.40833         6     0.969     0.474   1.95   0
        91    522.3127    805.0187 300.1231226 +22.7643775     381.9424     72.55019      1.107     1.98     4.072574     20.48427     88.27456         6     0.782     0.444  47.57   0
        92    491.7847    803.4429 300.1141349 +22.7547688     661.1852     72.62418      1.168     2.67     4.066589     20.48427     98.52548        11     0.954     0.710 -62.66   0
        93    401.1865    802.6306 300.0862128 +22.7273584     275.5743      72.5872      1.216     3.02     3.995859     20.48427     46.69065         6     0.734     0.602  45.45   0
        94    908.3397    799.6590 300.2451059 +22.8785752     4453.264     72.67963      1.253     2.24     4.313297     20.48427     648.7986        30     1.054     1.013 -47.52   0
        95    513.7358    800.5994 300.1218908 +22.7605371      1349.06     72.60569      1.159     2.06     4.070329     20.48427     264.3569        16     0.960     0.852  39.63   0
        96    433.4687    800.2685 300.0970233 +22.7363653     397.3584     72.66115      1.212     2.66     4.026344     20.48427      64.2692         7     0.781     0.643 -15.34   0
        97    896.7627    791.1219 300.2442738 +22.8726544     1592.987      72.5872      1.237     2.19     4.350461     20.48427     261.2195        16     0.900     0.883 -89.19   0
        98    259.9127    785.2610 300.0479323 +22.6799892     912.5452      72.6981      1.386     2.43     3.879918     20.48427     125.4762        13     0.999     0.749  72.03   0
        99    125.5587    786.0491 300.0059232 +22.6398932     306.9845     72.62418      1.242     3.88     3.988898     20.48427     49.19656         8     0.889     0.700 -27.20   0
       100    276.2664    785.0322 300.0530906 +22.6848309     274.5411     72.60569      1.434     4.84     3.879918     20.48427     34.13339         6     1.245     0.532 -62.34   0
       101    723.0054    782.4588 300.1929470 +22.8180842     2556.868      72.5687      1.223     1.99      3.84578     20.48427     386.6804        20     0.974     0.890  13.11   2
       102    927.8962    781.0742 300.2572479 +22.8790993     1625.312     72.75349      1.317     2.19     4.221923     20.48427     228.1425        19     1.036     0.949 -60.03   0
       103    108.4025    769.2191 300.0060665 +22.6299192      627.163     72.53168      1.479     3.02     4.089471     20.48427     70.64943         8     0.927     0.565 -75.83   0
       104    805.5883    768.1686 300.2233234 +22.8387375     763.4423     72.60569      1.596     3.61     4.374166     20.48427       96.257        12     1.159     0.735  36.78   0
       105    841.5704    759.2868 300.2374251 +22.8469721     146774.7     72.60569      1.179     2.05     4.434162     20.48427     20291.93       156     1.310     1.230 -83.47   0
       106    603.8836    763.2534 300.1620973 +22.7768562     375.2324     72.64267      1.224     2.83     4.067658     20.48427     60.89611         7     0.807     0.612  12.81   0
       107    988.5556    760.9628 300.2827035 +22.8914997      1305.07     72.67963      1.344     2.38     4.006602     20.48427     186.5916        15     0.984     0.844  -4.22   0
       108    694.0555    759.7484 300.1913160 +22.8028864     703.6443     72.64267      1.148     2.09     3.853948     20.48427      123.412        10     0.819     0.667   3.76   0
       109    874.2362    752.0459 300.2499612 +22.8546828     335.0889     72.64267      1.001     1.86     4.432838     20.48427     90.79063         7     0.679     0.614  76.99   0
       110    527.8289    748.3121 300.1432820 +22.7497617     1636.664     72.60569      1.163     2.15     4.088055     20.48427     273.2808        15     0.879     0.818 -20.73   0
       111    709.0402    745.4879 300.2006208 +22.8032852     9332.473      72.5872      1.156     1.94     3.836544     20.48427     1528.327        35     1.027     0.967 -84.57   0
       112    210.5270    740.8347 300.0470289 +22.6524306     5089.759      72.5872      1.294     2.24     3.879918     20.48427     772.1824        31     1.090     1.053  63.52   0
       113    292.4871    738.9318 300.0731250 +22.6764773     1145.694     72.71657      1.154     2.05     3.889738     20.48427     197.6923        15     0.968     0.778  29.54   0
       114    168.4518    736.4800 300.0353693 +22.6385556     534.9825     72.60569      1.363     3.19     3.888018     20.48427     86.33553        11     1.090     0.803 -24.35   0
       115    500.8420    734.1284 300.1394957 +22.7375986     840.3181      72.5872      1.232     2.70     4.116405     20.48427     129.1028        12     0.990     0.718  70.03   0
       116    492.5332    726.3910 300.1394260 +22.7328867     3192.048     72.60569      1.068     1.96     4.207838     20.48427     498.1553        18     0.890     0.826  54.26   0
       117    553.7032    722.2349 300.1598149 +22.7500379     316.2349     72.60569      1.135     3.39     4.219467     20.48427     41.56752         5     0.920     0.415   5.97   0
       118    482.6317    720.2557 300.1383398 +22.7281568     1478.667     72.62418      1.116     1.95     4.280672     20.48427     267.3017        13     0.819     0.793  65.30   0
       119    411.2251    719.8359 300.1162603 +22.7066198     325.1873     72.62418      1.054     2.25     4.183576     20.48427     62.65737         5     0.718     0.476  40.81   0
       120    876.3106    717.8011 300.2617440 +22.8454706     443.5243     72.53168      1.069     2.36     4.395046     20.48427     84.32872         7     0.795     0.567  54.01   0
       121    393.6626    717.5037 300.1115557 +22.7006828     358.3025      72.6981      1.284     3.58     4.198347     20.48427     50.22856         9     1.021     0.607  85.16   0
       122    146.1025    716.5073 300.0349187 +22.6261220     678.2805     72.79039      1.291     2.79     4.118937     20.48427     93.04636        11     0.969     0.719  47.49   0
       123    160.2254    714.9737 300.0398056 +22.6299205     669.9674      72.5687      1.365     2.75     4.065595     20.48427     75.50774        10     0.868     0.733  16.42   0
       124    929.7471    711.2061 300.2805469 +22.8595884     526.1618      72.5687      1.205     2.76     4.224626     20.48427     83.13847         8     0.877     0.622  56.40   0
       125    217.2030    711.8029 300.0585432 +22.6461088     394.9577     72.38342      1.426     2.43     4.062057     20.48427     44.01539         6     0.713     0.563 -42.11   0
       126    186.3015    711.6503 300.0489891 +22.6367926     463.1747     72.67963      1.126     2.38     4.074934     20.48427     80.45592        10     0.879     0.684  41.62   0
       127    407.5470    709.9644 300.1183258 +22.7026845     1749.655     72.62418      1.162     2.03     4.246192     20.48427     286.8885        16     0.879     0.826 -87.52   0
       128    506.6723    710.1784 300.1490974 +22.7324749     484.6362     72.62418      1.155     2.69     4.384954     20.48427     73.05264         7     0.793     0.624  22.68   0
       129    441.5213    709.1898 300.1291467 +22.7126523     274.8227      72.5687      1.038     2.12     4.315281     20.48427     48.87076         5     0.688     0.452 -65.88   0
       130     61.4895    705.0381 300.0123624 +22.5974396     19867.19      72.5872      1.414     2.42     4.556131     20.48427     2783.033        62     1.279     1.238   1.46   0
       131    983.3914    707.1016 300.2986085 +22.8744817     845.5955     72.47612      1.238     2.28     3.937612     20.48427     140.2222        12     0.899     0.755  36.49   0
       132    492.4530    705.1910 300.1462941 +22.7267796     1040.316     72.60569      1.189     2.18     4.453296     20.48427     154.8989        11     0.824     0.714 -49.07   0
       133    527.4626    704.2739 300.1574875 +22.7370150     394.3546     72.64267      1.249     3.06     4.434138     20.48427     63.24575         7     0.929     0.501 -29.03   0
       134    409.6318    702.2623 300.1214785 +22.7011002     237.5395     72.62418      1.031     3.21     4.295912     20.48427     41.50751         6     0.849     0.506  44.92   0
       135    547.3929    697.2548 300.1659728 +22.7409769     251.1063     72.60569      1.153     3.54     4.474117     20.48427     36.45013         5     0.778     0.465  76.13   0
       136    910.4055    691.1920 300.2810244 +22.8480448     1041.367     72.45759      1.148     1.85     4.300726     20.48427     168.2155        13     0.837     0.759  29.07   0
       137    575.7782    692.6479 300.1763062 +22.7481658     228.1348     72.62418      1.140     3.04     4.316371     20.48427     36.00479         5     0.733     0.449  16.30   0
       138      7.4938    689.2763 300.0007177 +22.5767142     1456.995     72.73503      1.786     4.27     4.688134     20.48427     136.3807        26     1.477     1.070 -74.81  16
       139     73.5151    689.5842 300.0211215 +22.5966185     420.9497      72.5687      1.432     3.68     4.576153     20.48427     61.02169         8     1.005     0.656  28.67   0
       140    776.9924    689.2767 300.2400673 +22.8075156     513.0438     72.55019      1.154     3.08     4.235002     20.48427     77.97913         8     0.908     0.603  31.58   0
       141    456.0173    685.7748 300.1412693 +22.7102814     497.5146     72.62418      1.257     2.76     4.576731     20.48427     77.68074         9     0.933     0.634 -28.09   0
       142    850.5079    683.6796 300.2647961 +22.8279395     828.9139     72.71657      1.290     2.34     4.357551     20.48427     124.6808        15     0.995     0.854  75.16   0
       143    412.5915    678.0579 300.1302681 +22.6950435      874.101      72.5872      1.164     2.16     4.446057     20.48427      132.828         9     0.769     0.671 -38.82   0
       144    767.5563    676.4993 300.2412815 +22.8010187     851.7446     72.60569      0.809     2.91     4.222272     20.48427     281.3759         5     0.633     0.392  52.15   0
       145    560.4486    676.5035 300.1767830 +22.7389360     574.4528     72.64267      1.074     2.52       4.5459     20.48427     86.15721         9     0.811     0.749 -57.55   0
       146    607.4164    675.0336 300.1918824 +22.7525958     450.8557      72.5872      1.212     2.10     4.123487     20.48427     83.13013         7     0.697     0.636 -57.82   0
       147    578.3232    674.7545 300.1829158 +22.7437932     523.6538      72.5872      0.984     1.78     4.393506     20.48427     94.92215         7     0.722     0.534  55.93   0
       148    457.0323    674.0771 300.1453880 +22.7072293     930.2103     72.60569      1.365     2.45     4.700315     20.48427     148.5062        14     1.111     0.837  19.19   0
       149    890.5186    669.2525 300.2819578 +22.8357849     3269.743     72.64267      1.156     2.03     4.324454     20.48427     471.9738        22     0.977     0.910  74.02   0
       150    422.2848    669.4467 300.1360828 +22.6954800     1655.923      72.5872      1.106     1.94     4.532634     20.48427      264.256        17     0.903     0.832 -80.59   0
       151    988.4376    667.3813 300.3130967 +22.8645831     680.3945     72.60569      1.152     2.24     3.897417     20.48427     91.03051        11     0.838     0.736  -4.84   0
       152    787.5432    666.2529 300.2508400 +22.8040665     307.1655     72.66115      1.129     2.54      4.29323     20.48427     52.75268         5     0.694     0.477 -73.50   0
       153    397.8531    664.7781 300.1300005 +22.6868131     262.5048     72.60569      1.112     2.30     4.512928     20.48427     47.87188         6     0.721     0.548  46.41   0
       154    451.4341    660.0535 300.1482049 +22.7015265     299.6838     72.62418      1.190     2.90     4.734919     20.48427     40.90211         6     0.773     0.495 -88.42   0
       155    929.8759    659.2058 300.2974938 +22.8446908     362.0558     72.53168      1.215     2.07     4.296316     20.48427     65.09417         6     0.703     0.547 -44.86   0
       156    285.7291    656.2849 300.0978930 +22.6507449     8989.358     72.71657      1.172     2.01      4.37168     20.48427     1463.253        35     1.056     0.995  52.64   0
       157    408.1556    653.2391 300.1369561 +22.6865921     8869.695     72.67963      1.155     1.93      4.59241     20.48427     1611.444        33     0.985     0.966 -56.55   0
       158    173.2750    650.7853 300.0647268 +22.6154299     230.5954     72.60569      1.115     3.79     4.477666     20.48427     40.88087         5     0.869     0.475 -43.33   0
       159    812.7297    650.4385 300.2638292 +22.8070728      265.968      72.5687      1.187     2.59     4.326891     20.48427     43.75425         5     0.709     0.447 -23.10   0
       160   1012.6284    648.0414 300.3269285 +22.8662731     908.1818     72.62418      1.257     2.96      3.64623     20.48427     125.2486        14     1.056     0.750  50.72   0
       161    654.5853    649.3998 300.2149026 +22.7593775     311.2058     72.45759      1.154     2.57     4.095011     20.48427     61.93387         5     0.699     0.474 -13.99   0
       162     52.3964    649.1259 300.0277132 +22.5786810     268.7106     72.51316      1.311     4.11     4.623106     20.48427     41.56948         7     0.950     0.602  37.45   0
       163    904.4238    644.3911 300.2943747 +22.8328100     12401.64     72.60569      1.130     1.96     4.315897     20.48427     1778.965        44     1.084     1.033 -60.31   0
       164    819.7726    647.0468 300.2671265 +22.8082091     1781.601     72.64267      1.127     1.83     4.326891     20.48427     365.3928        14     0.943     0.724  84.27   0
       165    468.6869    642.8295 300.1591717 +22.7017575     11590.43     72.60569      1.143     1.86     4.884139     20.48427     2227.351        37     1.038     0.939  76.79   0
       166    638.1523    638.4833 300.2133339 +22.7513176     431.5516     72.60569      1.016     1.94     4.257567     20.48427     94.61593         8     0.723     0.631 -86.53   0
       167    196.0674    638.2285 300.0758913 +22.6186672     1335.167     72.60569      1.273     2.49     4.484558     20.48427     190.0667        17     0.998     0.901  84.33   0
       168    354.0209    637.4276 300.1252577 +22.6658197       138.37     72.60569      0.977     2.81     4.491488     20.48427      55.9346         6     0.773     0.631  35.63   0
       169    442.9561    635.6204 300.1535092 +22.6919729     401.5836     72.66115      1.132     2.33     4.816412     20.48427     91.02043         8     0.837     0.619  57.81   0
       170    400.3461    631.0089 300.1417525 +22.6778715     4257.859     72.60569      1.144     1.97     4.687035     20.48427     709.5078        23     0.937     0.900  53.24   0
       171    743.3054    630.9155 300.2485445 +22.7806617     804.2175     72.79039      1.149     1.90     4.196882     20.48427     163.2606        12     0.932     0.736  26.31   0
       172    378.6942    629.4445 300.1355262 +22.6709292     1182.168     72.62418      1.090     2.00      4.60607     20.48427     202.4931        14     0.860     0.792  19.76   0
       173    132.9809    628.8851 300.0593245 +22.5970592     609.0187     72.53168      1.251     2.03     4.613143     20.48427     121.4578         9     0.740     0.704 -11.04   0
       174    820.1863    626.3110 300.2739957 +22.8023779     1513.134     72.55019      1.184     2.41     4.318348     20.48427     253.1982        16     1.004     0.784 -41.28   0
       175    517.0134    618.5289 300.1821087 +22.7092736     201669.8     72.60569      1.124     1.80     4.921721     20.48427     37493.77       198     1.323     1.278 -57.30   0
       176     66.9696    626.4025 300.0396249 +22.5765392     227.9612      72.5687      1.518     4.28     4.616024     20.48427     32.61465         6     0.928     0.561  88.72   0
       177    340.7805    624.9758 300.1251872 +22.6582760     262.0768     72.60569      1.073     2.44     4.484015     20.48427     62.73293         5     0.676     0.630  85.86   0
       178    700.7605    623.4667 300.2377128 +22.7657721     925.5853      72.5687      1.044     1.97     4.132267     20.48427       147.64        10     0.764     0.685  81.65   0
       179    905.1304    620.1314 300.3024807 +22.8260531     237.3415     72.66115      1.235     3.29     4.314095     20.48427      55.5809         5     1.055     0.430  62.41   0
       180    794.1578    621.6551 300.2673982 +22.7932414     193.0934     72.60569      0.952     3.45     4.297919     20.48427     40.63708         5     0.770     0.446 -15.21   0
       181    203.0802    618.6818 300.0844236 +22.6151649     3432.657     72.75349      1.224     2.15     4.531326     20.48427     511.7791        24     1.048     0.926  40.41   0
       182    768.9987    614.4744 300.2618930 +22.7836401     361.1252     72.49464      1.004     2.15     4.257019     20.48427     93.84286         8     0.851     0.556  43.67   0
       183    382.4084    615.1899 300.1413143 +22.6679530     232.9818     72.49464      0.949     2.41     4.666435     20.48427     44.40249         5     0.705     0.454  69.62   0
       184    787.9069    612.5317 300.2684158 +22.7887482      368.786     72.73503      1.314     2.21     4.286075     20.48427     51.25185         6     0.743     0.499   0.84   0
       185    634.2032    610.6879 300.2211386 +22.7421542      147.464     72.53168      1.106     3.64     4.474057     20.48427     40.58472         5     0.877     0.435 -47.61   0
       186    548.4905    604.9850 300.1963076 +22.7148231     297.4524     72.53168      0.962     2.03     4.881107     20.48427     52.26513         6     0.723     0.499  86.76   0
       187    407.6290    599.1841 300.1543611 +22.6709234     2776.208     72.60569      1.243     2.18     4.850935     20.48427     463.8827        25     1.345     0.867 -88.55   0
       188    252.0331    601.1327 300.1053426 +22.6248163     346.4762     72.60569      1.202     2.33     4.482755     20.48427     91.75946         9     0.863     0.665   7.19   0
       189    818.9330    594.8193 300.2838407 +22.7929575     389.2945      72.5687      1.251     2.10     4.323444     20.48427     67.39617         6     0.701     0.544  34.52   0
       190    637.9023    594.5026 300.2275506 +22.7386161     355.1424     72.80884      1.281     1.91     4.471952     20.48427     61.00069         5     0.685     0.457  23.43   0
       191    724.7524    587.3013 300.2569401 +22.7625774     398.3599     72.64267      1.099     1.98     4.225481     20.48427     68.84915         6     0.678     0.545 -51.01   0
       192    804.6237    584.8128 300.2826335 +22.7857961     1750.245     72.60569      1.086     1.92     4.319632     20.48427     307.2628        15     0.868     0.809  69.98   0
       193    691.3304    584.8530 300.2473254 +22.7518584     313.5866     72.60569      1.028     2.45     4.213513     20.48427     68.18294         6     0.856     0.582  -9.31   0
       194    675.7598    582.6120 300.2432041 +22.7465485     2503.418     72.60569      1.044     1.76      4.21345     20.48427     491.4737        19     0.877     0.808  74.70   0
       195     35.1929    583.3655 300.0437409 +22.5546633     244.7169     72.60569      1.063     2.90     4.554981     20.48427     42.23119         6     0.726     0.612 -55.78   0
       196    920.1714    579.5113 300.3203719 +22.8188896     490.3435      72.5872      1.183     2.11     4.418756     20.48427      75.0813         5     0.696     0.434  27.19   0
       197    885.3776    579.2324 300.3096156 +22.8083867     221.6991     72.60569      1.040     2.30     4.398676     20.48427     50.16612         5     0.684     0.469  75.59   0
       198    580.4607    579.1252 300.2146635 +22.7169835     342.8113     72.66115      0.955     2.22      4.79634     20.48427     78.21213         7     0.809     0.554  37.72   0
       199    462.9983    578.5704 300.1782859 +22.6816100      761.899      72.5687      1.126     2.02     4.950187     20.48427     130.4964        11     0.889     0.655  71.88   0
       200    933.0552    576.5632 300.3253469 +22.8219019      1265.99     72.60569      1.065     1.91     4.412629     20.48427     228.5798        12     0.821     0.716  63.04   0
       201    918.7932    575.5834 300.3212187 +22.8173483      772.455     72.53168      1.226     2.18     4.433336     20.48427     104.3931        10     0.821     0.700  88.95   0
       202    804.8596    575.3737 300.2857745 +22.7831556     2120.983     72.60569      1.069     1.73     4.325626     20.48427      401.407        18     0.907     0.801 -78.14   2
       203    804.1658    571.5508 300.2868007 +22.7818497     416.9734     72.64267      1.212     4.11     4.326251     20.48427     60.42314         6     1.056     0.457 -30.17   2
       204    558.2798    573.0915 300.2097194 +22.7086024     686.8913     72.71657      1.490     1.72     4.854617     20.48427     107.0326         7     0.684     0.579  82.38   0
       205    842.9644    570.0070 300.2993936 +22.7930304     4173.449     72.62418      1.172     1.83     4.374785     20.48427     893.2259        24     0.960     0.861  67.54   0
       206    396.6805    572.0087 300.1597863 +22.6598419     456.3804     72.55019      1.242     2.85     4.803322     20.48427     66.67468         7     0.749     0.628 -80.76   0
       207    343.7567    572.8714 300.1430454 +22.6442188     355.5045      72.5687      1.159     3.66     4.561895     20.48427     53.37933         8     0.878     0.685  63.22   0
       208    483.7509    569.6252 300.1876502 +22.6852646     205.6341     72.62418      1.175     3.45     4.948337     20.48427     44.61417         5     0.931     0.473   7.48   0
       209    640.7993    565.7576 300.2377939 +22.7312311     260.4018     72.62418      1.645     3.89     4.493765     20.48427     33.23708         5     0.949     0.456  45.96   0
       210     74.9964    560.6597 300.0634812 +22.5600958     1016.214      72.5687      1.278     2.27     4.563505     20.48427     166.5376        14     1.077     0.735  70.59   0
       211    934.8978    560.5084 300.3311387 +22.8178411     620.0598     72.79039      1.019     2.00      4.47807     20.48427     123.5194        10     0.843     0.635 -67.65   0
       212    874.4731    557.9099 300.3131456 +22.7989946     263.1183     72.77194      1.095     2.13     4.436573     20.48427     52.50713         5     0.701     0.463 -69.10   0
       213    735.9682    554.0209 300.2712488 +22.7563808     283.6463     72.60569      1.141     2.37     4.257567     20.48427     53.09021         5     0.615     0.580   0.91   0
       214    341.3058    553.8953 300.1484491 +22.6380387     184.4264     72.77194      0.802     2.06     4.586058     20.48427     54.81373         5     0.714     0.426 -72.18   0
       215    122.6191    552.9543 300.0807790 +22.5721741      68.2744     72.64267      1.065     4.41     4.547243     20.48427     36.64799         6     0.848     0.652 -54.17   0
       216    968.8741    551.4597 300.3446735 +22.8254175     212.1252     72.64267      1.208     3.47     4.419257     20.48427     33.31408         5     1.265     0.275 -53.78   0
       217     67.5434    550.6423 300.0644209 +22.5549868     327.6184      72.5687      1.147     3.67     4.551653     20.48427     62.35624         8     0.950     0.611  70.62   0
       218    931.2274    549.4735 300.3335801 +22.8135711      316.717     72.60569      1.144     2.52     4.548046     20.48427     67.56294         8     0.780     0.725 -84.45   0
       219    675.2056    544.2566 300.2554951 +22.7353685     484.2216      72.5687      1.177     3.31     4.335165     20.48427     67.57275         8     0.891     0.661 -65.76   0
       220    284.0917    542.9935 300.1342006 +22.6177522     253.7625     72.51316      1.264     2.85      4.44916     20.48427     49.96882         6     0.754     0.536 -64.22   0
       221    564.2462    542.2415 300.2216008 +22.7015342     376.7475     72.66115      1.007     1.99     4.836237     20.48427     73.47124         6     0.711     0.515  50.14   0
       222    616.3704    540.6135 300.2383574 +22.7166898     703.6127     72.60569      1.026     2.10     4.681671     20.48427      131.144         9     0.759     0.680 -10.32   0
       223   1023.5436    538.1613 300.3660448 +22.8379684     714.4991     57.23878      0.962     2.00     4.340857     20.48427     166.3592         8     0.795     0.564  78.69  24
       224    931.0735    532.7869 300.3389541 +22.8087305     573.3272     72.62418      1.212     1.97     4.547228     20.48427     119.5401         9     0.799     0.637  69.12   0
       225    677.2599    532.7296 300.2598801 +22.7326739     976.0286     72.64267      1.142     1.73     4.340889     20.48427     196.9817        12     0.947     0.663 -31.33   0
       226    834.4276    528.8135 300.3101183 +22.7786395     1035.595     72.60569      1.128     2.07      4.38881     20.48427     180.4394        11     0.872     0.724  81.19   0
       227     23.6272    525.4014 300.0589813 +22.5345714     141.6601     72.55019      1.819     4.97     4.476279     20.48427      24.2725         5     1.346     0.519  46.23   0
       228    818.8105    525.1873 300.3064295 +22.7729193     696.6582     72.49464      1.117     1.91     4.358646     20.48427     120.1134         9     0.720     0.681 -14.11   0
       229    799.0381    525.3888 300.3002024 +22.7670538     342.9713      72.5872      1.188     3.58      4.32205     20.48427      56.5657         7     0.873     0.562  35.92   0
       230    562.9957    523.3937 300.2273352 +22.6957481     3162.756     72.45759      1.075     1.84     4.822229     20.48427     588.0441        18     0.882     0.807  61.57   0
       231    709.2451    522.9849 300.2730085 +22.7394598     344.5853     72.62418      1.222     3.29     4.303112     20.48427     44.90829         5     0.810     0.469 -43.71   0
       232    923.7239    521.9066 300.3401978 +22.8034029     463.6856     72.75349      1.150     2.42     4.527378     20.48427     91.94976        10     0.849     0.713  74.54   0
       233    490.6437    516.2767 300.2071285 +22.6720174     203.9169      72.5872      1.223     3.45      4.79219     20.48427     35.68841         5     0.748     0.459 -76.72   0
       234     39.2584    515.2491 300.0671338 +22.5363500     416.5499     72.66115      1.177     3.32     4.444274     20.48427     60.93211         7     0.986     0.518 -64.31   0
       235    334.8381    511.2903 300.1602795 +22.6238731     345.8124      72.5872      1.226     1.59     4.616139     20.48427     68.24979         5     0.668     0.426 -17.77   0
       236    402.6723    510.1751 300.1817400 +22.6438925     314.4266     72.64267      1.104     2.66     4.720186     20.48427      64.8797         6     0.810     0.646   3.90   0
       237    974.3170    502.2517 300.3623592 +22.8129070     1195.092     72.64267      1.104     1.98     4.439004     20.48427     217.7874        14     0.901     0.735  70.26   0
       238    846.2731    502.1903 300.3224598 +22.7745394     615.5367     72.60569      1.178     1.75      4.40636     20.48427      119.214         8     0.783     0.571 -83.03   0
       239    932.6733    500.9295 300.3498033 +22.8000556     898.9685     72.67963      1.104     1.86      4.49535     20.48427     176.4273        12     0.851     0.796  24.66   0
       240    582.6115    499.0676 300.2413446 +22.6946428     208.6058     72.60569      0.974     2.13     4.786445     20.48427      55.8702         6     0.747     0.485  85.30   0
       241    673.5734    497.3278 300.2702334 +22.7214023     1214.108     72.60569      1.086     1.92     4.372347     20.48427     192.3156        12     0.817     0.724 -88.78   0
       242    469.4495    497.9601 300.2064837 +22.6604058     485.1992     72.62418      1.190     2.04     4.704201     20.48427      92.3243         8     0.751     0.642  -2.80   0
       243    177.6461    495.8336 300.1164338 +22.5722959     673.0488     72.64267      1.188     2.14     4.486313     20.48427     115.3539         9     0.786     0.671  22.58   0
       244    239.9348    491.4230 300.1372263 +22.5897124     3564.569      72.5872      1.172     2.03     4.634322     20.48427     586.1862        25     0.972     0.930  49.19   0
       245    973.0030    489.6032 300.3660585 +22.8088785     4293.034     72.38342      1.146     1.81     4.434474     20.48427     830.9725        22     0.929     0.880 -73.13   0
       246    187.0978    486.2426 300.1224864 +22.5723793     7441.474     72.60569      1.236     2.12     4.517028     20.48427     1147.999        35     1.044     1.024  56.94   0
       247    952.9493    480.5660 300.3627409 +22.8002760     1855.098     72.62418      1.128     1.95     4.447834     20.48427     346.6554        18     0.965     0.844 -61.47   0
       248    327.9142    480.3608 300.1681734 +22.6129208     4777.197      72.5872      1.158     2.05     4.652796     20.48427     752.0369        24     1.018     0.850  67.64   0
       249    588.8213    477.9316 300.2501436 +22.6904347     602.9311     72.60569      1.223     2.96     4.787856     20.48427     89.63737        11     0.934     0.786  66.46   2
       250    590.7580    475.4676 300.2515470 +22.6903076      400.779      72.5872      1.008     2.31     4.790097     20.48427     77.31921         5     0.744     0.426  74.85   3
       251    572.0474    476.9938 300.2452263 +22.6851384     18213.08     72.60569      1.161     1.80     4.788195     20.48427     3870.344        51     1.134     0.982  32.19   0
       252    971.6449    476.8390 300.3697815 +22.8048035     179.4105     72.67963      1.026     3.44     4.434418     20.48427     30.30203         5     0.775     0.442  73.31   0
       253    815.9927    473.1603 300.3224533 +22.7571287     283.7943     72.64267      1.206     4.81     4.329056     20.48427     44.49698         8     1.040     0.630  25.89   0
       254    769.0483    467.4468 300.3096811 +22.7414247     309.3078     72.62418      1.067     2.34     4.278851     20.48427     80.07912         6     0.738     0.604 -27.37   0
       255    192.1121    464.2286 300.1311949 +22.5675673     380.6573     72.60569      1.367     2.06     4.504763     20.48427     55.05933         6     0.711     0.529  59.00   0
       256    905.7854    459.2590 300.3549568 +22.7800286     807.9794      72.5872      1.246     2.63     4.459789     20.48427     117.7532        12     0.923     0.761 -23.50   0
       257    442.4312    459.0302 300.2107222 +22.6411310     379.0814     72.60569      1.047     2.01     4.626374     20.48427     61.83494         5     0.682     0.445  65.05   0
       258    615.5330    457.8493 300.2649832 +22.6926725      147.369     72.60569      0.977     2.32     4.776072     20.48427     62.27906         5     0.705     0.462  69.21   0
       259    126.8169    457.3786 300.1131296 +22.5460179     2010.926      72.5872      1.245     2.15     4.363157     20.48427     305.1342        19     0.964     0.929 -18.07   0
       260     59.9903    450.9635 300.0944530 +22.5241319      926.803     72.60569      0.421    -9.46     4.314999     20.48427      800.865         6     0.431     0.251  65.31   0
       261    782.8652    448.6174 300.3201021 +22.7401543     254.7575      72.5872      1.321     3.42     4.281197     20.48427     30.43711         5     0.766     0.441  19.04   0
       262    512.7078    446.4692 300.2366704 +22.6585893     6516.692     72.73503      1.076     1.89     4.719598     20.48427     1104.166        27     0.951     0.872  68.75   0
       263    926.3517    446.5526 300.3654960 +22.7825361     1266.219     72.64267      1.080     1.92      4.46787     20.48427     212.5585        14     0.824     0.796  37.45   0
       264    227.3036    445.6960 300.1481518 +22.5728035     640.2321     72.79039      1.126     2.26     4.554786     20.48427     112.0573        11     0.934     0.654  50.94   0
       265     85.1624    439.3202 300.1060533 +22.5283429      552.771      72.5687      1.259     2.55     4.309475     20.48427     78.91871         9     0.854     0.659 -63.88   0
       266    772.6859    437.9670 300.3203895 +22.7340452     322.5518      72.5687      1.180     2.59     4.277617     20.48427     54.61231         7     0.728     0.636  64.55   0
       267    626.5851    436.6914 300.2752963 +22.6899077      553.757     72.53168      1.060     2.16     4.782975     20.48427     96.15945         7     0.829     0.489 -84.55   0
       268    716.8864    435.3643 300.3038510 +22.7165818     1148.896      72.5872      1.148     2.68     4.404432     20.48427     203.4705        12     1.023     0.653  71.11   0
       269    807.5848    434.3863 300.3324271 +22.7434700     237.4046     72.55019      1.771     4.24     4.298151     20.48427     32.15046         5     0.993     0.516  43.39   0
       270    419.3886    432.7656 300.2120834 +22.6266837     6130.113      72.5872      1.106     1.86     4.630522     20.48427     1077.413        30     1.028     0.909  57.83   0
       271    908.8086    427.1516 300.3663277 +22.7717070     647.6669     72.62418      1.132     2.13     4.459034     20.48427     115.0315         9     0.870     0.662  64.94   0
       272    811.2409    426.9004 300.3359977 +22.7424142     1319.872      72.5872      1.039     1.69     4.303425     20.48427      296.817        13     0.915     0.676  69.04   0
       273    403.9973    421.3850 300.2109912 +22.6188028     449.3066     72.43906      1.030     1.79     4.655632     20.48427     89.85441         7     0.660     0.617  40.48   0
       274    486.3659    419.1983 300.2373290 +22.6428640     437.2122      72.5687      1.040     2.07     4.650815     20.48427     83.60613         8     0.736     0.652 -31.48   0
       275    764.9940    417.6076 300.3246050 +22.7258918     114.6055     72.45759      0.983     3.39      4.27562     20.48427     51.69234         6     0.982     0.463 -53.05   0
       276    467.0118    417.2060 300.2319535 +22.6364912     271.0856     72.47612      1.044     2.72     4.636891     20.48427     51.39883         6     0.875     0.447  35.63   0
       277    784.2587    414.6917 300.3315545 +22.7308246     531.6103     72.67963      1.069     1.74      4.27215     20.48427     121.2648         7     0.709     0.555  54.95   0
       278    306.9252    412.0627 300.1838276 +22.5870258     2512.099     72.64267      1.195     1.96     4.908148     20.48427     466.4211        19     0.929     0.826  53.25   0
       279     25.3763    409.5631 300.0971462 +22.5018729     893.6063     72.62418      1.229     2.40     4.288297     20.48427      126.463        14     0.899     0.856 -25.03   0
       280    654.5237    406.7427 300.2937224 +22.6896768     349.5714     72.64267      1.052     2.18     4.821589     20.48427     58.01731         5     0.674     0.482  73.80   0
       281    276.2503    401.4783 300.1777269 +22.5747909     29643.16     72.60569      1.159     2.01     4.842032     20.48427     4540.083        65     1.151     1.058  54.47   0
       282    810.8672    398.6976 300.3450401 +22.7341986     1369.004      72.6981      1.114     1.67     4.261484     20.48427     306.0947        13     0.865     0.730 -82.40   0
       283    766.3480    396.1480 300.3319956 +22.7201318     374.0128     72.64267      1.035     2.94     4.240781     20.48427     57.38018         5     0.733     0.446  73.34   0
       284    583.2959    393.9550 300.2756965 +22.6646625     1460.093     72.62418      0.600     1.04     4.824912     20.48427     786.5253         7     0.494     0.372   2.05   0
       285    768.9230    388.1826 300.3353845 +22.7186144     180.9051     72.60569      1.062     4.28     4.227227     20.48427     40.71594         5     0.756     0.689  23.66   0
       286    726.0433    387.7023 300.3221814 +22.7056325     513.0348     72.60569      1.108     1.77     4.331039     20.48427     119.2191         8     0.690     0.660  22.44   0
       287    150.4569    387.7687 300.1430790 +22.5331363     348.6706     72.62418      1.114     3.14     4.432484     20.48427     65.76188         7     0.938     0.483  81.15   0
       288    374.8499    386.6953 300.2131888 +22.6001069     577.2558     72.66115      1.245     2.03     4.661273     20.48427     92.95498         7     0.697     0.608   5.24   0
       289    553.0552    383.8098 300.2695766 +22.6526873     278.2323     72.60569      1.145     2.36     4.817483     20.48427     43.78236         5     0.756     0.482  52.59   0
       290    686.5030    381.0723 300.3120177 +22.6918831     1946.357     72.73503      1.122     1.93     4.685566     20.48427     331.8016        18     0.997     0.797  34.09   0
       291    494.7364    375.7288 300.2540490 +22.6328905     418.8685     72.64267      1.142     1.86      4.73584     20.48427     82.45159         5     0.695     0.420  76.07   0
       292    901.6818    373.6711 300.3814730 +22.7542023     743.9031     72.73503      1.257     2.00      4.36391     20.48427      121.436         9     0.783     0.677  18.11   0
       293    755.2079    367.0678 300.3379673 +22.7084396     329.2331     72.60569      1.408     2.93      4.19458     20.48427     46.52971         5     0.713     0.670 -77.89   0
       294    348.2802    365.6746 300.2117499 +22.5861078     2260.777     72.71657      1.380     2.78     4.649559     20.48427     310.9686        21     1.285     0.783  60.29   0
       295    560.7584    364.5430 300.2782301 +22.6494620     395.7058      72.5872      1.135     2.93     4.817165     20.48427     59.56251         7     0.943     0.486  46.49   0
       296    787.5283    358.4023 300.3508512 +22.7156297      680.283     72.55019      1.103     2.18     4.173402     20.48427     97.47073        11     0.824     0.739 -27.97   0
       297    779.7829    359.2257 300.3481704 +22.7135466     339.4561     72.62418      1.048     2.35     4.176706     20.48427     68.33372         7     0.917     0.487  26.29   0
       298    686.7548    355.9530 300.3202519 +22.6847421     317.7322     72.64267      1.058     2.16      4.67704     20.48427     69.74706         7     0.690     0.662  71.91   0
       299    669.4437    356.1919 300.3147827 +22.6796251     311.8559     72.62418      1.116     1.86     4.816145     20.48427     102.8952         8     0.779     0.651 -32.63   0
       300    638.0767    355.1402 300.3053558 +22.6699263      345.673     72.66115      0.888     1.66     4.816473     20.48427     74.88906         5     0.573     0.527 -77.41   0
       301    748.2059    349.5348 300.3414782 +22.7013045     316.9866      72.5872      1.889     4.00     4.173466     20.48427     42.53701         6     0.918     0.596 -71.21   0
       302    138.8714    346.6976 300.1528127 +22.5178768      299.094     72.73503      1.245     3.15     4.496172     20.48427     39.87367         5     0.714     0.675  30.24   0
       303    424.2960    345.1664 300.2420532 +22.6030041     1126.297     72.60569      1.149     2.08     4.643109     20.48427     189.4657        13     0.835     0.784 -79.40   0
       304    509.5421    342.7245 300.2693720 +22.6278491     244.3293     72.66115      0.950     3.42     4.804308     20.48427     45.76994         5     0.769     0.441  68.37   0
       305    935.6537    340.4343 300.4028560 +22.7548203     425.9197     72.62418      1.054     2.16     4.396741     20.48427     68.91028         5     0.691     0.459 -76.12   0
       306    163.9830    340.1897 300.1627285 +22.5235393     160.8422      72.5687      1.235     3.27     4.548871     20.48427     32.09798         5     0.795     0.497  56.14   0
       307    669.1215    336.8327 300.3209674 +22.6739668     2168.245      72.5872      1.124     1.78     4.741184     20.48427     472.1013        16     0.893     0.790  63.20   0
       308    930.4026    331.1730 300.4042254 +22.7505859     3153.161     72.55019      1.105     1.92     4.344006     20.48427     566.1101        21     0.933     0.847  65.09   0
       309    991.7892    325.8847 300.4250850 +22.7674426      293.662     72.55019      1.073     1.84     4.535629     20.48427     95.54638         8     0.716     0.640 -41.73   0
       310    301.9760    322.3749 300.2114067 +22.5597973    -168.6744      72.5687      1.235     3.22     4.521891     20.48427     30.48993         6     0.799     0.731  -2.39   0
       311    377.3118    320.8656 300.2353259 +22.5819450      686.232     72.71657      1.145     1.95     4.495002     20.48427     109.7988         8     0.723     0.635  54.98   0
       312    999.8217    318.8642 300.4298693 +22.7678286     1473.068      72.5872      1.160     2.02     4.566324     20.48427     314.0272        14     0.935     0.737  85.99   0
       313     52.2041    315.1906 300.1361153 +22.4828457     1513.739     72.43906      1.504     3.09     4.640594     20.48427     168.5094        22     1.223     0.965 -29.70   0
       314     82.9763    314.9903 300.1457390 +22.4920166     503.1174     72.60569      1.239     3.05     4.554039     20.48427     79.70292        10     0.885     0.760  59.95   0
       315    946.1991    311.2008 300.4156345 +22.7495734     542.0402     72.38343      1.199     2.72     4.330951     20.48427     92.81452        11     0.962     0.770  78.99   0
       316    789.9799    308.4873 300.3678195 +22.7020196     293.5646     72.53168      1.139     3.48     4.167915     20.48427     64.70562         7     0.893     0.637  61.98   0
       317    136.3118    307.2868 300.1648099 +22.5057996     440.5537     72.77194      1.260     2.89     4.546083     20.48427     81.25608        11     0.925     0.865 -79.93   0
       318    931.4213    303.8664 300.4134075 +22.7430409     358.2159      72.5872      1.015     2.15     4.235634     20.48427     83.57748         5     0.733     0.521 -39.43   0
       319    812.4478    300.4865 300.3774181 +22.7064481     355.3364      72.5872      1.314     2.85     4.166171     20.48427     57.57683         6     0.838     0.495 -86.15   0
       320    740.7552    298.1898 300.3558249 +22.6843189     729.7094     72.62418      1.233     1.96     4.175267     20.48427     119.1451         8     0.727     0.641  54.68   0
       321    331.1078    297.8882 300.2284137 +22.5614994     416.4878     72.77194      0.965     1.91     4.288349     20.48427     85.54565         6     0.713     0.508 -61.50   0
       322    831.2937    291.0403 300.3863576 +22.7093762     284.0555     72.62418      1.110     2.11     4.165111     20.48427     56.66465         7     0.702     0.635  63.31   0
       323    838.8514    287.2480 300.3899441 +22.7105491     2010.507     72.64267      1.142     1.92     4.167833     20.48427     356.8036        17     0.930     0.767  69.06   0
       324    257.4693    284.8593 300.2097453 +22.5356861     2065.268     72.62418      1.172     1.99     4.407983     20.48427     328.3403        18     0.998     0.817  82.96   0
       325    145.4092    285.3326 300.1747621 +22.5022267      208.373     72.60569      1.573     5.57     4.568693     20.48427     28.01525         6     1.002     0.872 -34.17   0
       326    335.3554    280.0396 300.2355275 +22.5576479     1056.714     72.67963      1.405     2.70      4.21613     20.48427      124.364        15     0.959     0.874 -82.48   0
       327     87.3319    280.6722 300.1582301 +22.4834750     320.1983     72.66115      1.131     2.10     4.685151     20.48427     50.10931         5     0.682     0.455 -76.36   0
       328    737.2449    278.8117 300.3610209 +22.6776989     577.8113     72.60569      1.177     2.27     4.214954     20.48427      99.3214         9     0.863     0.598  67.04   0
       329    152.0871    272.0336 300.1811531 +22.5004119     831.2817      72.5687      1.223     2.50     4.577131     20.48427     122.1476        12     0.891     0.805  62.81   0
       330    689.9514    268.7167 300.3495650 +22.6606343     1724.572      72.5872      1.107     1.82     4.416776     20.48427     361.2376        18     0.970     0.849  85.41   0
       331    754.9337    268.3498 300.3699273 +22.6799895     624.7654      72.5872      1.202     1.96     4.256571     20.48427     99.18368         7     0.693     0.606  10.74   0
       332    173.3984    265.5435 300.1898820 +22.5049384      491.308     72.55019      1.199     2.66     4.549324     20.48427     71.43876        10     0.838     0.779  83.54   0
       333    463.4342    261.5166 300.2813818 +22.5907101     307.5001      72.5687      1.107     2.64     4.917572     20.48427      64.5168         6     0.762     0.568  47.14   0
       334    961.5687    260.9628 300.4367336 +22.7397303     826.7448     72.60569      1.208     2.74     4.293598     20.48427     131.8609        14     0.949     0.817  -9.21   0
       335    693.9684    260.0887 300.3536163 +22.6593581     722.7642      72.5687      1.144     2.07     4.409813     20.48427      150.947        10     0.797     0.736  17.25   0
       336    615.0869    259.8485 300.3291284 +22.6356632     1531.404     72.60569      1.473     5.81     4.670126     20.48427     320.2746        13     1.398     0.679  32.09   0
       337    435.8767    256.1479 300.2745495 +22.5809110     351.1934     72.60569      1.295     2.31     4.889556     20.48427     55.04346         5     0.739     0.487  47.12   0
       338    809.9908    250.9301 300.3927365 +22.6914687     1377.384      72.5872      1.152     1.95     4.299544     20.48427     283.6837        16     0.938     0.775 -83.55   0
       339    540.6471    251.1801 300.3087666 +22.6108740     772.2026     72.64267      1.023     1.90     4.957945     20.48427     158.7399        10     0.760     0.695  69.46   0
       340    822.0189    249.9682 300.3967972 +22.6947934     944.5195     72.60569      1.281     1.89     4.273063     20.48427     171.6086        12     0.878     0.751  36.60   0
       341    993.0224    246.8315 300.4511290 +22.7450813     327.3329     72.60569      1.100     2.72     4.388255     20.48427     46.71301         5     0.784     0.485  51.14   0
       342    982.8199    240.7892 300.4499080 +22.7402902     1690.003      72.5872      1.217     1.98      4.32866     20.48427     306.6571        18     0.998     0.832  53.51   0
       343    938.8171    240.1596 300.4363903 +22.7269387      1128.67     72.62418      1.103     2.02     4.159991     20.48427     183.5812         9     0.730     0.691 -58.61   0
       344    172.8506    233.6757 300.2000526 +22.4956269     878.5806     72.60569      1.360     2.39     4.574612     20.48427     119.8058        13     0.921     0.798  80.95   0
       345     54.7725    233.0240 300.1635776 +22.4600382     247.8469      72.5872      1.160     2.68     4.900976     20.48427     42.08529         7     0.716     0.668 -83.31   0
       346     34.6718    228.4971 300.1588031 +22.4527118     2208.913     72.73503      1.319     2.37     4.964326     20.48427     311.0886        18     0.997     0.876  81.99   0
       347    857.7383    225.1845 300.4159728 +22.6983627     856.2208     72.55019      1.224     2.14     4.196365     20.48427     135.3942         9     0.800     0.659  77.95   0
       348    192.0916    221.7808 300.2098920 +22.4979802      5670.61     72.53168      1.264     2.12     4.534865     20.48427     915.5964        32     1.141     0.965  59.42   0
       349    990.9155    208.9112 300.4627772 +22.7335460      18056.8     72.73503      1.226     1.97     4.292922     20.48427     3397.672        49     1.126     1.011  87.00   0
       350    175.4588    212.6610 300.2076815 +22.4903763     644.9831     72.66115      1.201     2.27     4.557389     20.48427     79.57971         5     0.667     0.468 -68.83   0
       351    836.1387    202.9769 300.4164463 +22.6855121     3548.823      72.5872      1.169     1.89     4.308731     20.48427     718.2967        22     0.974     0.876  82.95   0
       352    385.4688    198.3686 300.2776157 +22.5492124     616.2029      72.5872      1.225     3.35     4.615418     20.48427     90.57954        11     1.072     0.750 -38.08   0
       353    138.0943    199.3423 300.2003913 +22.4753521     410.6409     72.66115      1.322     3.41     4.663586     20.48427     39.15195         5     0.801     0.421  18.79   0
       354    499.7163    195.9068 300.3139618 +22.5827337     232.1108     72.79039      0.999     2.64     5.012118     20.48427     58.79288         5     0.789     0.455  30.05   0
       355    309.7479    190.2937 300.2566850 +22.5242033     556.3527     72.67963      1.128     2.27     4.374179     20.48427     99.32046         8     0.864     0.571  72.44   0
       356    939.7573    201.7393 300.4491506 +22.7161726     2750.125      72.5872      1.142     1.97     4.186906     20.48427     519.1064        19     0.956     0.818  61.65   0
       357    313.8155    188.6435 300.2584852 +22.5249484     319.2627     72.62418      1.133     2.58      4.36879     20.48427     64.09389         6     0.703     0.621 -53.35   0
       358     75.7633    187.4612 300.1848801 +22.4532554     731.9208     72.62418      1.426     3.44     4.921438     20.48427     81.00431        10     1.000     0.744 -81.03   0
       359    436.8893    185.7007 300.2977225 +22.5609802     1663.497     72.77194      1.135     2.02     4.986229     20.48427     311.8126        15     0.932     0.759  74.27   0
       360    364.8977    186.1490 300.2751813 +22.5395390     457.4024     72.67963      1.332     2.33     4.429142     20.48427      80.0268        10     0.869     0.753  49.19   0
       361    498.6212    184.8115 300.3172206 +22.5792181     263.3312      72.5872      1.070     2.42     5.015724     20.48427     57.73616         7     0.780     0.590 -62.50   0
       362    180.3613    181.1197 300.2194378 +22.4827910     454.5511      72.5687      1.515     3.56     4.502874     20.48427     57.33784         7     0.938     0.655 -78.75   0
       363    725.4904    174.8373 300.3910977 +22.6442961      405.859      72.5872      1.165     2.25     4.436484     20.48427     77.72223         7     0.840     0.493 -82.76   0
       364    608.0602    170.6017 300.3558983 +22.6079144     310.2719      72.5687      1.582     4.40     4.841197     20.48427     30.79936         6     0.863     0.638 -34.05   0
       365    871.1640    169.5082 300.4382223 +22.6863741     400.0405     72.55019      1.056     2.33     4.319545     20.48427     66.44586         7     0.796     0.584 -75.98   0
       366   1001.3676    166.2181 300.4798889 +22.7243953     3533.338      72.5872      1.183     2.09     4.268146     20.48427     537.1512        26     1.034     0.923 -72.09   2
       367    996.7564    168.0478 300.4778571 +22.7235417     320.9408     72.62418      1.140     2.51     4.269023     20.48427     55.01964         5     0.754     0.498  58.20   2
       368    211.0350    165.6503 300.2339896 +22.4875435     5830.971     72.62418      1.249     2.13     4.489346     20.48427     940.7726        30     1.095     0.945  69.27   0
       369    717.3402    165.7671 300.3915013 +22.6392487     386.3685     72.64267      1.153     2.24     4.445396     20.48427     50.66124         6     0.691     0.584  32.30   0
       370     62.2897    165.1396 300.1879355 +22.4428091     607.2397      72.6981      1.266     3.09     4.965117     20.48427     85.05742        12     0.988     0.829 -80.23   0
       371    840.3096    162.3826 300.4309165 +22.6750896     392.8322     72.53168      1.087     1.99     4.352438     20.48427     74.30179         5     0.679     0.450  77.91   0
       372    182.8781    159.6640 300.2271799 +22.4773855     353.7954      72.6981      1.252     3.51     4.476215     20.48427     53.00064         8     0.882     0.649 -13.29   0
       373    226.3417    156.9810 300.2415597 +22.4896418     510.8821      72.5872      1.359     3.20     4.499914     20.48427     73.15004         9     0.986     0.656 -53.88   0
       374    686.8569    156.5620 300.3849919 +22.6274755     185.3073     72.60569      1.037     2.56     4.472788     20.48427     44.28326         5     0.710     0.468  17.88   0
       375    457.0693    150.8695 300.3153007 +22.5570198     6121.831     72.66115      1.217     2.02     4.966681     20.48427     1082.113        28     1.029     0.904  67.45   0
       376    342.4573    150.6792 300.2797079 +22.5226279     713.7546     72.64267      1.308     2.22     4.495526     20.48427     92.30515        11     0.816     0.767  23.95   0
       377    210.6745    145.5675 300.2403918 +22.4816692     389.9545     72.60569      1.839     4.52     4.501819     20.48427     43.37596         6     1.120     0.590  63.70   0
       378    513.6268    145.3361 300.3346965 +22.5723714     150.5481     72.60569      0.901     1.94     4.957884     20.48427     68.25177         5     0.683     0.451  70.12   0
       379    650.9875    141.8876 300.3785804 +22.6125173     272.1772     72.55019      0.994     2.23     4.609524     20.48427     60.34182         7     0.693     0.662  69.99   0
       380    709.6533    140.2285 300.3973911 +22.6296062     753.8901     72.62418      1.164     2.88      4.43095     20.48427     97.61908         8     0.783     0.635  -7.02   0
       381    802.0045    139.0220 300.4265564 +22.6569069     296.2691      72.5687      1.068     2.82     4.350605     20.48427     89.66151         8     0.995     0.483  54.37   0
       382   1012.3668    136.9385 300.4928179 +22.7192649     259.9279     72.62418      1.247     3.38      4.27845     20.48427     35.92592         5     0.783     0.424 -69.55   0
       383    149.7655    134.7378 300.2249743 +22.4603043     493.8526     72.62418      1.414     2.40      4.53977     20.48427     74.65881         7     0.782     0.614 -50.62   0
       384    508.2577    133.4339 300.3368860 +22.5673434     509.2602     72.62418      1.136     2.29     4.900264     20.48427     83.95934         8     0.750     0.707   3.09   0
       385    585.3949    130.9494 300.3617038 +22.5897317     6137.511      72.5872      1.141     1.96     4.887546     20.48427     1047.077        28     1.004     0.895  84.42   0
       386    360.2957    130.0321 300.2919530 +22.5220423     1527.409      72.5687      1.167     2.09     4.706443     20.48427     258.2939        15     0.913     0.783  73.03   0
       387    626.5105    128.0667 300.3754409 +22.6012157     858.8431     72.73503      1.198     2.45     4.734689     20.48427     131.4721        11     0.820     0.803  19.13   0
       388    696.0901    125.6420 300.3978975 +22.6213525     400.2246     72.62418      1.450     3.35     4.430895     20.48427     47.59286         6     0.826     0.595 -40.36   0
       389    642.3962    124.2046 300.3816405 +22.6048625     529.5878     72.42052      1.078     2.32     4.638246     20.48427     87.06119         8     0.873     0.555  71.67   0
       390    108.9532    122.5667 300.2162404 +22.4445769      638.824     72.64267      1.234     2.56      4.78941     20.48427     96.77082        12     0.930     0.764  53.35   0
       391    912.5142    121.4669 300.4666974 +22.6849351     416.8409      72.6981      1.003     2.23     4.314069     20.48427     107.0811         7     0.857     0.498  86.57   0
       392    951.3015    120.9665 300.4789539 +22.6963985     394.4207      72.5872      1.295     2.42     4.297713     20.48427     47.45768         7     0.691     0.669  57.29   0
       393    681.0345    119.6146 300.3951630 +22.6151122     611.3399     72.60569      1.199     2.92     4.440917     20.48427     101.5423        11     0.999     0.686 -75.97   0
       394    644.9016    114.6408 300.3855227 +22.6028638     908.7167      72.5872      1.508     4.64     4.607046     20.48427      126.466        17     1.716     0.647  51.49   0
       395    629.6135    115.7649 300.3803972 +22.5986092     2717.437     72.60569      1.125     1.96     4.695814     20.48427     454.7848        18     0.943     0.806  61.82   0
       396    270.3637    116.8218 300.2682708 +22.4913020     402.1805     72.62418      1.077     2.35      4.73281     20.48427     73.16077         7     0.783     0.589  63.84   0
       397    716.0695    107.3365 300.4100584 +22.6220719     1558.034     72.64267      1.147     2.05     4.388532     20.48427      252.699        13     0.846     0.756  77.22   0
       398    197.9839    103.3361 300.2501439 +22.4657395     274.8284      72.5872      1.209     3.87     4.519565     20.48427     36.29306         5     0.909     0.472   1.20   0
       399    653.9789    100.3784 300.3929752 +22.6014822     705.9072     72.60569      1.161     2.24     4.534865     20.48427     117.6424        11     0.830     0.741 -76.95   0
       400    459.6916     99.8905 300.3326511 +22.5431590     1098.918     72.77194      1.245     2.04      4.76684     20.48427     185.8699        13     0.945     0.821 -54.74   0
       401     32.5598     99.9891 300.1998311 +22.4151958      459.822     72.60569      1.209     2.90     5.118451     20.48427     78.17489         8     0.931     0.602  45.00   0
       402    363.3461     97.9701 300.3033001 +22.5137464     797.1583     72.62418      1.078     2.00     4.962873     20.48427     150.4862        11     0.823     0.710  -9.22   0
       403   1006.4292     94.6981 300.5046666 +22.7053378     2440.312     72.53168      1.178     2.05     4.332926     20.48427     368.8362        20     0.992     0.874  56.21   0
       404    745.8127     96.5527 300.4228219 +22.6278758     397.9484     72.62418      0.992     2.32      4.35245     20.48427     70.08228         6     0.737     0.496   3.52   0
       405    659.4246     94.7757 300.3964883 +22.6015022     267.0864      72.5687      1.342     3.24     4.497148     20.48427     39.38471         5     0.721     0.474 -74.99   0
       406    702.8793     88.5709 300.4120354 +22.6127285     554.1005     72.60569      1.042     2.17     4.386353     20.48427     112.2161        10     0.851     0.691 -34.42   0
       407    134.8585     88.2367 300.2354225 +22.4424853     3932.565     72.60569      1.322     2.28     4.561147     20.48427     515.9911        26     1.129     0.963  34.84   0
       408    557.3195     85.0805 300.3678395 +22.5681421     455.2878     72.73503      1.310     2.73     4.723108     20.48427     58.18916         7     0.720     0.653  44.74   0
       409    460.7186     85.2903 300.3377055 +22.5392716     179.9812     72.71657      0.960     2.13     4.668151     20.48427     55.10665         5     0.706     0.433 -77.35   0
       410    696.0317     80.2388 300.4126044 +22.6082832     943.0759     72.64267      1.098     1.96     4.385449     20.48427     167.8182        13     0.965     0.683  57.78   0
       411    250.8125     80.1473 300.2740856 +22.4749109      1111.99     72.62418      1.260     2.36     4.742792     20.48427     170.6916        16     1.113     0.753  64.02   0
       412    661.5853     79.3864 300.4021519 +22.5977255     372.1308     72.53168      1.262     3.02     4.437897     20.48427     64.35708         6     0.907     0.416  70.94   0
       413    734.0344     75.4299 300.4260025 +22.6182771     787.7385     72.62418      1.438     3.34     4.352789     20.48427     98.28231        11     1.055     0.641  72.03   0
       414    657.5026     75.2579 300.4022191 +22.5953163     490.2444      72.6981      0.986     2.01     4.437485     20.48427     91.65842         7     0.747     0.561  -3.03   0
       415    754.0790     71.5899 300.4334928 +22.6231732     2164.265      72.5687      1.154     1.98     4.348608     20.48427     415.6549        19     0.973     0.847  84.94   0
       416    459.5723     69.8433 300.3423578 +22.5344898     565.0086     72.62418      1.174     2.46      4.57185     20.48427     80.95444         9     0.812     0.678 -89.91   0
       417    137.3055     67.1666 300.2430150 +22.4371689     1033.383      72.5872      1.318     2.63     4.469776     20.48427     128.2584        15     0.955     0.876  82.86   0
       418    928.9879     64.9612 300.4901595 +22.6736130     868.9114     72.60569      1.227     2.05     4.733171     20.48427     141.9555        10     0.819     0.704 -74.10   0
       419    702.3274     64.0916 300.4198018 +22.6055257     941.4545     72.77194      1.229     2.38     4.368188     20.48427     137.3128        12     0.955     0.680  79.70   0
       420    409.4805     62.3276 300.3292093 +22.5173268     229.4823     72.73503      1.128     3.44     4.825142     20.48427      43.9958         5     0.728     0.469  72.04   0
       421    460.6510     56.6892 300.3469588 +22.5310332     289.7847     72.62418      1.006     2.49     4.476955     20.48427      52.8338         6     0.729     0.581  41.89   0
       422    287.0212     53.9348 300.2938429 +22.4782310     444.8607      72.5872      1.431     2.59     5.034592     20.48427     64.20398         7     0.859     0.499 -47.52   0
       423    787.3659     47.8444 300.4515646 +22.6263086       257.79     72.66115      1.171     3.43     4.344911     20.48427      40.9743         5     0.749     0.454 -74.26   0
       424    690.2754     46.7354 300.4216754 +22.5969281     358.1906     72.67963      1.103     2.53      4.35814     20.48427     69.07645         9     0.850     0.704  -3.31   0
       425    554.9052     49.1428 300.3787413 +22.5570907     833.2335     72.66115      1.120     1.97     4.333952     20.48427     181.6226        10     0.801     0.693  58.50   0
       426    164.3177     46.6626 300.2580573 +22.4393762      566.033      72.6981      1.405     2.76     4.373777     20.48427      66.9075         9     0.865     0.693  -1.77   0
       427    717.8248     43.9092 300.4311736 +22.6043623     672.5856     72.55019      1.146     2.24     4.349742     20.48427     120.8223        13     1.032     0.794  83.02   0
       428    526.6404     42.1974 300.3721948 +22.5466308     1882.552     72.62418      1.190     2.11     4.251133     20.48427     286.4532        17     0.957     0.803  89.00   0
       429    249.4761     39.5318 300.2868392 +22.4628453     643.4341      72.6981      1.144     2.26     4.756813     20.48427     85.93487        10     0.845     0.691  85.12   0
       430    483.9264     36.0251 300.3609018 +22.5320658     1397.077     72.64267      1.211     1.95     4.183408     20.48427     256.2296        15     0.942     0.800  82.33   0
       431    589.3179     32.5883 300.3948223 +22.5626365     1391.716      72.5687      1.214     2.21     4.159956     20.48427     221.1548        17     1.006     0.851  47.46   0
       432    184.4803     32.0316 300.2690671 +22.4412164     596.6358     72.60569      1.488     2.67     4.417224     20.48427     94.28928        11     1.056     0.669  75.54   0
       433    233.2882     29.5349 300.2850477 +22.4551238      493.704      72.6981      1.250     2.44      4.63163     20.48427      68.6521         7     0.779     0.625 -80.50   0
       434    409.7663     26.6004 300.3408819 +22.5071472     2148.768      72.5687      1.214     2.11     4.672338     20.48427      336.166        22     1.050     0.907  76.71   0
       435     56.7907     24.6398 300.2317880 +22.4008276     1412.071     72.60569      1.400     2.90     4.843458     20.48427     185.2908        19     1.100     0.961   1.21   0
       436    900.7916     23.5846 300.4947845 +22.6532746     203.7207     72.53168      0.868     3.31      4.81687     20.48427     46.88028         5     1.062     0.299 -54.46   0
       437    540.7025     21.2251 300.3833716 +22.5448140     501.0269     72.53168      1.324     3.52     4.029347     20.48427      61.5232         9     0.965     0.691  36.64   0
       438    199.4053     18.8299 300.2779858 +22.4418971     291.3965     72.60569      1.165     4.35     4.460817     20.48427     35.05058         7     0.872     0.619 -11.64   0
       439    679.1846     17.1481 300.4278137 +22.5851016     387.0351      72.5872      1.326     3.74     4.325647     20.48427     41.41214         6     0.750     0.576  32.06   0
       440    884.4854     15.0108 300.4924806 +22.6459294     369.1841     72.55019      1.239     3.72     4.574442     20.48427     49.79517         6     0.804     0.495 -83.61   0
       441     41.1224   1006.7261 299.9078971 +22.6777786     4523.441     72.71657     14.842    49.78     10.65254     20.48427     87.63265       727     9.397     8.081 -45.98  19
       442    680.3571     10.6110 300.4302982 +22.5835731     445.4602     72.60569      1.426     2.70     4.318993     20.48427     53.79462         5     0.701     0.482  -7.94   0
