#   1 NUMBER                 Running object number                                     
#   2 X_IMAGE                Object position along x                                    [pixel]
#   3 Y_IMAGE                Object position along y                                    [pixel]
#   4 ALPHA_J2000            Right ascension of barycenter (J2000)                      [deg]
#   5 DELTA_J2000            Declination of barycenter (J2000)                          [deg]
#   6 FLUX_APER              Flux vector within fixed circular aperture(s)              [count]
#   7 FLUXERR_APER           RMS error vector for aperture flux(es)                     [count]
#   8 FLUX_RADIUS            Fraction-of-light radii                                    [pixel]
#   9 FWHM_IMAGE             FWHM assuming a gaussian core                              [pixel]
#  10 BACKGROUND             Background at centroid position                            [count]
#  11 THRESHOLD              Detection threshold above background                       [count]
#  12 FLUX_MAX               Peak flux above background                                 [count]
#  13 ISOAREA_IMAGE          Isophotal area above Analysis threshold                    [pixel**2]
#  14 A_IMAGE                Profile RMS along major axis                               [pixel]
#  15 B_IMAGE                Profile RMS along minor axis                               [pixel]
#  16 THETA_IMAGE            Position angle (CCW/x)                                     [deg]
#  17 FLAGS                  Extraction flags                                          
         1    222.5330     17.9702 300.2354694 +22.4424548     3993.795     72.16673      1.562     2.78     4.276413     20.36562     444.4041        38     1.332     1.228  46.16   0
         2    783.9461     10.6456 300.4125959 +22.6084289     810.9056     72.22188      1.341     2.51     4.764176     20.36562     109.4567        12     0.855     0.841 -66.34   0
         3    749.5413     10.4000 300.4019539 +22.5980634     344.4931     72.12994      1.458     2.84     4.762403     20.36562     52.35251         6     0.874     0.441  72.15   0
         4    338.5786      9.9955 300.2741407 +22.4749211     1182.999     72.14834      1.474     3.19     4.237795     20.36562     147.9623        16     1.089     0.902  71.30   0
         5    821.7249      5.6191 300.4259996 +22.6182863     772.2723     72.18512      1.833     4.60     4.644121     20.36562     71.72878        13     1.318     0.800  79.73  16
         6    565.0446      7.6402 300.3453811 +22.5420514     319.2153     72.25863      1.337     3.85     4.192714     20.36562     42.72806         5     0.890     0.477   3.93   0
         7    745.1881      5.3100 300.4022470 +22.5952966     518.7493     71.96414      1.389     3.78     4.768274     20.36562     67.28577         9     1.154     0.675 -85.26  16
         8    841.7640      2.1498 300.4333705 +22.6232835      1879.57     60.63346      1.227     2.47     4.522058     20.36562     272.0312        18     1.027     0.829   6.61  24
         9    703.0446    968.0986 300.0764637 +22.8593066      6679.64     72.18512      1.839     4.04     3.246132     20.36562     423.9354        44     1.477     1.371  27.20   0
        10    253.6171   1017.2175 299.9206260 +22.7385601     2685.492     72.16673      6.798    26.67      70.7038     20.36562     66.09266       196     5.158     3.827   2.34  27
        11    269.8063   1000.0896 299.9312327 +22.7385090     5042.655     72.09312      9.285    28.31     56.90931     20.36562     89.46698       448     6.916     5.133 -45.49  19
        12    251.2383   1000.4583 299.9253403 +22.7330415     4406.052     72.18512      8.980    22.33     59.79389     20.36562     101.1881       280     5.365     4.447 -41.45  19
        13    289.2085    988.1192 299.9411602 +22.7409003     7219.187     72.12994      7.966    30.06     46.17227     20.36562     174.1475       660    10.050     4.735  64.51  18
        14    224.4402   1012.1166 299.9132163 +22.7283397     3622.142     72.14834      7.863    28.95     71.90482     20.36562     77.84174       312     6.218     4.485  73.36  19
        15    212.2849   1013.0090 299.9091477 +22.7249467     1168.603     72.12994      3.272     9.39     72.58511     20.36562      49.1913        24     1.883     1.307 -81.33  19
        16    199.8489   1021.6985 299.9024548 +22.7237043     1127.807     66.03989      4.069     9.95     78.70782     20.36562     59.58629        27     2.054     1.345 -15.38  26
        17    195.6757   1019.2619 299.9019507 +22.7217531     336.1888     72.24026      2.346     2.91     76.66692     20.36562     40.34551         5     0.822     0.487 -36.76  19
        18    182.3549   1021.6285 299.8970406 +22.7184324     2080.941     66.36066      3.825    14.85     78.70782     20.36562     63.50302        69     3.564     1.720 -18.38  26
        19    133.2744   1013.3804 299.8844734 +22.7013333     5175.857     72.18512     13.738    62.74      57.8163     20.36562     118.2203      1240    13.333     8.259  27.72  27
        20    127.9423    967.3126 299.8978064 +22.6865284     5083.616     72.25863     23.718    80.22     30.57825     20.36562     104.8184      3502    19.460    15.502  -8.35  19
        21    456.1346    969.9891 299.9989798 +22.7857907     186.4407     72.12994      1.277     4.98     2.504665     20.36562     30.60018         5     1.598     0.440 -65.86   0
        22    218.4257    990.6843 299.9183210 +22.7203903     2221.061     72.16673      7.995    21.58      57.6185     20.36562     61.60162       113     5.430     2.383  69.52  19
        23      9.0094   1021.9570 299.8430832 +22.6664774     741.7563     64.92512      3.611     5.03    -8.333264     20.36562      30.0433         5     1.536     0.465 -71.14  25
        24    582.2104    962.0757 300.0407945 +22.8213402     507.2079     72.16673      1.843     6.71     3.273067     20.36562      38.2434        11     1.321     0.957  33.96   0
        25    611.4492    958.9991 300.0508990 +22.8292268     1330.428     72.16673      1.672     4.32     3.276095     20.36562     100.6754        20     1.232     1.078  -7.54   0
        26    505.3885    955.2272 300.0191101 +22.7963321     1003.662     72.18512      1.901     4.70     2.851294     20.36562       78.046        20     1.291     1.158  33.00   0
        27    435.9526    953.2695 299.9981404 +22.7749399     6599.883     72.16673      1.802     3.76      2.62701     20.36562     527.9095        44     1.441     1.357  -8.11   0
        28    977.7695    984.8639 300.1566340 +22.9464781     627.8367      72.2035      1.881     7.73     2.669387     20.36562     44.03774        18     1.525     1.095  21.01   0
        29    784.8033   1001.4041 300.0910971 +22.8933809     753.2012     71.98258      1.831     5.96     3.329212     20.36562     50.41163        16     1.213     1.028   4.12   0
        30    982.2881    932.1043 300.1752110 +22.9326811     2201.121     72.36875      2.014     4.87     3.128176     20.36562     109.4112        34     1.515     1.381  22.95   0
        31    468.7046    939.9357 300.0126693 +22.7809408     492.2542     72.27699      1.719     6.65     2.720569     20.36562     37.92262         9     1.309     0.949  37.91   0
        32      5.8405    974.0994 299.8576711 +22.6518127      876.902     72.16673      5.721     8.80    -3.350693     20.36562       39.301        14     1.624     1.333 -81.25  16
        33    633.0112    928.8475 300.0674230 +22.8270409     229.6394      72.2035      1.395     3.86      3.21194     20.36562     29.70852         5     0.829     0.515  61.47   0
        34    771.3640    920.9750 300.1130801 +22.8662648     740.9771      72.2035      2.155     6.02     3.150327     20.36562     44.72618        14     1.461     1.013  63.66   0
        35    805.8091    915.0764 300.1257326 +22.8748975     1030.724     72.14834      1.870     5.94     3.239776     20.36562     69.68349        20     1.429     1.167  -6.27   0
        36    583.7395    916.3619 300.0561434 +22.8086817     367.3917      72.2035      1.563     5.36     3.195044     20.36562     36.74018         8     1.359     0.596 -14.48   0
        37     15.8605    911.6898 299.8810852 +22.6369361     675.6297     72.27699      1.750     5.04     3.204523     20.36562     49.72128        14     1.301     0.853  72.44   0
        38    828.2044    908.8702 300.1347312 +22.8798289      11477.8     72.12994      1.807     4.00     3.254606     20.36562     716.5165        53     1.473     1.386 -20.56   0
        39   1019.1400    908.2358 300.1944706 +22.9368685     356.6682      72.2035      1.735     5.86     3.264671     20.36562     30.51233         7     1.167     0.828  75.39  16
        40    873.3807    908.5902 300.1489036 +22.8932895     414.4714     72.16673      1.778     6.52     3.318098     20.36562     37.65014        11     1.226     0.973 -84.30   0
        41    196.2191    971.4551 299.9176756 +22.7082119     1652.266     72.16673      8.537    16.13     44.01248     20.36562     48.35458        45     3.158     2.291  25.73   3
        42    139.3721    900.7506 299.9230108 +22.6708787         1167      72.2035      3.847     5.30     8.840849     20.36562     71.76818        22     1.526     1.284  -2.79   0
        43    879.6182    896.8360 300.1546718 +22.8917838     478.0868     72.18512      1.656     5.97     3.299204     20.36562     44.77305        11     1.141     0.953  52.80   0
        44    533.1611    896.6702 300.0468041 +22.7878620     447.0765     72.14834      1.725     4.14     3.166804     20.36562     48.61159         7     0.777     0.670   9.10   0
        45    836.7570    891.1299 300.1431678 +22.8772988     1401.289     72.14834      1.732     4.54      3.21596     20.36562     90.06325        21     1.288     1.080 -11.57   0
        46      3.3206   1021.3754 299.8415059 +22.6646024     878.8746     61.13485      5.181     8.84    -11.63551     20.36562     38.56358        10     2.313     0.944  84.02  27
        47   1019.8311    889.9823 300.2006244 +22.9318325      522.278     71.79797      1.893     4.11     3.482132     20.36562     41.68805         8     1.047     0.662   2.49  16
        48    689.2541    888.1085 300.0981919 +22.8322131     335.6131     72.24026      1.441     3.99     3.130446     20.36562     47.57571         6     1.027     0.444  50.75   0
        49    874.8217    884.3038 300.1572533 +22.8867475      778.109     72.09312      1.733     5.16     3.262849     20.36562     54.50557        16     1.366     0.954  15.77   0
        50    923.0757    875.8123 300.1750593 +22.8987702     440.7564      72.2035      1.423     4.49     3.351923     20.36562     46.96283        11     1.060     0.793  10.99   0
        51    774.7924    874.9313 300.1291264 +22.8540742      740.764     72.16673      1.721     4.16     2.991903     20.36562     68.02265        15     1.189     0.916  25.70   0
        52    786.1808    871.7488 300.1337103 +22.8565742     608.0769     72.16673      1.633     5.00     3.029127     20.36562     52.60378        15     1.276     0.915  49.61   0
        53    487.2756    870.9988 300.0408731 +22.7667337     4087.958     72.07471      1.632     3.27     3.101338     20.36562     435.4904        36     1.412     1.187 -13.75   0
        54    530.7881    859.5580 300.0581366 +22.7765011     404.7644     72.18512      1.604     6.08     3.197573     20.36562     36.81488        10     1.320     0.787  31.92   0
        55    149.5355    860.1564 299.9393716 +22.6622907     349.3364     72.16673      1.721     5.51     4.980944     20.36562     27.86288         6     0.984     0.869 -25.29   0
        56    130.1841    858.8031 299.9337987 +22.6560947     252.8832      72.0563      1.287     4.16     4.472408     20.36562     36.61887         5     0.831     0.641 -50.66   0
        57    212.2049    856.6819 299.9599782 +22.6801021      773.769     72.11153      1.846     4.30     5.656279     20.36562     78.43156        18     1.261     1.094 -15.45   0
        58    189.3938    853.7546 299.9538402 +22.6724172     1531.108      72.2035      1.674     4.32     5.341236     20.36562     131.3945        22     1.362     1.042   7.17   0
        59    121.5972    855.1362 299.9323232 +22.6524661     383.3786     72.14834      1.917     3.57     4.232069     20.36562      42.0529         5     0.874     0.542  41.78   0
        60     64.8186    843.6187 299.9184294 +22.6321217      414.697     72.18512      1.584     4.07     3.467651     20.36562     51.92477         6     1.222     0.467 -49.07   0
        61   1015.5403    841.3260 300.2151125 +22.9165700     2110.843     72.22188      1.851     4.24     3.717752     20.36562     132.8313        28     1.435     1.199 -54.73  16
        62    721.0653    841.3399 300.1233127 +22.8283245     502.0221     72.22188      1.735     5.83     2.878691     20.36562     43.48409         8     1.095     0.872 -35.09   0
        63    492.5749    840.1946 300.0525405 +22.7594842     276.2222     72.16673      1.378     3.42     3.174605     20.36562     27.71456         5     0.775     0.437 -68.81   0
        64    799.1555    835.3990 300.1495760 +22.8500262      769.527     72.18512      1.599     4.13     2.935859     20.36562     58.95554        16     1.163     0.973 -53.17   0
        65    221.4948    835.6193 299.9697152 +22.6768497     384.8669     72.11153      1.435     5.40     4.929199     20.36562     47.58386        11     1.145     0.719 -23.02   0
        66    667.2244    829.2106 300.1104865 +22.8087016     4851.089     72.18512      1.568     3.19     3.127477     20.36562     421.7794        35     1.237     1.202  -6.18   0
        67    157.1437    829.5941 299.9516743 +22.6558108     427.8582     72.16673      1.694     4.43     4.399771     20.36562     50.59793         8     0.957     0.694 -84.24   0
        68    469.4894    826.0966 300.0499410 +22.7485152     562.2677     72.36874      1.493     3.99     3.227244     20.36562     70.50801        16     1.216     1.017   0.96   0
        69    217.6488    822.7428 299.9727068 +22.6720029     1280.281     72.24026      1.637     3.25     4.418183     20.36562     139.1085        19     1.185     0.988  35.48   0
        70    687.7516    821.8682 300.1192678 +22.8127477     617.0475     72.18512      1.416     3.78     3.040556     20.36562     73.81059        14     1.108     0.872  16.43   0
        71    237.0057    819.7391 299.9797006 +22.6769496     421.7633     72.12994      1.402     4.63     4.199255     20.36562     46.94909         7     1.017     0.662  70.73   0
        72    843.2600    808.9091 300.1719362 +22.8556374     4199.884     72.27699      1.617     3.30     3.389176     20.36562     370.6407        36     1.367     1.206  -2.61   0
        73    573.8183    805.9704 300.0889583 +22.7740255     278.9113     72.16673      1.405     5.22     3.148754     20.36562     26.55799         7     0.920     0.837 -86.20   0
        74    251.6768    802.8295 299.9897596 +22.6765017     641.1027     72.16673      1.930     4.76      3.61901     20.36562     67.37579        15     1.336     0.940 -23.17   0
        75    560.1404    801.1324 300.0862733 +22.7685356     595.6927     72.22188      1.509     3.59     3.179139     20.36562     72.06924        14     1.129     0.893  52.31   0
        76    206.7437    799.2827 299.9769452 +22.6620025     1037.866     72.25863      1.666     3.78     3.596586     20.36562     88.31726        20     1.224     1.054  -9.23   0
        77    356.2634    791.3756 300.0260056 +22.7045919     53904.14     72.16673      1.597     3.02       3.4854     20.36562     5545.293        96     1.441     1.372  -3.00   0
        78    621.5997    794.8628 300.1074471 +22.7851632     525.1387     72.12994      1.670     4.40     3.081953     20.36562     51.40075        10     1.026     0.723  37.95   0
        79    614.1950    790.3895 300.1065959 +22.7816591     1624.915     72.03787      1.449     2.80     3.088447     20.36562     165.4797        19     1.110     0.945  16.58   0
        80    284.3328    789.4458 300.0042641 +22.6824602     464.4739     72.18512      1.736     5.94     3.562704     20.36562     40.93972        10     1.155     0.860  -4.56   0
        81    643.2183    786.4724 300.1169074 +22.7892358     850.6333     72.18512      1.434     2.77     3.103381     20.36562     106.8795        16     1.060     0.874 -19.16   0
        82     42.3986    786.1472 299.9301518 +22.6089156     814.7933     72.14834      1.741     3.65     3.334606     20.36562     83.56285        12     1.200     0.918  -4.76   0
        83     10.4403    786.2467 299.9201939 +22.5993516     534.1982     72.24026      1.439     3.75     3.197063     20.36562     59.17779         7     1.011     0.575 -69.04   2
        84      7.7653    785.4637 299.9196177 +22.5983243     484.3892     72.18512      1.975     5.05     3.188952     20.36562     29.92872         5     1.209     0.597  79.95  19
        85    654.0223    784.8414 300.1208024 +22.7920064     572.9327     72.22188      1.427     3.48     3.109094     20.36562     62.47463         9     1.020     0.704 -40.06   0
        86    974.1285    782.6377 300.2212815 +22.8873035     389.9223     72.14834      1.636     5.21     3.752983     20.36562     29.48357         8     1.287     0.595  17.81   0
        87    759.9785    781.1378 300.1550129 +22.8227031     434.1765     72.16673      1.502     4.59     2.913177     20.36562     47.82206         7     0.843     0.710  64.40   0
        88    797.1749    771.3200 300.1697956 +22.8310314     643.3771     72.16673      1.495     3.90     2.990116     20.36562     74.00871        17     1.185     1.000  28.25   0
        89    405.9994    768.6438 300.0488672 +22.7129876     31214.72     72.18512      1.492     2.92     3.508817     20.36562     3302.378        65     1.320     1.268  17.40   0
        90    420.2972    769.2358 300.0531228 +22.7174457     2015.488     72.18512      1.557     3.14     3.505107     20.36562     221.5012        23     1.141     1.067  -1.48   0
        91    929.2279    764.5881 300.2131482 +22.8686664     2709.964     72.18512      1.656     3.50     3.770957     20.36562     220.4888        27     1.287     1.138 -20.73   0
        92    417.0461    763.0643 300.0541177 +22.7146997     699.2755     72.22188      1.930     4.62     3.521837     20.36562      55.6041        13     1.209     0.835  18.16   0
        93    958.6776    763.0075 300.2228455 +22.8770351     228.6995     72.12994      1.443     5.38     3.803908     20.36562     36.96459         8     1.172     0.698  39.56   0
        94    686.8495    760.7686 300.1388534 +22.7949354     843.6892     72.22188      1.447     4.31     3.145812     20.36562     84.80528        19     1.286     1.011 -19.76   0
        95    523.4236    760.7695 300.0879670 +22.7459413     416.1849     72.18512      1.595     1.84      3.36118     20.36562     53.69766         5     0.655     0.466 -69.05   0
        96    288.5652    760.4080 300.0150204 +22.6754000     747.1437     72.18512      1.500     3.30     3.551124     20.36562     82.58635        14     1.111     0.847  10.72   0
        97     94.1369    756.4244 299.9558859 +22.6159210     359.4338     72.16673      1.345     2.92     3.558602     20.36562     63.15329         6     0.886     0.587  80.27   0
        98    534.0591    755.4852 300.0929955 +22.7476135     894.0526     72.29535      1.410     3.08     3.411248     20.36562     94.97482        15     1.020     0.906 -33.57   0
        99    935.2473    752.4463 300.2189727 +22.8669817     560.6054     72.18512      1.542     4.05     3.787607     20.36562     58.62327        11     1.002     0.900  -5.41   0
       100    436.3277    751.9438 300.0637319 +22.7172911     288.0578      72.2035      1.415     5.10     3.454347     20.36562     40.73075         9     1.144     0.644  48.67   0
       101    479.8391    750.1154 300.0778658 +22.7298145     387.5011     72.16673      1.529     5.02     3.279495     20.36562     44.32314         9     1.237     0.837  65.45   0
       102    391.9278    750.6943 300.0503248 +22.7036168     312.3899     72.29535      1.296     3.45     3.501851     20.36562     50.66425         5     0.841     0.410  16.68   0
       103    121.3825    749.8648 299.9664831 +22.6222160     544.7312     72.16673      1.799     4.17     3.578307     20.36562     55.12692        11     1.078     0.867  14.73   0
       104    688.8599    749.5761 300.1431183 +22.7923243     341.9005     72.16673      1.796     3.45     3.179138     20.36562      31.0022         5     0.780     0.442  20.14   0
       105    912.9309    747.1960 300.2137212 +22.8587876      407.126     72.14834      1.436     5.59     3.702881     20.36562     38.95219         9     1.070     0.824 -42.62   0
       106    286.6797    744.7118 300.0195365 +22.6703315     435.6545     72.33206      1.259     1.71     3.543797     20.36562     70.20363         5     0.668     0.440  71.86   0
       107    204.8033    741.1220 299.9952496 +22.6447389     817.8373     72.09312      0.542     0.80     3.528471     20.36562     571.7484         5     0.439     0.363 -49.01   0
       108    923.1920    737.2280 300.2201612 +22.8589981     182.2957     72.18512      1.459     5.57     3.749954     20.36562     29.73345         6     1.243     0.703  31.78   0
       109    609.3324    735.3266 300.1229832 +22.7643941     378.6007     72.25863      1.123     3.07     3.181558     20.36562     61.17747         8     0.897     0.591  -5.79   0
       110    579.0591    733.3983 300.1141842 +22.7547651     586.6794     72.14834      1.275     2.92     3.357614     20.36562     77.76477        11     1.003     0.706 -29.18   0
       111    995.4788    729.9568 300.2450680 +22.8785633     4507.311     72.16673      1.654     3.50     3.995544     20.36562     337.5248        36     1.302     1.271  -1.53   0
       112    601.0276    730.9157 300.1218311 +22.7606382     1278.671     72.18512      1.395     2.86     3.261579     20.36562     152.4922        17     1.020     0.919 -24.10   0
       113    488.9533    732.4757 300.0864363 +22.7274847     301.5668     72.18512      1.406     2.44      3.33445     20.36562      40.5485         6     0.753     0.498  -3.36   0
       114    520.6812    730.5688 300.0969310 +22.7364505     363.1749     72.18512      1.555     3.86     3.451379     20.36562       42.396         5     0.953     0.447  14.65   0
       115    682.6533    725.4426 300.1490303 +22.7835343     289.7111     72.18512      1.583     4.13     3.233971     20.36562     34.93909         5     0.997     0.489  -5.73   0
       116    984.0518    721.2770 300.2443256 +22.8726465     1706.675     72.16673      1.665     3.40     4.006463     20.36562     150.1849        24     1.221     1.116  24.90   0
       117    362.4093    715.7909 300.0524882 +22.6847483      297.466     72.07471      1.518     3.42     3.486828     20.36562     28.60883         5     0.744     0.454 -71.42   0
       118    346.7834    715.1271 300.0478438 +22.6798713      788.011     72.18512      1.416     3.75     3.484896     20.36562     95.44608        13     1.117     0.781  20.96   0
       119    810.3436    712.6849 300.1929613 +22.8181371     2543.391     72.27699      1.597     2.98     3.274713     20.36562     241.4068        27     1.390     1.043  11.52   0
       120   1015.0673    711.4014 300.2572099 +22.8790987     1584.285     72.16673      1.685     3.52     4.132232     20.36562     132.5909        24     1.229     1.154  44.78   0
       121     33.0385    702.8116 299.9543323 +22.5822118     827.5556     72.18512      1.592     3.48     3.450071     20.36562     81.22689        14     1.121     0.882 -88.83   0
       122    195.6178    699.0251 300.0060770 +22.6299078      622.647     72.18512      1.552     3.25     3.599308     20.36562     84.88895        13     1.000     0.948 -82.99   0
       123    892.8973    698.8167 300.2232019 +22.8388872     653.1611     72.09312      1.718     4.48     3.776444     20.36562     57.83413        13     1.190     0.886   1.32   0
       124    928.7972    689.5599 300.2374039 +22.8469820       148271      72.2035      1.586     3.05      4.00909     20.36562     14141.42       154     1.504     1.426  15.26   0
       125    691.3132    693.4334 300.1621320 +22.7769381     354.2744     72.14834      1.202     3.65     3.233011     20.36562     47.29683         7     0.858     0.622 -20.18   0
       126    781.1218    689.4708 300.1914001 +22.8027132     837.7172     72.29535      1.687     4.37     3.228318     20.36562     84.79478        14     1.303     0.757  71.66   0
       127    961.5678    682.5908 300.2498881 +22.8547957     452.7437     72.18512      1.443     4.58     4.123787     20.36562      50.1974         8     0.985     0.604  19.17   0
       128    614.9854    678.3499 300.1432627 +22.7497299      1695.34      72.2035      1.325     2.65     3.714137     20.36562     190.2341        21     1.070     0.937 -25.31   0
       129    796.2650    675.6677 300.2006053 +22.8032858     9566.293     72.24026      1.452     2.75     3.242069     20.36562     1019.728        41     1.213     1.170   4.41   0
       130    277.6474    677.5223 300.0385657 +22.6483453     364.6782     72.18512      1.409     3.45     3.545863     20.36562     38.95431         5     1.048     0.329 -22.20   0
       131    297.7323    670.7047 300.0470265 +22.6524132     4911.373     72.33206      1.504     2.80     3.556419     20.36562     589.8488        32     1.217     1.120   3.57   0
       132     11.5815    669.0813 299.9586294 +22.5661003     1697.366     72.16673      1.811     3.46      3.55786     20.36562     167.3537        28     1.343     1.267   7.22   0
       133    379.8965    668.5659 300.0732757 +22.6764404     1312.787     72.18512      1.488     4.25      3.57229     20.36562     144.6378        16     1.154     0.906 -76.05   0
       134    255.3318    666.5635 300.0351887 +22.6385076     434.8897     72.16673      1.364     3.86     3.599679     20.36562     58.16906         9     1.022     0.733  10.60   0
       135    588.1824    664.3321 300.1394725 +22.7376711     602.7183     72.18512      1.225     3.02     3.803328     20.36562     74.79376        10     0.891     0.788  59.85   0
       136    579.7404    656.4514 300.1394051 +22.7328779     3182.424     72.24026      1.353     2.50     3.836581     20.36562     400.0528        25     1.082     1.016  27.90   0
       137    719.0080    655.0439 300.1832356 +22.7742126     876.8504      72.2035      0.431   -11.98     3.345899     20.36562     647.1797         5     0.317     0.310 -85.16   0
       138    570.0409    650.2431 300.1384027 +22.7281879     1395.284     72.27699      1.273     2.43      3.85738     20.36562     194.5969        18     0.999     0.893  27.50   0
       139    765.7234    649.7501 300.1995108 +22.7866900     263.0652     72.18512      1.724     3.14      3.30937     20.36562     30.07904         5     0.820     0.629  46.04   0
       140    498.5913    649.6010 300.1163704 +22.7065852     259.9381     72.00101      1.107     4.37     3.688344     20.36562     39.22583         9     0.907     0.797  13.93   0
       141    963.9976    648.3410 300.2617769 +22.8456814     397.8469     72.14834      1.514     4.34     4.174837     20.36562     60.35054         9     1.205     0.657  33.77   0
       142    233.3430    646.4800 300.0348786 +22.6261500     546.0453     72.22188      1.269     2.80     3.764812     20.36562     75.33998        10     0.842     0.797  -3.24   0
       143    247.5022    644.7537 300.0398414 +22.6299016     632.7998     72.22188      1.505     3.09     3.763472     20.36562     78.19447        13     1.067     0.778 -37.29   0
       144   1016.9552    641.5233 300.2805101 +22.8595822     563.3135     72.16673      1.586     4.98     4.302489     20.36562     38.56686        10     1.104     0.635  58.99  16
       145    273.3324    641.7942 300.0488338 +22.6367996     480.7305     72.14834      1.369     3.87     3.770345     20.36562     65.22198         9     1.032     0.686  15.24   0
       146    593.6605    640.3167 300.1489821 +22.7324174     515.0214     72.29535      1.576     4.20     3.971108     20.36562     57.85767         9     1.035     0.773  64.80   0
       147    494.6953    639.9285 300.1183009 +22.7026405     1754.852     72.29535      1.392     2.68     3.730195     20.36562      236.344        18     1.017     0.930  -4.81   0
       148     70.0560    636.4795 299.9873850 +22.5742965     819.3688     72.22188      2.061     4.96     3.963233     20.36562     66.16567        10     1.074     0.748 -10.98   0
       149    579.7585    635.1915 300.1463191 +22.7267789     1148.756      72.2035      1.501     4.05     3.983661     20.36562     125.6295        18     1.215     0.935 -31.58   0
       150    615.1183    634.5606 300.1575340 +22.7371958     408.7192     72.14834      1.265     2.24     4.001041     20.36562     69.46537         5     0.693     0.470 -18.35   0
       151    148.7244    634.8187 300.0123670 +22.5974216     19975.68     72.18512      1.601     3.04     3.927778     20.36562     2222.774        59     1.401     1.296  31.31   0
       152    662.5098    622.7879 300.1761181 +22.7480178     159.5764     72.12994      1.071     4.51      3.98372     20.36562     34.74689         6     0.901     0.688   3.72   0
       153    997.6550    621.7194 300.2809251 +22.8481106     1148.418     72.22188      1.565     2.90     4.256727     20.36562     134.5636        15     1.047     0.881  -6.81   0
       154     94.6864    619.2283 300.0006415 +22.5767380     1556.353     72.18512      1.869     4.89     4.109416     20.36562     101.7928        24     1.481     1.124 -80.46   0
       155    160.8419    619.5151 300.0211047 +22.5966664     485.7617     72.14834      1.493     4.10     3.979793     20.36562     49.45471        10     1.133     0.759 -67.91   0
       156    543.3054    615.9857 300.1412108 +22.7103379     393.8537     72.11153      1.231     2.91     4.094081     20.36562     63.21372         8     1.008     0.570 -19.69   0
       157    335.7440    615.4656 300.0767962 +22.6479608      238.483     72.24026      1.400     5.27     3.950931     20.36562     31.54329         9     1.041     0.752 -21.09   0
       158    937.7739    614.2944 300.2646625 +22.8280433     710.0928     72.12994      1.497     3.20     4.112215     20.36562     69.61787        10     0.970     0.680 -15.76   0
       159    933.4272    613.8814 300.2634412 +22.8266228     450.6268     72.18512      1.372     3.90     4.100172     20.36562     48.44506         5     0.903     0.483 -81.90   0
       160    582.9067    614.5431 300.1540083 +22.7217934      4523.98     72.24026      0.658     0.20     4.124668     20.36562      2471.65         8     0.575     0.338  73.67   0
       161    682.2570    612.5433 300.1855974 +22.7509930     294.4446     72.25863      1.467     3.48     4.013299     20.36562     41.15099         5     0.790     0.443 -20.41   0
       162    582.6426    610.4966 300.1552408 +22.7205522     943.6821     72.18512      0.804     1.16      4.15891     20.36562     268.8442         5     0.538     0.492  23.86   0
       163    499.9596    608.2322 300.1302378 +22.6951187     677.3099     72.24026      1.304     3.00     3.922351     20.36562     85.54239        12     1.004     0.775  83.30   0
       164    647.6647    606.8253 300.1766811 +22.7389846     580.7416     72.16673      1.476     3.28     4.168363     20.36562     58.37746        11     0.930     0.826  45.83   0
       165    695.0312    605.4911 300.1918678 +22.7527952     558.3171     72.12994      1.377     3.79     3.929536     20.36562      55.1706         9     0.988     0.709 -10.29   0
       166    665.2679    604.8723 300.1827981 +22.7436988     560.5255     72.24026      1.313     3.13     4.167335     20.36562     87.16968        11     0.968     0.768  24.38   0
       167    544.1672    603.9634 300.1453851 +22.7071442     975.5441      72.2035      1.511     3.16     4.188545     20.36562     112.3671        16     1.080     0.961  25.90   0
       168    812.5095    602.9281 300.2293047 +22.7872562     8345.542      72.3504      0.755     2.03     3.549477     20.36562     4569.476        11     0.810     0.370  -5.62   0
       169    977.8179    599.6086 300.2819222 +22.8358152     3274.045     72.12994      1.527     3.03     4.161802     20.36562     335.4938        30     1.207     1.158  23.39   0
       170    509.5130    599.5259 300.1360398 +22.6954827     1715.652     72.33206      1.337     2.60     4.010851     20.36562     216.5347        19     1.053     0.930  29.78   0
       171    874.7000    596.8779 300.2506554 +22.8041469     295.5377     72.31371      1.328     3.73     3.851403     20.36562     42.01474         6     0.942     0.525  22.78   0
       172     71.4910    592.9509 300.0019719 +22.5622416     5145.127     72.18512      1.682     3.14     4.186297     20.36562     610.0545        37     1.398     1.216  26.32   0
       173    484.9099    594.4917 300.1300180 +22.6866624     371.2048      72.3504      1.455     3.77     3.881743     20.36562     42.75338         6     0.830     0.491  -8.01   0
       174    538.5327    590.6281 300.1479634 +22.7016263     339.0531     72.16673      1.236     3.01     4.230608     20.36562     52.98048         5     0.741     0.443 -67.17   0
       175   1017.9533    589.1124 300.2978512 +22.8448168     386.3949     72.16673      1.681     5.03     4.116185     20.36562     32.70295         7     1.046     0.683  72.61  16
       176    372.9427    586.1938 300.0978760 +22.6507131     9004.381     72.14834      1.375     2.59     3.993201     20.36562     1099.318        38     1.170     1.122  36.67   0
       177    495.4206    583.2159 300.1369523 +22.6865756     8917.292     72.16673      1.324     2.49      3.98156     20.36562     1134.639        37     1.139     1.087  26.45   0
       178    900.6336    580.9736 300.2639077 +22.8073441     381.3077      72.2035      2.847     3.86     3.987116     20.36562     40.59583         5     0.968     0.557  14.54   0
       179    574.4210    580.7222 300.1623541 +22.7095380     102.7881     72.18512      1.098     3.49     4.297309     20.36562     34.40171         5     0.733     0.480 -78.00   0
       180    260.6514    580.9889 300.0646455 +22.6155479     279.0915     72.18512      1.484     4.32     4.015884     20.36562     28.46774         6     1.145     0.464 -18.34   0
       181    741.6670    579.5814 300.2148140 +22.7593256     212.4274     72.16673      1.228     3.24      3.66841     20.36562     48.57812         5     1.037     0.294  68.26   0
       182    907.1347    577.3835 300.2671010 +22.8082595     1992.477     72.16673      1.441     2.79     4.013319     20.36562       210.62        23     1.135     1.012  52.78   0
       183    991.7980    574.6747 300.2943833 +22.8328349      12501.2     72.09312      1.524     2.79     4.015185     20.36562     1378.305        45     1.289     1.200 -24.93   0
       184    555.9888    572.8417 300.1591756 +22.7017508     11626.24     72.18512      1.334     2.31     4.357282     20.36562     1715.921        42     1.156     1.084  35.26   0
       185    725.8284    568.7515 300.2133976 +22.7514692     530.6441      72.2035      1.416     2.87     3.822919     20.36562     72.65704        11     0.904     0.829 -11.64   0
       186    283.4023    568.2121 300.0758697 +22.6187036     1219.945     72.00101      1.340     2.69     3.998061     20.36562     179.3775        20     1.073     1.004 -24.72   0
       187    441.1148    567.4577 300.1251715 +22.6657725     251.2268     72.29535      1.169     3.73     3.971049     20.36562     43.34769         6     0.803     0.497  -3.12   0
       188    530.6444    565.9449 300.1535263 +22.6921742     392.1862      72.2035      1.151     2.45     4.307202     20.36562     66.15302         7     0.724     0.632 -78.89   0
       189    487.6740    561.0003 300.1417578 +22.6778749     4461.144      72.0563      1.351     2.35     4.004633     20.36562     653.1113        28     1.083     1.006  14.24   0
       190    830.6192    560.9874 300.2485745 +22.7806303     783.0695     72.14834      1.287     2.37     3.859529     20.36562     118.5112        13     0.955     0.791 -25.45   0
       191    465.8955    559.3844 300.1355051 +22.6708829     1188.482     72.11153      1.241     2.59     3.965447     20.36562     164.5672        17     0.983     0.868  36.32   0
       192    220.3194    558.7933 300.0593165 +22.5970831     742.4036     72.11153      1.509     3.54     4.029398     20.36562     75.25262        14     1.112     0.841  10.23   0
       193    907.5204    556.7552 300.2739226 +22.8024467     1523.869     72.16673      1.415     2.77     4.036117     20.36562      187.177        17     1.105     0.831 -21.68   0
       194    604.3062    548.5575 300.1821075 +22.7092566     201409.6      72.2035      1.311     2.26     4.385468     20.36562      27033.5       199     1.440     1.360  -2.05   0
       195    428.3083    554.6708 300.1253402 +22.6582623     321.6274     72.33206      1.276     4.07     3.988931     20.36562     44.10455         9     0.900     0.848  46.64   0
       196    787.9016    553.5043 300.2376918 +22.7656844     835.4263     72.36874      1.304     2.58     3.865466     20.36562     129.5974        13     0.965     0.780 -23.53   0
       197    290.3772    548.4733 300.0844499 +22.6151299     3349.252     72.24026      1.352     2.49     3.993201     20.36562     440.0907        25     1.078     1.035  14.62   0
       198    856.1637    544.8654 300.2617739 +22.7836486     614.8326     72.18512      1.495     2.78     3.956258     20.36562     78.80952        11     0.966     0.736  40.43   0
       199    875.1150    542.9047 300.2683186 +22.7887611     236.2825     72.36874      1.206     3.89     3.984632     20.36562     37.35093         6     0.761     0.571 -34.70   0
       200    635.8468    534.6886 300.1964340 +22.7147242       226.21     72.16673      1.056     3.37     4.277432     20.36562     44.56081         5     0.965     0.356 -86.59   0
       201    494.9484    529.2098 300.1543476 +22.6709268     2655.991     72.18512      1.420     2.64     4.095789     20.36562     372.9487        29     1.421     0.995 -87.62   0
       202    339.0720    531.1315 300.1052258 +22.6247524      463.134     72.25862      1.260     4.32     3.946584     20.36562     61.01717         9     0.876     0.809  66.63   0
       203    906.0605    525.2193 300.2837109 +22.7929458     448.3265     72.12994      1.534     4.16     4.063007     20.36562      49.1087         6     1.066     0.463  26.38   0
       204    811.7037    517.6414 300.2567584 +22.7625091     341.9328      72.2035      1.296     2.66     3.959041     20.36562     57.45142         7     0.837     0.603 -70.30   0
       205    891.8593    515.1353 300.2825585 +22.7857947     1525.329     72.22188      1.291     2.49     4.059961     20.36562     217.1569        17     1.027     0.849  48.35   0
       206    763.0854    512.6929 300.2432145 +22.7465245     2470.234     72.36874      1.308     2.30     3.946815     20.36562     381.1692        22     1.024     0.976  10.26   0
       207     21.8950    513.7366 300.0122941 +22.5246397       657.77     72.27699      1.483     3.80     4.233425     20.36562     93.24844        14     1.216     0.779  -1.18   0
       208    401.3132    512.4394 300.1306575 +22.6380453     238.4166     72.16673      1.059     4.02     3.954139     20.36562     33.93568         6     0.994     0.464 -89.78   0
       209   1007.4171    510.2034 300.3201973 +22.8189784     663.9672     72.11153      2.310     4.31     3.607052     20.36562     62.90796        12     1.156     0.885  71.07   3
       210   1006.0289    506.2082 300.3210619 +22.8174142     905.7763     72.18512      1.848     3.44      3.59727     20.36562     78.40652        12     1.004     0.875 -86.83   3
       211    668.0657    509.3788 300.2146888 +22.7171071     429.1398     72.16673      1.212     2.56      4.16106     20.36562     62.20334         7     0.816     0.558 -30.97   0
       212    550.6016    508.4531 300.1784121 +22.6816448     694.1588     72.14834      1.163     2.39     4.415715     20.36562      123.062        12     0.977     0.798   2.44   0
       213   1020.3751    506.7548 300.3253595 +22.8218664     1345.094     70.68013      1.612     3.06     3.511605     20.36562     142.8404        18     1.191     0.963  78.61  16
       214    892.1775    505.2053 300.2858827 +22.7830360     2212.475     72.16673      1.565     3.88     4.074934     20.36562     274.4536        24     1.425     0.967  82.12   0
       215    645.6462    503.4311 300.2096376 +22.7086815     714.9949     72.22188      1.440     3.18     4.201582     20.36562     74.82635         8     0.884     0.637 -17.43   0
       216    930.3506    500.2836 300.2993835 +22.7930521      4271.03     72.16673      1.387     2.58      4.08842     20.36562     508.8437        29     1.132     1.093  24.78   0
       217    485.3886    502.0059 300.1602071 +22.6602497     951.1068      72.0563      0.856     3.44     3.996366     20.36562     532.9127         7     0.956     0.359   1.65   0
       218    571.4704    499.9903 300.1876574 +22.6854677     148.2354     72.16673      1.154     4.33      4.35034     20.36562      39.6749         6     0.837     0.639 -58.33   0
       219    431.4993    503.1029 300.1430813 +22.6444129     289.4633     72.38708      1.245     3.56     3.968305     20.36562     45.40756         6     0.934     0.654 -33.16   0
       220    668.1104    496.9758 300.2187307 +22.7135573     336.0462     72.12994      1.543     3.82     4.153679     20.36562     44.75813         5     0.856     0.489 -19.89   0
       221    591.1716    496.4336 300.1949465 +22.6903495     226.7219      72.2035      0.996     3.08     4.296092     20.36562     52.92958         5     0.728     0.463  18.35   0
       222   1022.3856    490.7626 300.3311804 +22.8178705     807.0571     63.01636      1.477     3.26     3.421018     20.36562     93.69619        15     1.076     0.905 -30.69  24
       223    162.4613    490.3629 300.0635563 +22.5600945     1079.219      72.2035      1.483     3.04     3.862029     20.36562      126.133        16     1.176     0.785  11.85   0
       224    823.5905    484.8396 300.2711160 +22.7566427     315.6623     72.18512      1.122     2.61     4.013114     20.36562     40.00135         5     0.719     0.449  69.17   0
       225    209.9673    483.0127 300.0807086 +22.5722308     216.2776     72.16673      1.165     3.04     3.741572     20.36562     38.77149         5     0.631     0.592  89.51   0
       226    154.6479    480.5829 300.0643037 +22.5549447     272.3645     72.22188      1.321     3.52      3.89009     20.36562     51.38765         7     1.077     0.489  -3.91   0
       227    762.4469    474.7641 300.2553329 +22.7354345     449.7578     72.22188      1.411     2.77     3.950629     20.36562     70.09812        11     0.909     0.807  21.03   0
       228    651.6260    472.3690 300.2215870 +22.7015495     276.0343     72.18512      1.154     3.41      4.13703     20.36562     57.24134         5     0.750     0.449 -72.50   0
       229    371.5014    472.6658 300.1342989 +22.6176895     315.8375     72.27699      1.372     3.43     3.854989     20.36562     45.03532         5     0.953     0.421  14.45   0
       230    703.7538    470.8145 300.2383289 +22.7167188     872.5336      72.2035      1.387     2.28     4.021716     20.36562     126.0855        12     0.963     0.754  10.18   0
       231    764.5866    463.0053 300.2598179 +22.7326963     987.2017      72.0563      1.402     2.86     3.931983     20.36562     133.1625        14     1.070     0.857  83.21   0
       232   1018.5278    463.4396 300.3388498 +22.8088597     404.8539     72.16673      1.296     3.01     3.476938     20.36562       63.472        10     0.982     0.696  17.71  16
       233    921.7648    459.2161 300.3100425 +22.7786761     1027.834     72.18512      1.340     2.81      4.10724     20.36562     126.1417        13     0.891     0.870 -42.12   0
       234    906.1437    455.4512 300.3063942 +22.7729166     624.3187     72.22188      1.395     3.08     4.112727     20.36562     90.03304        12     1.002     0.829  28.19   0
       235    886.0851    455.9932 300.2999643 +22.7670664     228.6868     72.11153      1.211     2.47     4.117702     20.36562     55.58407         5     0.917     0.354 -31.32   0
       236    650.3466    453.4856 300.2273200 +22.6957411     3309.887     72.24026      1.230     2.20     4.087104     20.36562     450.5978        22     1.016     0.945  60.77   0
       237   1010.6749    452.3365 300.3400055 +22.8033164     515.1221     72.22188      1.275     3.36     3.578207     20.36562     72.04826         8     1.032     0.528  19.95   0
       238    655.6957    441.5535 300.2328601 +22.6939153     151.6689      72.2035      1.133     3.42     4.033283     20.36562     37.65117         5     0.785     0.432  22.06   0
       239    422.9329    441.1432 300.1605343 +22.6240536     255.0235     72.22188      1.049     2.25     4.023127     20.36562     49.10818         5     0.744     0.487  55.86   0
       240    490.7576    440.4151 300.1818769 +22.6441705     326.5504      72.2035      1.233     2.78     4.090235     20.36562     57.43647         6     0.766     0.514 -46.52   0
       241    933.7669    432.6300 300.3224174 +22.7746266     623.9587      72.2035      1.478     3.12      4.08701     20.36562     70.14452        11     1.001     0.714  76.66   0
       242   1020.3779    431.2035 300.3498940 +22.8001444     984.5177     70.62377      1.432     4.14      3.61571     20.36562     97.12241        17     1.274     0.877 -10.86  24
       243    669.9280    429.5659 300.2411850 +22.6947344     253.8319     72.18512      1.227     3.12     3.930451     20.36562     47.87543         6     0.784     0.652 -36.31   0
       244    760.7218    427.4383 300.2701616 +22.7213176     1084.702     72.16673      1.222     2.53     3.876042     20.36562     156.4863        14     0.997     0.829  -1.87   0
       245    556.7829    428.2360 300.2063832 +22.6604560     418.7734     72.18512      1.278     2.74     4.262884     20.36562     77.04268         8     0.889     0.623   5.84   0
       246    264.8539    425.4263 300.1164686 +22.5721573     688.9717      72.2035      1.373     4.32     3.939014     20.36562     89.19331        11     1.119     0.719  56.97   0
       247    105.0860    423.8147 300.0673328 +22.5237907     262.2715     72.12994      1.243     4.02     3.871994     20.36562     36.49024         6     0.964     0.480 -33.82   0
       248    327.2813    421.2431 300.1372397 +22.5896701     3703.738     72.14834      1.325     2.42      3.90325     20.36562     431.3063        27     1.145     1.005  48.67   0
       249    274.4870    415.9911 300.1225267 +22.5723364     7688.917     72.11153      1.420     2.57     4.009573     20.36562     1063.538        39     1.225     1.150  69.17   0
       250    876.4703    417.2362 300.3095503 +22.7530464     164.2283     72.16673      0.997     3.41     4.125834     20.36562     30.63205         5     0.753     0.447  68.44   0
       251    779.2004    416.4113 300.2794997 +22.7236825     119.6663     72.00101      0.978     3.41     3.860503     20.36562     30.98848         5     0.743     0.452  19.23   0
       252    652.7521    415.6509 300.2403527 +22.6855911      307.933     72.22188      1.287     3.91     3.972672     20.36562     37.74358         7     0.921     0.560  58.21   0
       253    415.3042    410.2705 300.1681831 +22.6129014     4836.533     72.29535      1.285     2.37     4.085316     20.36562     567.9849        29     1.100     1.024  75.83   0
       254    659.4846    407.0303 300.2452482 +22.6851308     18770.44      72.2035      1.296     2.31      3.97438     20.36562     2637.128        55     1.203     1.128  36.93   0
       255    677.3755    406.7366 300.2509161 +22.6904054     747.5698     72.16673      1.858     5.91     3.903681     20.36562     54.32316        16     1.535     0.758 -41.48   0
       256    856.4251    397.4543 300.3097232 +22.7413580     415.9594      72.2035      1.373     3.94     4.124286     20.36562     53.63183         7     0.960     0.469 -11.48   0
       257    279.1474    394.3185 300.1310108 +22.5675112      471.027     72.22188      1.663     3.25        4.203     20.36562     61.38506         7     0.819     0.761  53.09   0
       258    993.1616    389.7644 300.3548574 +22.7800817      781.537     72.25863      1.370     3.27     3.705475     20.36562     94.19075        17     1.107     0.982  50.85   0
       259    530.2878    389.0903 300.2108427 +22.6412726      311.518      72.3504      1.141     2.27     4.233549     20.36562     62.99192         6     0.723     0.588 -24.50   0
       260    214.1425    387.0860 300.1131480 +22.5459479     2025.179     72.29535      1.412     2.68      4.06395     20.36562     243.7603        24     1.119     1.087  68.79   0
       261    600.1055    376.4825 300.2366720 +22.6585666     6678.471      72.3504      1.303     2.24     4.243197     20.36562     977.8565        34     1.142     1.013  58.61   0
       262   1013.6979    376.8623 300.3654514 +22.7825183      1253.89     72.27699      1.545     3.14     3.474194     20.36562     134.8261        15     1.012     0.915 -44.65   0
       263    314.8885    375.7404 300.1481554 +22.5728902     662.1501     72.25863      1.334     3.27     4.297634     20.36562     92.30437         9     0.866     0.785  23.83   0
       264    172.4576    369.0752 300.1060366 +22.5282804     454.9795     72.24026      1.317     2.48     3.983573     20.36562     68.07207         7     0.724     0.632  85.40   0
       265    860.0348    368.5649 300.3202261 +22.7341336     343.5337     72.25863      1.211     3.75     4.195849     20.36562     44.90188         6     0.818     0.494   4.03   0
       266    804.3052    365.4619 300.3038623 +22.7165556     1197.307     72.27699      1.516     2.47     3.877935     20.36562     148.0436        18     1.089     0.945  84.91   0
       267    714.0524    366.7525 300.2753204 +22.6898999     499.2993     72.22188      1.171     2.96     3.943475     20.36562     69.51853        11     0.958     0.737  68.07   0
       268     19.8980    366.5787 300.0594462 +22.4818187     1252.031     72.11153      1.586     2.93     4.400106     20.36562      145.537        21     1.299     1.033   3.60   0
       269    506.7779    362.7114 300.2120866 +22.6266510     6137.113     72.11153      1.288     2.13     4.219635     20.36562      1029.36        33     1.109     1.045  69.42   0
       270    995.9881    357.5290 300.3662025 +22.7716578     707.2017      72.2035      1.440     2.37     3.549906     20.36562     89.43416         8     0.806     0.639  37.43   0
       271    898.7742    357.3172 300.3359544 +22.7424976     1312.947     72.16673      1.227     2.20      4.24842     20.36562     174.8271        15     0.882     0.861 -28.05   0
       272    491.3160    351.2555 300.2109921 +22.6187275     416.9581     72.27699      1.166     3.31     4.217047     20.36562     65.30504         9     0.923     0.720   8.71   0
       273    573.9764    349.5551 300.2372758 +22.6430026     514.6383     72.22188      1.726     2.11     4.262857     20.36562     52.50679         6     0.729     0.495  -4.96   0
       274     18.3925    348.0566 300.0649894 +22.4760520     1058.731     72.16673      1.495     2.70     4.434688     20.36562     141.4415        16     1.155     0.962  75.99   0
       275    852.8253    348.1469 300.3246057 +22.7261051     388.2281      72.2035      1.683     5.02     4.157291     20.36562     30.65854         7     1.244     0.572 -12.09   0
       276    554.5912    347.2813 300.2319784 +22.6365422     281.8778     72.12994      1.295     2.74      4.26716     20.36562     38.65548         5     0.704     0.464 -72.21   0
       277    871.6064    344.9677 300.3314924 +22.7308137     511.2865     72.18512      1.209     2.74     4.207666     20.36562     79.26305        10     0.929     0.683  -1.09   0
       278    394.3816    341.9804 300.1838386 +22.5870186     2621.258     72.18512      1.359     2.40     4.364561     20.36562     335.7822        23     1.058     0.999  55.72   0
       279    112.6729    339.2542 300.0971351 +22.5017960     962.7388     72.16673      1.445     3.11     4.040909     20.36562     123.1228        17     1.099     0.982  13.05   0
       280    742.0280    336.4134 300.2938832 +22.6895576     389.1136     72.18512      1.376     2.99     3.860503     20.36562     53.47135         5     0.912     0.351 -46.10   0
       281    363.7121    331.3684 300.1777415 +22.5747802     29979.02     72.14834      1.349     2.34     4.375344     20.36562     4026.594        72     1.278     1.220  50.96   0
       282    898.3782    328.9978 300.3450220 +22.7342363     1482.293     72.12994      1.345     2.50     4.114645     20.36562     193.8216        18     1.020     0.938 -73.22   0
       283    853.9011    326.6961 300.3319027 +22.7202599     263.4141     72.36875      1.206     3.34      4.05533     20.36562     43.83693         5     0.760     0.426  15.92   0
       284     60.0273    319.1661 300.0872969 +22.4802452     5056.908      72.2035      1.532     2.96     4.359133     20.36562     510.0164        39     1.352     1.189  39.91   0
       285    813.8602    317.6874 300.3223452 +22.7056824      566.327     72.27699      1.328     2.13     3.896973     20.36562     107.9328        11     1.001     0.698 -84.67   0
       286    237.9524    317.5088 300.1431297 +22.5331095     445.2474     72.18512      1.357     3.06     4.496054     20.36562     56.04032        11     0.984     0.737 -73.98   0
       287    462.2114    316.8145 300.2131108 +22.6001137     451.4905     72.11153      1.188     2.69     4.254078     20.36562      66.7093         9     0.888     0.664 -74.61   0
       288    774.1943    311.1293 300.3121114 +22.6919211     1899.742     72.14834      1.304     2.49     3.860503     20.36562     244.2089        22     1.112     0.957  81.24   0
       289    582.4103    305.9496 300.2540523 +22.6329993     320.8366      72.2035      1.172     2.45     4.325968     20.36562     61.81277         8     0.887     0.609 -15.34   0
       290    989.3668    303.9479 300.3815263 +22.7542663      629.025      72.2035      1.494     3.72     3.763568     20.36562     68.85135        12     1.049     0.951 -10.62   0
       291    435.9157    295.6507 300.2117952 +22.5861557     2249.646     72.16673      1.541     3.02     4.318762     20.36562     280.6679        24     1.252     0.928  64.88   0
       292    875.0670    288.6373 300.3508512 +22.7156529     657.8776     72.16673      1.313     2.54     3.865753     20.36562     101.6051        13     0.934     0.834  54.53   0
       293    867.2220    289.2526 300.3482058 +22.7134815     272.3655     72.18512      1.185     3.80     3.861553     20.36562      46.1655         5     0.974     0.425  45.60   0
       294      7.7550    286.8362 300.0815495 +22.4552925      813.854     72.22188      2.179     7.09     4.576623     20.36562     74.59054        15     1.890     0.759 -22.26  16
       295    757.0770    286.3049 300.3148325 +22.6796596     379.6238     72.29535      1.198     3.48     3.893392     20.36562     61.11864         6     0.841     0.604  38.07   0
       296    725.8043    285.4253 300.3053739 +22.6700432     334.0153     72.14834      1.181     2.40      3.99028     20.36562     50.47974         5     0.687     0.481 -13.42   0
       297    641.4268    281.7605 300.2802790 +22.6437231      3132.91     72.22188      1.124     4.25     4.385849     20.36562     699.5656        11     1.233     0.417   4.50   0
       298    511.7158    275.1673 300.2420315 +22.6029787     1229.845     72.14834      1.244     2.13      4.30623     20.36562      196.292        13     0.922     0.789  51.14   0
       299    319.2225    275.5546 300.1820132 +22.5454181     209.3627     72.22188      1.118     3.50     4.453215     20.36562      39.9212         5     0.794     0.447 -19.39   0
       300    596.4756    272.6976 300.2692209 +22.6276563     363.4704     72.33206      1.839     3.20     4.387638     20.36562     49.06591         5     0.971     0.351  66.91   0
       301   1023.1359    271.4941 300.4025908 +22.7550370     261.6722     59.23839      1.021     2.08     3.769101     20.36562     57.73462         5     0.702     0.457 -22.30  24
       302    251.8443    270.0490 300.1628471 +22.5236450     117.6921     72.22188      1.152     3.89     4.519909     20.36562     29.22566         5     0.822     0.526  33.61   0
       303    756.6078    267.0790 300.3209242 +22.6739920     2229.335     72.12994      1.308     2.29     4.101684     20.36562     300.7656        21     1.066     0.937  74.74   0
       304    895.1555    268.5071 300.3636458 +22.7158771     350.3549     72.18512      1.335     2.80     3.957239     20.36562     49.25785         5     0.748     0.451  21.25   0
       305   1017.9673    261.4189 300.4042473 +22.7505922     3273.472     72.18512      1.456     2.59     3.775553     20.36562     415.0688        28     1.150     1.133  -0.62  16
       306    464.9639    250.8148 300.2353808 +22.5819769     644.9208     72.18512      1.263     2.46      4.32577     20.36562      102.782        10     0.867     0.723  64.79   0
       307    170.5779    245.1422 300.1456639 +22.4921362     574.5113     72.18512      1.308     3.06     4.555511     20.36562     88.65082        13     0.993     0.904  13.55   0
       308    139.8067    244.8621 300.1361914 +22.4828324     1427.895     72.16673      1.656     3.17     4.602742     20.36562     159.2984        21     1.134     1.096 -52.47   0
       309    877.6244    238.0810 300.3680510 +22.7018799     437.4842     72.16673      1.500     4.34     4.211957     20.36562      39.8323         7     0.886     0.606 -64.35   0
       310    223.7723    236.7916 300.1649080 +22.5056813     512.9744     72.18512      1.370     4.20     4.486832     20.36562      74.9579        11     1.079     0.751  53.32   0
       311     79.0165    233.6972 300.1209238 +22.4614044      363.283     72.09312      1.713     3.95     4.774803     20.36562     41.56817         6     1.064     0.419 -11.07   0
       312    899.7629    231.0991 300.3772183 +22.7064979     327.8791     72.18512      1.251     2.68     4.067539     20.36562     53.21758         5     0.904     0.334  44.62   0
       313    828.3000    228.3918 300.3558180 +22.6843302     672.5164     72.09312      1.277     2.22      4.44622     20.36562     94.03968        10     0.839     0.700 -40.45   0
       314    926.4357    217.4294 300.3899697 +22.7105486     2230.541      72.2035      1.433     2.52     3.902378     20.36562     278.8339        24     1.209     1.039 -62.80   0
       315    344.9348    214.6831 300.2097565 +22.5356377     2102.293     72.29535      1.353     2.48     4.378696     20.36562     302.8351        24     1.132     0.979  62.09   0
       316    901.1209    213.8127 300.3832492 +22.7019326       1547.1     72.16673      0.790     1.63     4.131554     20.36562     612.4427         8     0.751     0.423  11.92   0
       317    422.9260    209.6600 300.2356489 +22.5575595     1084.242     72.22188      1.558     3.47     4.388044     20.36562     109.0561        16     1.067     0.977  89.37   0
       318    174.6445    210.1570 300.1582755 +22.4833091     330.2081     72.24026      1.320     2.35     4.571478     20.36562     46.40368         5     0.735     0.422 -68.00   0
       319    824.9132    209.2123 300.3609837 +22.6778010     501.2696     72.12994      1.235     3.64     4.490623     20.36562     67.99998         9     0.974     0.647  29.66   0
       320    932.7477    206.3382 300.3955357 +22.7092473     468.2841     72.24026      1.868     4.96     3.961698     20.36562     59.69973         9     1.439     0.647  -5.58   0
       321    239.5910    202.0574 300.1810919 +22.5004464     664.4441     72.16673      1.285     2.87     4.417841     20.36562     106.9123        15     1.019     0.950   6.31   0
       322     21.3371    203.1318 300.1129192 +22.4353384      390.073     72.24026      1.593     3.22     5.058609     20.36562     39.98201         5     0.759     0.428  71.29   0
       323    358.0393    201.7674 300.2180218 +22.5358535     390.0517     72.22188      1.557     4.90     4.392966     20.36562     38.99183         7     1.043     0.651  22.54   0
       324    777.5750    198.8411 300.3495939 +22.6606491     1628.568     72.24026      1.282     2.34     4.566183     20.36562     231.4249        19     1.081     0.879  62.00   0
       325    842.5092    198.4886 300.3699469 +22.6799837      637.659      72.3504      1.280     2.44     4.465707     20.36562     90.43811         8     0.805     0.680 -37.30   0
       326    261.2464    195.3129 300.1900124 +22.5049984     585.1337     72.14834      1.336     2.55     4.379084     20.36562     76.50809        10     0.879     0.746 -11.65   0
       327    781.7291    190.4733 300.3536025 +22.6594864     734.2842     72.25863      1.230     2.53     4.571781     20.36562     113.7205        12     0.903     0.793  30.34   0
       328    551.1332    191.2220 300.2815325 +22.5906611     344.1929     72.18512      1.452     2.88     4.445852     20.36562     48.57914         5     0.913     0.338 -44.49   0
       329    701.9684    189.6314 300.3290232 +22.6353676     1280.474     72.22188      1.314     2.16     4.563196     20.36562     213.7857        15     0.934     0.874 -45.50   0
       330    523.3636    186.1830 300.2745218 +22.5808965     269.1696     72.18512      1.225     1.67     4.428322     20.36562     67.41512         5     0.671     0.434  66.13   0
       331    909.6385    180.4275 300.3967335 +22.6948790     904.1996      72.2035      1.494     3.28     4.267347     20.36562      100.468        16     1.122     0.936  53.17   0
       332    897.5731    181.1903 300.3927241 +22.6914878     1429.022     72.18512      1.292     2.44     4.305012     20.36562     174.2633        17     0.939     0.927  50.73   0
       333    628.3934    181.3434 300.3087937 +22.6109567     1039.765     72.16673      1.207     2.28     4.489167     20.36562     134.4187        14     0.882     0.813 -12.00   0
       334    956.1786    179.2890 300.4116161 +22.7084777     246.9202     72.11153      1.391     3.38     4.037118     20.36562     37.15755         5     0.940     0.351 -47.54   0
       335     50.2899    167.4610 300.1334805 +22.4337769     414.6095     72.27699      1.642     2.16     4.954726     20.36562     53.29657         5     0.684     0.467 -20.30   0
       336    260.2457    163.5026 300.2000172 +22.4955616     621.6058      72.2035      1.272     2.60      4.36613     20.36562     103.8523        13     0.980     0.780  35.71   0
       337    122.1528    158.1453 300.1588290 +22.4526413     2372.236     72.22188      1.530     2.97     4.761989     20.36562     247.5278        26     1.226     1.105  63.57   0
       338    945.3108    155.4626 300.4159539 +22.6983716     721.1218     72.27699      1.404     2.90     4.236089     20.36562     106.7369        15     1.091     0.956 -86.08   0
       339     71.8082    155.1310 300.1441636 +22.4366866     528.6998     72.16673      1.659     4.20     4.849367     20.36562     55.25134        10     1.132     0.765  54.72   0
       340    279.6054    151.6190 300.2098905 +22.4979484     5732.947     72.14834      1.430     2.54     4.342181     20.36562     805.1898        33     1.204     1.136  71.89   0
       341     63.8458    145.8145 300.1447107 +22.4316250     1392.982      72.2035      1.608     3.21     4.813796     20.36562     183.2827        22     1.214     1.077  48.24   0
       342    263.0535    142.5368 300.2076885 +22.4903803     636.5726     72.24026      1.196     2.59     4.350612     20.36562     77.40118         6     0.754     0.496  -5.62   0
       343    923.7020    133.2585 300.4164156 +22.6855184     3568.229     72.27699      1.371     2.46     4.371477     20.36562     489.5842        30     1.215     1.053  62.78   0
       344    473.1822    128.3582 300.2776536 +22.5492493     650.4506      72.2035      1.388     2.75     4.377342     20.36562     80.25394        10     0.913     0.740 -39.45   0
       345    226.2831    128.9373 300.2006654 +22.4754568     376.0426     72.27699      1.227     2.97      4.35235     20.36562     62.67798         8     0.922     0.626 -81.13   0
       346    587.6085    126.2080 300.3139722 +22.5828954     262.6256     72.03787      1.098     3.71     4.452696     20.36562     44.81642         6     0.907     0.553  21.12   0
       347    397.3860    120.3119 300.2566765 +22.5242362     706.7835     72.12994      1.783     3.46     4.425593     20.36562     84.46348        11     0.987     0.794 -15.07   2
       348    401.1015    118.8008 300.2583224 +22.5249148     363.3517      72.0563      1.332     3.54     4.425773     20.36562     64.06016         5     0.972     0.378  -2.52   3
       349    163.3554    117.3280 300.1848682 +22.4532667     604.3285     72.16673      1.355     2.58     4.498864     20.36562        76.37        12     0.910     0.799  16.92   0
       350    524.5903    115.7489 300.2977433 +22.5610197     1733.853      72.2035      1.256     2.19      4.41286     20.36562     287.5453        17     0.936     0.925 -74.50   0
       351    452.8256    116.1464 300.2752777 +22.5396433     399.1255      72.2035      1.272     3.09     4.385283     20.36562     62.52103         8     0.898     0.695  19.30   0
       352    267.8307    111.1887 300.2193378 +22.4828062     434.8946     72.18512      1.216     3.30     4.331753     20.36562     56.16386         8     0.922     0.625  33.94   0
       353    812.8903    105.1031 300.3909980 +22.6442609      369.343     72.36874      1.323     3.02     4.592018     20.36562     58.76946         6     0.904     0.432  41.45   0
       354    958.7696     99.6803 300.4382392 +22.6863496     282.7247     72.18512      1.324     4.75     4.280832     20.36562     35.93933         8     1.112     0.719  26.41   0
       355    298.5398     95.4358 300.2339944 +22.4874801     6082.408      72.2035      1.453     2.61     4.347555     20.36562     845.5392        37     1.329     1.093  59.89   0
       356    804.9111     96.1575 300.3914113 +22.6393000     343.4955     72.18512      1.228     3.07     4.625052     20.36562      42.9503         8     0.810     0.663  37.64   0
       357    150.0300     95.0362 300.1879535 +22.4428711     629.8409      72.2035      1.272     2.59     4.412473     20.36562     104.0256         9     0.852     0.702 -65.91   0
       358    928.0064     93.0762 300.4307864 +22.6752460     326.2202     72.11153      1.175     2.22     4.364061     20.36562     60.30741         5     0.616     0.564  -0.45   0
       359    270.3727     89.2137 300.2272522 +22.4772545     292.8772     72.18512      1.317     4.84      4.32044     20.36562     40.13571         8     1.050     0.632  26.69   0
       360    773.8890     86.9686 300.3847222 +22.6273733     293.9694     72.14833      1.449     4.35     4.657839     20.36562     35.87279         6     1.052     0.512   8.32   0
       361    314.2845     86.8021 300.2416899 +22.4897158     236.1638     72.11153      1.259     3.39     4.358007     20.36562     39.04957         5     0.776     0.429 -77.66   0
       362     60.5649     85.8732 300.1631242 +22.4134295     414.0618     72.16673      1.620     3.49     4.472351     20.36562     43.96649         5     0.893     0.582   7.94   0
       363    544.6836     80.8197 300.3153225 +22.5569954     6349.558     72.12994      1.383     2.48     4.410861     20.36562      904.507        34     1.188     1.079  87.74   0
       364    430.1464     80.7791 300.2796862 +22.5226867     533.4055     72.18512      1.218     2.66     4.377841     20.36562     83.96461        10     0.940     0.681   1.60   0
       365    602.0076     75.6220 300.3348562 +22.5726631     352.2479     72.16673      1.365     4.55     4.353989     20.36562     37.49842         8     0.943     0.812  -0.38   0
       366    797.1644     70.7766 300.3972251 +22.6296813     759.7599      72.2035      1.372     2.24     4.676457     20.36562     103.8123         9     0.810     0.671  72.80   0
       367    889.6342     69.4072 300.4264946 +22.6569559     508.8258     72.18512      1.322     2.90     4.383717     20.36562     93.16933         7     0.998     0.445  40.58   0
       368    237.8728     64.8794 300.2250350 +22.4605272     392.3926     72.31371      1.319     2.56     4.296821     20.36562     63.94733         5     0.641     0.538  -7.25   0
       369    596.0772     63.5244 300.3369310 +22.5674094     457.6686     72.27699      1.517     3.50     4.305326     20.36562     51.80182         7     0.866     0.657  61.33   0
       370    673.0742     60.9214 300.3617554 +22.5897092     6205.964     72.29535      1.355     2.57     4.448861     20.36562     854.1906        32     1.187     1.049  68.58   0
       371    448.0327     59.8557 300.2920345 +22.5220293     1501.923      72.2035      1.389     2.58     4.292534     20.36562     214.9838        20     1.120     1.000  53.58   0
       372    714.1805     58.5142 300.3753414 +22.6013201      953.533     72.11153      1.346     2.54     4.609897     20.36562     120.9399        14     0.916     0.861  34.32   0
       373    784.2215     56.0499 300.3979652 +22.6215722     301.0964     72.18512      1.281     3.51     4.699904     20.36562     40.03288         5     0.796     0.497 -39.80   0
       374    730.2150     54.3553 300.3816853 +22.6049228     640.5876      72.2035      1.610     3.14     4.678324     20.36562     80.01602        10     0.922     0.841 -30.80   0
       375     43.6269     53.3791 300.1683947 +22.3990220      438.504     72.18512      1.778     3.38     4.408109     20.36562     47.23433         7     0.994     0.621 -40.57   0
       376    196.7872     52.2756 300.2163474 +22.4445977     709.8244      72.2035      1.474     3.81     4.294572     20.36562     78.53332        13     1.049     0.883  57.00   0
       377    999.7148     52.3680 300.4663485 +22.6849835     509.4797     72.16673      1.102     2.68     4.188412     20.36562     72.62347         8     0.861     0.639  -0.50   0
       378    768.5015     49.8448 300.3950776 +22.6150832     444.5839     72.18512      1.261     2.96     4.709518     20.36562     77.11861         8     0.947     0.685  53.52   0
       379    717.1946     45.8990 300.3803696 +22.5985940     2737.333     72.07471      1.343     2.31     4.631367     20.36562     409.2058        24     1.089     0.956  77.95   0
       380    357.9603     46.6879 300.2682779 +22.4912706     406.6859     72.16673      1.332     3.85      4.31776     20.36562     49.84642         9     0.938     0.750  47.00   0
       381    732.2889     44.4920 300.3855286 +22.6027066     992.0799      72.3504      1.821     5.49     4.697582     20.36562     103.3138        15     1.502     0.850  47.72   0
       382     10.6128     39.7771 300.1625480 +22.3852219     824.1414     72.16673      1.596     3.98     4.382801     20.36562     98.32145        15     1.146     1.037  35.47   0
       383    803.7587     37.5809 300.4100408 +22.6221056     1412.095      72.2035      1.323     2.43     4.709826     20.36562     213.3406        17     1.015     0.945 -48.93   0
       384    964.0305     36.3218 300.4604193 +22.6696921     333.8758     72.16673      1.353     3.21     4.250501     20.36562     35.76345         7     0.745     0.650  11.69   0
       385    741.6071     30.7627 300.3928820 +22.6015463     807.3077      72.2035      1.319     2.18     4.735267     20.36562      119.484        10     0.790     0.760 -50.17   0
       386    547.2354     29.9173 300.3326165 +22.5431252     1033.775     72.14834      1.368     2.42     4.314122     20.36562     134.9405        14     1.056     0.746  45.46   0
       387    120.0516     29.9016 300.1997490 +22.4151799     454.0867     72.27699      1.350     2.99     4.323515     20.36562     71.69196         9     0.969     0.699  -6.02   0
       388    451.3588     28.2184 300.3033239 +22.5139314     920.5852      72.2035      1.357     2.75     4.207596     20.36562     96.47842        11     0.902     0.777 -60.24   0
       389    833.2991     26.9353 300.4226989 +22.6278819     479.4701     72.27699      1.366     3.09     4.566055     20.36562     54.98315         8     0.871     0.730  42.42   0
       390    282.0691   1014.3702 299.9303981 +22.7462839       1475.5     72.16673      2.719     9.22     64.28838     20.36562     63.44658        32     1.967     1.585  28.90  19
       391    790.5988     18.8008 300.4120261 +22.6127655      644.088     71.96414      1.263     2.20     4.753151     20.36562      108.766        11     0.887     0.741 -11.51   0
       392    353.5560     18.6502 300.2759948 +22.4818939     302.5523     72.22188      1.647     3.45     4.251778     20.36562     38.38628         5     0.759     0.454  70.64   0
       393     14.9144     18.2789 300.1708512 +22.3803373     507.2569     72.33206      1.737     4.71     4.339973     20.36562      61.6368         9     1.201     0.657 -49.99   0
       394    644.7313     15.0312 300.3678011 +22.5680289      424.076     72.16673      1.471     3.68     4.257903     20.36562     49.60551         7     1.100     0.425  33.84   0
       395    406.6692   1012.5964 299.9697256 +22.7831691     727.0027     72.14834      2.843     5.95     2.501868     20.36562     52.52358         9     1.196     0.944 -33.47   0
       396      3.0089   1011.7718 299.8445342 +22.6617571     898.8218     64.82283      4.644     6.03    -10.21731     20.36562     43.89622         9     1.325     0.772  32.02  25
       397    128.0009    931.4273 299.9094990 +22.6762596     3795.455     72.14834     17.304    52.08     11.32548     20.36562     89.93378       882    11.582     6.499 -36.09   3
       398    598.2043   1005.7180 300.0315725 +22.8386590     2323.771     72.11153      1.854     4.24     3.368673     20.36562     160.4966        30     1.320     1.304  77.48   0
       399    684.6279   1001.0287 300.0600113 +22.8632340     8645.338     72.14834      1.916     4.45     3.321119     20.36562     501.2249        44     1.558     1.366   3.88   3
       400    690.1912    998.7371 300.0624899 +22.8642448     9425.681     72.12994      1.936     4.56     3.319607     20.36562     522.4252        52     1.571     1.457  14.77   3
