#   1 NUMBER                 Running object number                                     
#   2 X_IMAGE                Object position along x                                    [pixel]
#   3 Y_IMAGE                Object position along y                                    [pixel]
#   4 ALPHA_J2000            Right ascension of barycenter (J2000)                      [deg]
#   5 DELTA_J2000            Declination of barycenter (J2000)                          [deg]
#   6 FLUX_APER              Flux vector within fixed circular aperture(s)              [count]
#   7 FLUXERR_APER           RMS error vector for aperture flux(es)                     [count]
#   8 FLUX_RADIUS            Fraction-of-light radii                                    [pixel]
#   9 FWHM_IMAGE             FWHM assuming a gaussian core                              [pixel]
#  10 BACKGROUND             Background at centroid position                            [count]
#  11 THRESHOLD              Detection threshold above background                       [count]
#  12 FLUX_MAX               Peak flux above background                                 [count]
#  13 ISOAREA_IMAGE          Isophotal area above Analysis threshold                    [pixel**2]
#  14 A_IMAGE                Profile RMS along major axis                               [pixel]
#  15 B_IMAGE                Profile RMS along minor axis                               [pixel]
#  16 THETA_IMAGE            Position angle (CCW/x)                                     [deg]
#  17 FLAGS                  Extraction flags                                          
         1    406.0450     14.5594 300.3408813 +22.5071202     2111.357     72.51117      1.298     2.30     5.657935     20.43679     331.2121        21     1.051     0.937  56.23   0
         2    660.3442     12.8034 300.4206081 +22.5827654     290.1055     72.40049      1.454     4.26       4.8231     20.43679     33.13761         5     1.145     0.452 -81.99   0
         3     53.1409     12.5137 300.2318382 +22.4007922     1351.651     72.54803      1.411     2.99     5.433403     20.43679     180.5218        17     1.090     0.938  24.08   0
         4    896.9675     11.7092 300.4946966 +22.6532722     286.8327     72.38203      1.112     2.18     5.919842     20.43679     52.62334         7     0.706     0.634 -13.99   0
         5    537.1012      9.1117 300.3834311 +22.5448043     493.3141     72.60327      1.393     2.52     4.796627     20.43679     72.73392         6     0.733     0.551  58.16   0
         6    880.5665      2.8175 300.4924659 +22.6458071     316.7831     64.15981      1.443     3.60      5.98244     20.43679     50.94587         8     0.981     0.706  58.30  24
         7    764.1656   1019.6238 300.1258770 +22.9030141     371.2731     72.36356      1.601     5.76     2.413207     20.43679     28.06074         7     1.194     0.782  29.71  16
         8    612.0725   1023.7950 300.0771526 +22.8585844     904.4141     55.61211      1.250     3.45     2.068198     20.43679     156.5914        10     1.296     0.403  -0.77  24
         9    192.8269   1022.8292 299.9470653 +22.7324660      1609.37     60.93318      9.190    17.93     11.62966     20.43679     57.52025        53     3.426     2.618  46.08  26
        10    112.7506   1022.7031 299.9222270 +22.7083821     1018.415     61.67443      6.520     7.16     27.92984     20.43679     40.08383        14     1.789     0.803  -3.15  27
        11    122.5854   1019.6033 299.9262911 +22.7104478     1532.731     72.25266      6.969     9.02     25.16306     20.43679     41.84239        16     1.765     1.286   6.32  26
        12    101.3567   1022.5134 299.9187494 +22.7049057     846.2244     62.53525      6.609     9.85     30.47421     20.43679     47.73888        17     2.673     1.012  33.12  25
        13     83.6794   1021.4521 299.9136040 +22.6992924      1557.05     67.27151     11.183    16.37      34.6589     20.43679     44.75649        57     3.998     1.862  15.49  27
        14     66.6565   1013.2593 299.9109836 +22.6918327     1862.073     72.51117     16.279    35.87     36.75726     20.43679     59.86754       229     8.008     4.460   2.42  27
        15     39.5105    993.5555 299.9089661 +22.6780352     2530.022     72.45586      8.807    29.99     35.27776     20.43679     63.64872       204     8.301     3.009 -25.85  19
        16     37.0685    982.5091 299.9118029 +22.6741375     2372.028     72.56644      5.904    27.69     30.69359     20.43679     61.37432       191     8.212     2.592 -21.78  19
        17    345.2229   1011.3666 299.9981697 +22.7749362     6461.907      72.4374      1.674     3.30     2.823838     20.43679      575.071        40     1.335     1.270   5.23   0
        18    377.7513    998.2476 300.0125557 +22.7809400     615.4658      72.4743      1.716     4.55     2.604985     20.43679     51.09816        10     0.967     0.836  46.36   0
        19     40.6431   1013.9072 299.9026940 +22.6842049     3281.873     72.45585      9.950    43.98     44.26009     20.43679     72.40354       473     7.841     6.846 -66.51  27
        20    891.6040    989.9713 300.1752425 +22.9327237     1968.939     72.40049      1.657     3.76     3.215837     20.43679     146.6311        24     1.215     1.169  83.53   0
        21     70.4639    991.0071 299.9194086 +22.6866021     558.7467     72.41895      4.847     4.79     28.00423     20.43679      32.8915         5     1.061     0.613  18.60   0
        22    541.7203    986.6230 300.0673533 +22.8268157     474.9975     72.38203      1.924     5.01     2.483305     20.43679      40.4201         7     1.029     0.689  87.57   0
        23    389.9589    986.8727 300.0200547 +22.7813435     281.4044     72.41895      1.362     3.69     2.600901     20.43679     35.59515         5     0.993     0.395  60.09   0
        24    680.4128    979.1025 300.1129800 +22.8662680     885.9461     72.32661      2.032     5.23     2.505328     20.43679     60.08071        16     1.399     0.909  47.27   0
        25   1006.8982    977.7069 300.2151823 +22.9637692     368.2122     72.62167      1.662     5.62     3.241263     20.43679     41.17263         9     0.985     0.906  20.65   0
        26    414.3893   1013.2462 300.0190692 +22.7962366     1028.337     72.45585      1.534     2.87     2.084851     20.43679      120.275        18     1.117     1.026  15.83   0
        27    715.0375    973.2886 300.1256560 +22.8749860     1146.413     72.41895      1.718     3.72     2.448595     20.43679     89.70472        21     1.175     1.133  -7.97   0
        28    492.4989    973.4408 300.0563261 +22.8082660     368.3855     72.41895      1.393     5.30     2.629965     20.43679     41.81951         8     1.016     0.780  64.05   0
        29    737.3945    966.7261 300.1347559 +22.8798089     11372.09     72.38203      1.592     3.16     2.448135     20.43679     971.2251        52     1.355     1.276 -52.61   0
        30    783.1172    966.4747 300.1490819 +22.8934495     486.4177     72.54803      1.610     5.40     2.894572     20.43679     43.63046        11     1.102     0.747 -50.60   0
        31    928.5025    965.7302 300.1946356 +22.9368297     387.3882     72.56644      1.625     5.35     3.258895     20.43679     38.49924         8     1.028     0.786  77.35   0
        32     49.1106    958.5762 299.9233309 +22.6708985     290.0836     72.36356      1.238     3.50     18.29146     20.43679      59.3891         8     0.928     0.668 -78.46   0
        33    442.5758    954.4772 300.0469651 +22.7878473     519.4635     72.45585      1.448     4.74     2.864527     20.43679     101.5481         8     1.205     0.530 -72.98   0
        34    789.2853    954.1371 300.1550191 +22.8917592     379.6049     72.54803      1.272     3.49     2.941823     20.43679     43.03708         6     0.753     0.615 -21.89   0
        35    746.1271    948.8109 300.1433068 +22.8772880      1414.78     72.45585      1.470     3.55     2.718652     20.43679     124.0815        18     1.090     0.987  39.76   0
        36    929.4451    948.2318 300.2006246 +22.9320898     532.8847     72.49274      1.642     4.61     3.193604     20.43679     54.91211         7     1.107     0.544  50.54   0
        37    597.9935    945.9480 300.0981077 +22.8320338     523.3257      72.4374      1.576     5.39     2.921729     20.43679     42.68861        12     1.096     0.936  42.36   0
        38    783.7903    942.0245 300.1572490 +22.8866358     836.4741      72.4374      1.796     5.42     2.915897     20.43679     67.67774        14     1.296     0.832  74.92   0
        39    124.4122    942.0358 299.9521027 +22.6887730     333.7412     72.41895      2.380     4.15      8.30987     20.43679     26.79189         5     0.795     0.619   4.89   0
        40    892.8307    938.8953 300.1922490 +22.9184330      358.737     72.38203      1.652     5.63     3.102113     20.43679     38.88215         6     1.390     0.643 -17.59   0
        41    113.7028    934.8386 299.9511176 +22.6834950     473.0906     72.41895      4.955     5.91     7.118168     20.43679     29.73867         6     1.341     0.732 -87.02   0
        42    832.5182    933.3692 300.1752495 +22.8987637     389.2041      72.4374      1.510     5.03     2.993223     20.43679     48.25143        11     0.968     0.837  47.61   0
        43    683.5198    932.6171 300.1290764 +22.8538647     740.8851      72.4374      1.633     3.56     2.981024     20.43679     63.62585        14     1.081     0.843 -50.85   0
        44    396.3253    928.9630 300.0408808 +22.7666522     4163.914     72.38203      1.513     2.86     3.157426     20.43679      470.103        34     1.212     1.187 -62.58   0
        45    695.4480    929.4397 300.1338253 +22.8565308      646.108      72.4743      1.811     4.07     3.002624     20.43679     56.08222        13     1.151     0.844 -16.79   0
        46    174.5781    917.8658 299.9755536 +22.6969095     427.5758     72.41895      1.613     3.18      4.38439     20.43679     52.62114         7     0.889     0.878  70.97   0
        47     57.6113    917.5045 299.9393350 +22.6616848     419.7104     72.34509      1.550     5.37     5.244215     20.43679     37.40093         9     1.112     0.732  25.18   0
        48    439.4881    917.0458 300.0581851 +22.7761880      392.999     72.41895      1.414     3.74     3.304395     20.43679     39.29811         6     0.822     0.489  81.12   0
        49    121.5976    914.8753 299.9600657 +22.6801454     754.6458     72.34509      1.698     4.37     5.211681     20.43679      60.9841        15     1.080     1.015 -60.72   0
        50     30.3431    913.4216 299.9321951 +22.6523263     418.3654     72.45585      1.530     3.93     4.845773     20.43679     47.70262         7     1.021     0.670 -72.96   0
        51     98.9235    911.9096 299.9539869 +22.6724873     1539.315     72.58486      1.686     3.47     5.510851     20.43679     139.3897        23     1.210     1.108  17.23   0
        52    726.0436    907.9800 300.1503379 +22.8595497     295.5621      72.4743      1.421     4.13      3.00975     20.43679     29.36023         7     0.939     0.518 -43.45   0
        53    970.4389    900.7156 300.2288693 +22.9307385     2071.998     72.41895      1.629     3.35     2.988714     20.43679     166.9225        28     1.249     1.162 -34.83   0
        54    924.7234    899.0197 300.2151673 +22.9165483     2247.652      72.4374      1.702     3.38     3.125551     20.43679     181.2884        29     1.333     1.217  89.89   0
        55    784.3609    899.9864 300.1711065 +22.8747437     183.5261     72.45585      1.661     5.58     2.977444     20.43679     25.39674         6     1.363     0.645  55.87   0
        56    629.9050    899.2563 300.1232365 +22.8282129     470.4085     72.49274      2.071     4.31     3.319059     20.43679     41.92081         8     1.065     0.511 -53.92   0
        57   1021.6207    895.1591 300.2466389 +22.9444835      323.563     66.61266      1.427     3.06     2.811733     20.43679     34.44085         5     0.733     0.450 -71.79  16
        58    130.9285    893.7075 299.9698513 +22.6768812     486.5177     72.58486      1.491     4.94     4.539633     20.43679     63.01562        10     1.228     0.865 -68.65   0
        59    708.1758    893.0646 300.1496256 +22.8499116     652.0848     72.41895      1.425     3.55      3.16519     20.43679     65.09743        12     1.013     0.832  59.98   0
        60    576.4002    887.0449 300.1105524 +22.8086606     4842.402      72.4374      1.401     2.60     3.510907     20.43679     548.7499        33     1.157     1.085  86.03   0
        61     66.0737    888.2446 299.9514825 +22.6558426     420.3604     72.41895      1.555     4.81      4.71456     20.43679     39.24872         7     1.073     0.611 -19.85   0
        62    378.3372    884.3857 300.0497899 +22.7484729      617.966     72.40049      1.610     4.07     3.566641     20.43679     63.80737        12     1.103     0.765 -12.48   0
        63    126.5841    881.0623 299.9726153 +22.6719531     1248.131     72.40049      1.567     3.34      4.27081     20.43679     134.9059        19     1.187     1.003 -62.80   0
        64    596.6747    879.7126 300.1192494 +22.8126389     704.7474     72.56644      1.330     2.98     3.514291     20.43679     85.27166        12     1.011     0.760 -44.76   0
        65    146.3393    878.3517 299.9796347 +22.6771074     351.6465     72.49274      1.298     2.91      3.94057     20.43679     51.32557         7     0.834     0.791  23.66   0
        66     72.1565    876.0558 299.9573369 +22.6541765      1859.63      72.4374      0.476     1.90     4.479322     20.43679     1333.687         5     0.367     0.309  14.41   0
        67    513.0823    870.5745 300.0962035 +22.7849418     320.0912     72.41895      1.338     3.72     3.629951     20.43679     36.28195         6     0.806     0.494   2.58   0
        68    752.4593    866.7919 300.1719677 +22.8556521     4142.347     72.38203      1.410     2.63     3.040631     20.43679     456.1699        33     1.151     1.143  58.40   0
        69    969.5313    866.7740 300.2396299 +22.9207219     1087.397     72.41895      1.499     3.49     2.990162     20.43679     97.49004        17     1.112     0.959 -57.44   0
        70   1007.2706    866.7778 300.2513977 +22.9320337     544.2095      72.4743      2.005     4.46     2.862134     20.43679     46.29114         7     1.062     0.532  25.33   0
        71    483.6505    863.5621 300.0893261 +22.7741008     248.4833      72.4374      1.173     3.79     3.660423     20.43679     35.16698         6     0.889     0.477  89.33   0
        72    161.1163    861.1422 299.9898243 +22.6766115     445.0481      72.5296      1.365     2.98     3.446666     20.43679     56.89124         7     0.829     0.643  34.98   0
        73    469.5229    859.4284 300.0862750 +22.7686767     456.3128      72.4374      1.257     3.39     3.684092     20.43679     69.69566         9     1.027     0.674  67.82   0
        74    115.7296    857.6249 299.9768673 +22.6619776     1039.282      72.4374      1.663     3.54      3.95579     20.43679     95.23778        17     1.110     1.008  68.58   0
        75    265.4025    849.5009 300.0260223 +22.7045781     52728.21     72.32661      1.521     2.71     3.620983     20.43679     5802.187        96     1.407     1.350  56.62   0
        76    531.1498    852.6118 300.1076699 +22.7852096     496.8851      72.4743      1.412     3.07      3.67857     20.43679     71.25698        12     1.074     0.757  33.68   0
        77    523.2637    848.4622 300.1065654 +22.7816536     1739.099      72.4743      1.458     2.57     3.686819     20.43679     173.8694        17     1.048     0.909  83.37   0
        78    935.9692    847.6061 300.2354011 +22.9051594     1109.372      72.4374      1.879     2.79     3.269917     20.43679     88.81741        14     0.964     0.872 -32.89   0
        79    193.7106    847.3120 300.0044515 +22.6824320     530.9587     72.60327      1.734     5.35     3.514706     20.43679     47.09444        13     1.234     1.120  87.34   0
        80    562.8478    843.0374 300.1206504 +22.7919714     542.9128      72.4743      1.527     4.66     3.689554     20.43679     66.22543        11     1.276     0.801 -60.35   0
        81    552.2531    844.2769 300.1169494 +22.7891490     781.3519      72.4743      1.259     3.32     3.691223     20.43679     105.5162        15     1.136     0.834  13.98   0
        82    883.1276    839.6093 300.2215296 +22.8870248      322.052     72.41895      1.121     3.68     3.376148     20.43679     41.09253         9     0.915     0.675  67.52   0
        83    668.7882    839.0593 300.1549283 +22.8226036     425.1305     72.41895      1.207     2.75     3.737912     20.43679     61.40179         8     0.779     0.669  66.62   0
        84    463.4279    836.7378 300.0917597 +22.7603403      176.995      72.4374      1.326     3.59     3.728036     20.43679     40.17042         5     1.120     0.396  73.57   0
        85    706.0595    829.6189 300.1696070 +22.8310713     700.2389     72.38203      1.328     2.98     3.618658     20.43679       106.31        13     0.993     0.859 -76.65   0
        86    315.0976    826.6882 300.0488926 +22.7129518     31236.69     72.62167      1.435     2.67     3.910201     20.43679     3425.014        75     1.324     1.273  58.96   0
        87    329.3683    827.2143 300.0531589 +22.7173852     1860.008      72.4374      1.434     2.70     3.937427     20.43679     219.3154        20     1.084     0.970 -53.59   0
        88    838.2459    822.4744 300.2131147 +22.8686521     2889.203      72.4374      1.463     2.62     3.539479     20.43679       290.07        28     1.152     1.099  19.16   0
        89    326.2290    821.0181 300.0541981 +22.7146664     602.2399     72.41895      1.369     3.49     3.974977     20.43679     65.72626        14     1.011     0.928  59.17   0
        90    867.7824    820.6669 300.2229083 +22.8769872       339.64     72.41895      1.406     2.90     3.561496     20.43679     38.22688         5     0.728     0.451  14.03   0
        91    596.0328    818.5659 300.1389407 +22.7949041       949.67     72.51117      1.382     2.73     3.727966     20.43679     129.7809        18     1.023     0.970 -28.93   0
        92    432.6886    818.7816 300.0880367 +22.7459681     426.7106     72.38203      1.288     2.92     3.791458     20.43679      56.3652        10     0.918     0.738  -1.99   0
        93    197.6059    818.4755 300.0150411 +22.6753353      832.577     72.36356      1.523     3.63     3.694934     20.43679     87.65656        15     1.046     1.012  31.50   0
        94    490.4191    816.9888 300.1065818 +22.7627730     244.3274     72.40049      1.407     4.12     3.737962     20.43679     32.64344         5     0.783     0.621  -1.64   0
        95      2.2501    814.5167 299.9556435 +22.6155525     398.7213      61.4356      1.701     4.54     4.454199     20.43679     61.75703         6     1.239     0.472 -47.75  24
        96    443.4087    813.6198 300.0930507 +22.7477038     849.7172     72.40049      1.345     2.62     3.786836     20.43679     101.2546        14     0.977     0.831  37.22   0
        97    364.6082    814.1674 300.0683612 +22.7242183     136.4792      72.4374      0.953     3.42     4.017655     20.43679     31.00499         5     1.208     0.280  34.59   0
        98    844.2711    810.0724 300.2190265 +22.8668981     552.9755     72.51117      1.470     4.11     3.664716     20.43679     58.07181        11     0.992     0.868  71.02   0
        99    345.3974    809.7375 300.0638276 +22.7171836      417.019      72.4374      1.372     2.40     4.078477     20.43679     57.97642         5     0.693     0.462 -71.95   0
       100    301.2431    809.3118 300.0502364 +22.7038119     169.5986      72.4374      1.232     2.39     4.031226     20.43679      42.3918         5     0.714     0.444  13.60   0
       101    597.8702    807.5194 300.1431056 +22.7922858     296.0883     72.54803      1.170     4.31     3.750103     20.43679     44.12876         7     1.057     0.500  47.40   0
       102    389.1937    808.2527 300.0779314 +22.7298989     450.7141     72.40049      1.488     4.02     3.945512     20.43679     45.58848         6     0.770     0.601  89.74   0
       103     31.1391    807.5981 299.9668643 +22.6222442     489.4669     72.40049      1.842     4.16     4.251257     20.43679     43.80632         9     1.082     0.569  64.97   0
       104    821.9363    804.7921 300.2137835 +22.8586871     444.9686     72.41895      1.568     3.82     3.713859     20.43679     48.60189        12     1.090     0.779  27.99   0
       105    195.4507    803.1071 300.0193695 +22.6702828     605.5208     72.51117      1.369     2.86     3.751853     20.43679     70.68556         9     0.789     0.779  12.41   0
       106    518.5728    793.1453 300.1230978 +22.7643783     456.8691      72.4374      1.493     2.66     3.781465     20.43679     54.50416         7     0.806     0.601  -6.98   0
       107    488.2757    791.5569 300.1141861 +22.7548348     651.4249     72.41895      1.382     3.50     3.783625     20.43679     80.98338        13     1.172     0.721  28.82   0
       108    397.2527    790.5373 300.0861995 +22.7272362     272.3158     72.49274      1.195     3.40     3.971498     20.43679     46.08807         7     0.973     0.534 -46.88   0
       109    300.9998    789.4246 300.0566284 +22.6980366     218.5348     72.36356      1.417     4.10     4.117239     20.43679     31.49833         5     1.078     0.445  65.58   0
       110    904.6062    787.6373 300.2451300 +22.8785417     4488.307      72.4743      1.429     2.72     3.864984     20.43679     504.8793        30     1.154     1.067  58.35   0
       111    510.0484    788.8438 300.1218439 +22.7605874     1190.675      72.4743      1.230     2.34     3.790027     20.43679     193.7898        15     0.923     0.836  12.68   0
       112    429.7859    788.6503 300.0969333 +22.7364552     357.3581      72.4743      1.306     3.33     3.877553     20.43679     50.07129         6     0.776     0.523  46.37   0
       113    591.6188    784.0383 300.1487962 +22.7836738     339.4478      72.4374      1.282     3.12     3.800738     20.43679     51.67614         8     0.866     0.641 -39.43   0
       114    893.0711    779.1687 300.2442883 +22.8726530     1612.595      72.4374      1.372     2.69     3.940019     20.43679     176.7095        19     1.033     0.958 -14.47   0
       115    121.4523    774.5457 300.0056645 +22.6398842     287.1043      72.4743      1.507     4.83     3.838564     20.43679     33.91704         5     1.215     0.544 -27.84   0
       116    255.7710    773.2189 300.0478373 +22.6798174     872.0754      72.4374      1.453     3.84     4.143401     20.43679     118.9105        16     1.264     0.809  48.32   0
       117    719.5031    770.5364 300.1930105 +22.8181459      2577.97      72.5296      1.387     2.50      4.02343     20.43679     296.5115        29     1.411     0.959   0.67   0
       118    924.2772    769.4130 300.2571895 +22.8792042      1684.98     72.45585      1.448     2.63     4.023392     20.43679     175.9461        22     1.130     0.986  58.49   0
       119    104.8225    757.2131 300.0061341 +22.6299242     637.7188     72.41895      1.583     3.32     4.058185     20.43679     84.64333        12     1.019     0.901 -47.58   0
       120    801.9951    756.3322 300.2233297 +22.8387982     611.2162     72.41895      1.320     3.48     4.108792     20.43679     86.87414        10     0.964     0.737  32.61   0
       121    837.8496    747.3276 300.2374311 +22.8469601     146510.2     72.41895      1.348     2.42     4.194992     20.43679        17628       151     1.380     1.320  74.46   0
       122    984.8480    749.0453 300.2826997 +22.8915058     1231.469      72.4743      1.427     3.01     3.772171     20.43679      126.942        19     1.083     1.006 -71.69   0
       123    600.2192    751.2164 300.1621471 +22.7768349     324.7063     72.41895      1.127     2.70      3.87139     20.43679     47.03328         7     0.841     0.558 -31.03   0
       124    690.2382    747.4915 300.1913892 +22.8027576     803.0042      72.4374      1.281     2.90      4.13733     20.43679     109.4789        14     1.023     0.845  63.21   0
       125    870.6228    740.1912 300.2499663 +22.8547336     515.6611      72.4374      1.552     3.75     4.265173     20.43679     58.39085         9     0.892     0.754  -9.37   0
       126    524.2543    736.2301 300.1433738 +22.7497536     1602.205     72.45585      1.215     2.19      3.91251     20.43679     254.5695        16     0.973     0.838  54.21   0
       127    705.3351    733.5510 300.2006242 +22.8032825     9119.139     72.45585      1.248     2.26     4.215988     20.43679     1180.484        37     1.105     1.068  53.85   0
       128    206.8209    728.8426 300.0470512 +22.6524040     4873.049      72.4743      1.400     2.58     4.225046     20.43679     636.8582        30     1.125     1.085  59.50   0
       129    288.9387    726.8623 300.0732211 +22.6764771     1100.482      72.4743      1.339     2.65     4.245988     20.43679     163.8571        15     1.017     0.873  49.68   0
       130    538.7992    726.2402 300.1511488 +22.7512493     185.7777     72.45585      1.090     4.35     4.009009     20.43679     28.80766         5     0.775     0.695  30.78   0
       131    164.5300    724.2491 300.0354021 +22.6383953     538.8331      72.4374      1.359     4.07     4.210323     20.43679     67.10475        11     1.127     0.835  47.77   0
       132    497.1162    722.0542 300.1395373 +22.7375472     652.5232      72.4743      1.218     2.54     4.112012     20.43679     109.2377        10     0.849     0.730  70.69   0
       133    488.8087    714.3573 300.1394545 +22.7328474     3295.914     72.45585      1.266     2.28     4.242982     20.43679     461.4844        23     1.023     0.962  38.13   0
       134    479.0384    708.2229 300.1384086 +22.7281570      1491.51     72.45585      1.266     2.20     4.355777     20.43679     223.8899        17     0.957     0.918  66.54   0
       135    872.6818    705.9611 300.2617379 +22.8455217     517.1923     72.40049      1.282     4.06     4.375656     20.43679     60.46066         6     1.034     0.455  60.11   0
       136    142.2097    704.3669 300.0349302 +22.6259963     680.0817     72.41895      1.347     3.04     4.257012     20.43679       76.922        13     1.022     0.811  40.86   0
       137    156.4871    703.0317 300.0398005 +22.6298984      685.725     72.40049      1.471     3.77     4.198953     20.43679     77.13409        13     1.053     0.881 -24.76   0
       138    213.5572    700.0631 300.0585008 +22.6461733     431.7437      72.4374      1.493     2.62     4.218958     20.43679     57.94884         8     0.829     0.673  33.09   0
       139    182.3386    699.6647 300.0489281 +22.6366910     499.3707      72.4743      1.282     3.18      4.19155     20.43679     61.45872         9     1.043     0.572 -47.09   0
       140    925.9890    698.8546 300.2806663 +22.8594549     505.8918      72.4374      1.294     3.03     4.433607     20.43679     70.95262         9     0.909     0.663 -54.40   0
       141    503.1190    698.2529 300.1491433 +22.7325184     397.6288     72.45585      1.224     2.90     4.425477     20.43679     55.48971         9     0.932     0.659  79.92   0
       142    403.7579    697.9640 300.1183229 +22.7026344     1766.737     72.49274      1.274     2.16     4.418532     20.43679     285.3462        18     0.937     0.913  84.91   0
       143     57.7290    693.0139 300.0123770 +22.5973858     19835.21      72.4374      1.527     2.87     4.623955     20.43679     2224.559        62     1.384     1.286  46.14   0
       144    523.7023    692.7990 300.1573221 +22.7371263     353.4694     72.32661      1.380     4.00     4.399358     20.43679     58.29282         8     1.098     0.651 -44.24   0
       145    488.6527    693.2487 300.1462684 +22.7267441     1103.145      72.4743      1.319     2.37     4.554894     20.43679     143.9682        14     0.871     0.859  32.58   0
       146    979.5167    695.2057 300.2985432 +22.8744450     738.0724     72.36356      1.290     3.39     4.312671     20.43679     86.64138        12     0.970     0.859  72.80   0
       147    242.0108    684.6779 300.0723461 +22.6502992     260.8863     72.41895      1.230     4.33     4.279413     20.43679     31.54038         7     0.763     0.700  -2.48   0
       148    906.8690    679.3541 300.2810450 +22.8481254     1101.243     72.41895      1.312     2.26     4.487943     20.43679     147.2097        15     0.981     0.817  -6.18   0
       149      3.7666    677.2517 300.0007421 +22.5766698     1457.683     68.12046      1.806     4.59     4.754476     20.43679     100.1606        26     1.593     1.003  86.05  16
       150     69.7957    677.8559 300.0210519 +22.5966624      485.803     72.40049      1.530     3.98     4.633685     20.43679      44.1284         8     1.021     0.557  34.98   0
       151    773.2664    677.2464 300.2400917 +22.8074820     371.1964      72.4374      1.176     3.02     4.399143     20.43679     56.09865         8     0.781     0.701 -44.01   0
       152    451.8471    673.5836 300.1412086 +22.7100635     365.9089      72.4743      1.270     2.84     4.744018     20.43679     69.82198        10     0.927     0.725  87.67   0
       153    846.8544    672.1095 300.2646930 +22.8280611     711.9782     72.49274      1.333     2.39     4.454822     20.43679      102.274        11     0.832     0.800  26.02   2
       154    842.5224    671.5141 300.2635364 +22.8265920     354.2567     72.56644      1.124     3.11     4.454995     20.43679     47.63539         5     0.731     0.464  18.62   3
       155    601.1757    670.2121 300.1887804 +22.7538749     254.1022      72.4374      1.113     3.78     4.371934     20.43679     34.42637         5     0.928     0.442  45.96   0
       156    591.3741    670.2693 300.1857103 +22.7509525     191.4433      72.4374      1.038     2.13     4.395123     20.43679     47.22304         5     0.675     0.466  74.54   0
       157    408.8246    666.0446 300.1302748 +22.6949970     817.6068     72.45585      1.329     2.63     4.583793     20.43679     127.7628        13     1.058     0.799 -47.87   0
       158    556.9067    664.5266 300.1768474 +22.7389698     420.3059     72.56644      1.131     2.66     4.491895     20.43679      81.6693         7     0.945     0.517  27.27   0
       159    603.9329    662.9860 300.1919878 +22.7526275      432.089      72.4374      1.169     2.47     4.381571     20.43679     74.44197         8     0.755     0.682 -47.87   0
       160    574.5991    662.7001 300.1829485 +22.7437505     536.1514     72.27116      1.081     2.09     4.454069     20.43679     103.2597         7     0.814     0.507  58.50   0
       161    453.2748    662.0972 300.1453864 +22.7071960     888.7227     72.60327      1.458     3.38     4.771497     20.43679     107.3016        13     1.034     0.881  22.86   0
       162    418.5824    657.5062 300.1360855 +22.6954740     1755.504     72.36356      1.179     2.12     4.619921     20.43679     243.3836        16     0.936     0.853  63.08   0
       163    886.8658    657.2350 300.2819997 +22.8357791     3305.432      72.4374      1.300     2.41     4.454731     20.43679     422.2101        24     1.076     0.993  77.96   0
       164    984.8483    655.4030 300.3131452 +22.8646092     635.0372      72.4374      1.257     2.65     4.551722     20.43679     114.7465        11     1.022     0.662  54.84   0
       165    783.5008    654.3910 300.2507100 +22.8039871     290.6839     72.32661      1.083     2.68     4.432322     20.43679     54.28726         5     0.693     0.471  70.76   0
       166    768.6533    653.6877 300.2463125 +22.7993353     290.1714      72.4743      1.204     2.75      4.41071     20.43679     38.90823         5     0.731     0.441  72.04   0
       167    926.1714    647.4745 300.2974259 +22.8447526     273.6866     72.45585      1.261     3.11     4.528359     20.43679     46.65978         8     0.849     0.668  52.68   0
       168    447.6240    648.1904 300.1481484 +22.7015111     281.2681      72.4374      0.943     2.04     4.764458     20.43679     65.68234         5     0.694     0.445 -68.97   0
       169    282.0113    644.2468 300.0979224 +22.6507045     9290.323     72.45585      1.314     2.26     4.476322     20.43679     1269.428        43     1.174     1.112  50.46   0
       170    404.4373    641.2475 300.1369697 +22.6865669     8992.193      72.4743      1.222     2.16     4.625865     20.43679     1231.646        35     1.084     0.994  76.42   0
       171    169.1767    638.0472 300.0648656 +22.6150730     292.2484     72.45585      1.322     3.92     4.066689     20.43679     29.56076         5     0.860     0.512  31.59   0
       172   1008.9623    636.3128 300.3268710 +22.8663488     771.3099     72.41895      1.184     2.48     4.583286     20.43679     120.7469        10     0.795     0.747  66.23   0
       173    650.9246    637.3365 300.2149566 +22.7593529     317.2401     72.49274      1.179     2.80     4.444705     20.43679     53.01528         6     0.776     0.622 -34.40   0
       174    816.0742    635.0743 300.2671387 +22.8082020     1828.681     72.49274      1.275     2.25     4.432127     20.43679     275.3379        18     0.943     0.885 -86.07   0
       175    900.7094    632.3940 300.2943895 +22.8327924      12378.5     72.34509      1.269     2.24     4.451311     20.43679     1632.311        44     1.123     1.104  71.84   0
       176    464.9854    630.8112 300.1591986 +22.7017309     11340.28     72.36356      1.237     2.03      4.84591     20.43679     1939.651        39     1.097     1.014  81.05   0
       177    192.4417    626.3969 300.0758816 +22.6187126     1366.229     72.45585      1.301     2.63     4.190181     20.43679     174.7617        18     1.036     1.003 -52.19   0
       178    650.9756    626.5916 300.2184646 +22.7562837     213.4873      72.4374      1.243     4.14      4.46092     20.43679     26.42929         5     0.795     0.615  86.72   0
       179    634.3199    626.2645 300.2133845 +22.7511969     526.8043     72.54803      1.148     2.43     4.458275     20.43679     78.96812         7     0.709     0.623  58.87   0
       180    350.2696    625.3116 300.1253009 +22.6657484     153.0767     72.60327      1.070     3.82     4.536291     20.43679     47.73924         5     0.873     0.479  45.95   0
       181    439.4733    623.8342 300.1535284 +22.6920782     390.4944     72.41895      1.181     1.85     4.762626     20.43679     83.41135         5     0.678     0.464  68.21   0
       182    739.4915    618.9614 300.2485141 +22.7806243     667.4836      72.4374      1.183     2.50     4.399518     20.43679     127.0489        13     1.054     0.800 -88.45   0
       183    396.6433    619.0107 300.1417721 +22.6778494      4272.35      72.4374      1.232     2.10     4.650079     20.43679      711.687        27     1.025     0.992  43.74   0
       184    374.8350    617.3524 300.1355276 +22.6708329     1176.735      72.4743      1.213     2.20     4.596948     20.43679     182.0715        14     0.972     0.771  49.67   0
       185    129.2437    616.9478 300.0593143 +22.5970401     728.4875      72.4743      1.398     3.21     4.285021     20.43679     84.78819        14     1.104     0.818  73.78   0
       186    816.5972    614.3210 300.2740467 +22.8023989     1685.091     72.34509      1.337     2.52     4.415929     20.43679     207.5451        21     1.083     0.952 -59.48   0
       187    513.2753    606.5085 300.1821237 +22.7092367     200220.9     72.60327      1.198     2.09     4.824113     20.43679     28672.44       211     1.421     1.354  70.35   0
       188    916.9992    612.8073 300.3058339 +22.8320469     290.6665     72.25266      1.344     4.71       4.4895     20.43679     29.65523         7     0.893     0.706  55.33   0
       189    336.6524    612.6648 300.1251761 +22.6580358     427.2092      72.4743      1.525     4.19     4.535832     20.43679     56.22591         7     0.923     0.604  15.08   0
       190    697.0696    611.3900 300.2377604 +22.7657360     800.4883     72.41895      1.138     2.24     4.456655     20.43679     130.5327        11     0.886     0.711  52.92   0
       191    199.4177    606.5391 300.0845026 +22.6151106     3623.681     72.38203      1.381     2.41     4.251954     20.43679     477.2683        29     1.177     1.050   5.72   0
       192    378.7959    603.6545 300.1412109 +22.6680908     271.0968     72.40049      1.174     3.33     4.617539     20.43679     39.90592         6     0.739     0.625 -66.87   0
       193    765.0598    602.3336 300.2618836 +22.7835124     609.8854      72.4743      1.313     3.39     4.415619     20.43679     73.60976         9     0.980     0.655 -42.74   0
       194    545.0558    593.0905 300.1963753 +22.7149140     323.2321     72.49274      1.358     4.21     4.780499     20.43679     41.23404         8     1.039     0.671  58.84   0
       195    403.9425    587.1154 300.1544071 +22.6708868     2764.232     72.54802      1.340     2.20     4.697077     20.43679     436.9481        26     1.373     0.876 -88.45   0
       196    248.3967    589.2055 300.1053588 +22.6248328     428.8941     72.25266      1.270     3.04      4.47813     20.43679     56.92843         9     0.850     0.747  62.31   0
       197    821.9578    585.7999 300.2849859 +22.7958141     198.6743     72.41895      1.041     3.47     4.364893     20.43679     43.08577         6     0.900     0.463  37.14   0
       198    815.1213    582.8830 300.2838033 +22.7929279     406.5938     72.56644      1.364     2.15      4.36566     20.43679     60.99626         5     0.722     0.492  51.37   0
       199    783.4510    581.0318 300.2745361 +22.7829064     191.5805      72.4743      1.641     4.81     4.372836     20.43679     29.48003         5     1.075     0.609  -1.05   0
       200    721.3620    575.3215 300.2570480 +22.7626603     312.8044     72.41895      1.133     2.65     4.428073     20.43679     70.76317         7     0.805     0.613   5.26   0
       201    800.8528    572.8975 300.2826017 +22.7857847     1752.318      72.5296      1.248     2.03     4.344903     20.43679     297.5388        16     0.990     0.796  74.23   0
       202    672.0375    570.6207 300.2432124 +22.7465279      2590.94     72.45585      1.197     2.00     4.600452     20.43679     431.0826        21     0.963     0.890  50.68   0
       203     31.3511    570.9485 300.0438523 +22.5544747     365.9765      72.4743      1.964     3.29     4.564034     20.43679      38.2149         5     0.820     0.495 -33.61   0
       204    916.3743    567.7957 300.3202664 +22.8189297     555.7003     72.40049      1.417     3.13      4.49923     20.43679     62.65672        10     0.848     0.828  23.57   3
       205    914.9748    563.6413 300.3211799 +22.8173170     792.4573     72.49274      1.376     3.76     4.498107     20.43679     107.5202        13     1.272     0.716  83.44   3
       206    577.0802    567.4551 300.2146738 +22.7171562     331.9641      72.4743      1.039     2.61     4.789456     20.43679     72.20314         6     0.757     0.644  26.27   0
       207    459.2845    566.5039 300.1783216 +22.6815671     739.3491     72.62167      1.214     2.54      4.85022     20.43679     105.2072        14     0.998     0.769 -83.09   0
       208    929.2853    564.4194 300.3253888 +22.8218274      1244.68     72.36356      1.267     2.35     4.535422     20.43679     173.1794        17     1.018     0.887  78.72   0
       209    801.1075    562.8463 300.2859470 +22.7829743     2188.479     72.45585      1.474     3.72     4.313816     20.43679     292.8033        22     1.634     0.762  79.29   0
       210    554.2372    561.1922 300.2095979 +22.7085105      676.475     72.45585      1.626     2.76     4.849044     20.43679     84.48905         9     0.910     0.650 -50.99   0
       211    340.3886    561.1331 300.1430821 +22.6443719     302.0265      72.4374      1.070     3.01     4.530998     20.43679     59.97107         7     0.807     0.626 -60.78   0
       212    839.2690    557.9852 300.2994190 +22.7930120     4266.367     72.45585      1.234     2.14     4.344559     20.43679     689.5117        24     1.042     0.912  69.66   0
       213    392.8352    560.0377 300.1597500 +22.6597860     478.0416     72.51117      1.358     3.45     4.673963     20.43679     60.27578         9     1.033     0.678  70.38   0
       214    576.8239    555.0441 300.2186265 +22.7135165     284.0216      72.4743      1.409     2.65     4.839364     20.43679     47.80477         5     0.781     0.477  43.32   0
       215    500.1217    554.0717 300.1950685 +22.6902431     280.3704     72.54802      1.116     1.93      4.89679     20.43679     69.32237         6     0.748     0.566  88.69   0
       216    931.3711    548.2924 300.3312792 +22.8178190     707.2546     72.40049      1.231     2.26     4.535519     20.43679     107.9499        13     1.019     0.753 -50.81   0
       217     71.4228    548.6626 300.0635383 +22.5601091     818.6143     72.41895      1.327     2.72     4.197456     20.43679      113.451        15     1.016     0.846  50.36   0
       218    732.4467    542.0491 300.2713117 +22.7564275     251.3803      72.4743      1.290     2.18      4.36538     20.43679     54.86409         6     0.757     0.493  83.64   0
       219    927.4243    537.7696 300.3334675 +22.8136136     466.9106      72.4374      1.419     4.15     4.517913     20.43679     46.90987         7     1.186     0.415 -76.02   0
       220     64.0251    538.5010 300.0645414 +22.5549755     530.4854     72.38203      1.831     4.79     4.254956     20.43679     43.84508         9     1.208     0.644 -33.49   0
       221    671.4921    532.7646 300.2553420 +22.7354946     548.8134     72.40049      1.174     2.31     4.606947     20.43679     73.63174         6     0.725     0.496 -83.22   0
       222    560.2364    530.3763 300.2214770 +22.7014627      420.361     72.45585      1.245     2.26     4.859372     20.43679     58.15406         7     0.748     0.601 -28.61   0
       223    612.7199    528.6353 300.2383819 +22.7166945      735.037     72.38203      1.082     1.67     4.822736     20.43679     154.4515        12     0.914     0.686  45.45   0
       224   1020.2619    526.0579 300.3662238 +22.8380539     1054.615     71.19048      1.276     2.32     4.460736     20.43679     165.7927        16     1.039     0.829  35.54  16
       225    927.2311    520.7908 300.3389234 +22.8086776     639.7231      72.4374      1.176     2.60     4.485599     20.43679     96.47007         9     0.859     0.655  67.67   0
       226    673.4199    520.6565 300.2598759 +22.7325956     950.1796     72.45585      1.179     2.02     4.525541     20.43679     131.1855        11     0.808     0.720  75.96   0
       227    830.7587    516.8511 300.3101308 +22.7786468     1094.434      72.4374      1.255     1.99     4.329985     20.43679     166.2081        13     0.937     0.734 -66.89   0
       228    814.9233    513.2667 300.3063602 +22.7728731     645.0592      72.5296      1.205     2.64     4.297674     20.43679     100.2981        11     1.003     0.668  36.91   0
       229    795.7473    513.5655 300.3002875 +22.7672138     269.6009     72.45585      0.953     2.74     4.269866     20.43679      43.7209         5     0.701     0.473  16.57   0
       230    559.2495    511.4225 300.2273270 +22.6957256     3206.627      72.4374      1.127     2.01     4.816742     20.43679     486.3318        20     0.964     0.840  73.27   0
       231    919.8250    509.8791 300.3401592 +22.8033242     486.1644     72.41895      1.255     2.21     4.457489     20.43679     76.31796         7     0.689     0.652  21.33   0
       232     35.6414    502.5531 300.0674024 +22.5361503     287.2589     72.49274      1.101     4.11     4.501514     20.43679     48.61797         6     0.996     0.491 -55.50   0
       233    564.6199    498.7814 300.2331050 +22.6937062     263.0742      72.4374      1.295     3.58     4.791265     20.43679     44.13358         5     0.937     0.429  74.22   0
       234    330.8893    498.8340 300.1603660 +22.6236473     298.3501     72.41895      1.412     3.93     4.553062     20.43679     32.61464         6     0.775     0.572  43.90   0
       235    399.1397    498.3802 300.1817408 +22.6439824     285.4619     72.38203      1.140     2.66     4.687241     20.43679     47.48592         7     0.732     0.626  19.44   0
       236    970.6495    490.3189 300.3623608 +22.8129260     1243.798     72.45585      1.182     2.34      4.37753     20.43679     169.3728        16     0.975     0.851 -87.85   0
       237    929.0642    488.9983 300.3498228 +22.8000919     993.7725      72.4374      1.260     2.07     4.425542     20.43679     170.1059        12     0.959     0.771 -72.39   0
       238    842.6230    489.9009 300.3225831 +22.7744591     573.4552     72.38203      1.246     2.55      4.35818     20.43679     84.14762        10     0.939     0.654 -54.20   0
       239    669.8640    485.2716 300.2702627 +22.7213687     1120.689      72.4743      1.239     2.24     4.326895     20.43679     187.2879        13     0.914     0.793 -55.00   0
       240    465.7039    485.8605 300.2065165 +22.6603457      485.603     72.51117      1.198     2.82     4.746154     20.43679     88.35844         9     0.884     0.708 -47.57   0
       241    173.6528    483.9290 300.1163270 +22.5722129     782.6651     72.41895      1.324     2.95     4.400078     20.43679     110.6079        12     0.965     0.799 -17.83   0
       242     13.6778    481.1891 300.0675200 +22.5234337     380.6073     72.41895      1.525     4.20      4.54444     20.43679     43.17324         6     1.242     0.406 -78.61   0
       243    236.1859    479.4008 300.1372333 +22.5896700     3609.736     72.27116      1.253     2.25      4.46752     20.43679     460.0112        25     1.053     0.948  61.47   0
       244    969.3270    477.6342 300.3660688 +22.8088848     4439.614      72.4374      1.231     2.16     4.353957     20.43679     683.8525        27     1.026     1.015 -68.09   0
       245    183.3833    474.1871 300.1225148 +22.5723369     7497.529     72.38203      1.298     2.34     4.427245     20.43679     967.1162        36     1.160     1.060  56.29   0
       246    688.1016    474.5481 300.2794259 +22.7237540     225.6494      72.5296      1.107     2.81     4.297442     20.43679     43.35679         6     0.722     0.623  56.33   0
       247    561.8790    473.4805 300.2404697 +22.6856206      429.839     72.56644      1.481     2.75     4.757783     20.43679     54.70861         7     0.859     0.557  80.68   0
       248    324.2328    468.3762 300.1681884 +22.6129111     4810.112      72.4374      1.214     2.18     4.644832     20.43679     672.7538        24     1.013     0.941  70.75   0
       249    949.2188    468.5592 300.3627460 +22.8002550     1826.693     72.45585      1.248     2.33     4.378452     20.43679     276.3296        17     0.975     0.866  67.30   0
       250    568.4141    464.9847 300.2452633 +22.6851399     18354.76     72.38203      1.185     1.98     4.767748     20.43679     2945.304        52     1.118     1.029  80.43   0
       251    586.1173    464.7348 300.2508558 +22.6903740     952.8685     72.54803      1.936     5.34     4.776786     20.43679     79.06818        16     1.596     0.829 -39.99   0
       252    195.2058    463.1687 300.1297674 +22.5727220     350.1895      72.4374      1.434     3.64     4.439082     20.43679     46.36842         5     0.928     0.411  44.04   0
       253    811.8973    461.0412 300.3223811 +22.7569641     288.8583     72.41895      1.175     3.86     4.299677     20.43679     40.60612         5     0.791     0.539  55.89   0
       254    765.4557    455.0675 300.3098500 +22.7413353     319.5248      72.4743      1.022     3.67      4.26095     20.43679     56.86602         6     0.789     0.490 -81.97   0
       255    188.5301    452.0339 300.1313087 +22.5675252     357.5513     72.41895      1.150     2.42     4.441459     20.43679     56.27036         5     0.723     0.557  -4.84   0
       256    901.9094    447.3628 300.3548798 +22.7799955     671.7938     72.41895      1.168     2.32     4.392824     20.43679     103.5066        10     0.802     0.725  77.60   0
       257    438.6792    446.7411 300.2108128 +22.6410149      424.227      72.4743      1.344     1.94     4.764486     20.43679     62.18459         5     0.665     0.459  79.65   0
       258    123.0394    445.2494 300.1131612 +22.5459352     2094.567     72.45585      1.405     2.74     4.440578     20.43679     229.5483        23     1.086     1.021  54.36   0
       259    509.0663    434.4604 300.2367035 +22.6585881     6546.596      72.4743      1.198     2.03     4.778675     20.43679     1004.595        32     1.081     0.930  71.96   0
       260    922.7111    434.5211 300.3655357 +22.7825352     1309.979     72.56644      1.248     2.18     4.388972     20.43679     209.6943        16     0.943     0.872 -83.84   0
       261    223.9671    433.8731 300.1482201 +22.5729428     641.5164      72.4374      1.253     2.56     4.466594     20.43679     95.86981        10     0.876     0.710  59.24   0
       262     81.4553    427.0722 300.1061446 +22.5282470     438.9704     72.45585      1.174     2.63     4.641746     20.43679     71.86388         8     0.812     0.638   0.99   0
       263    713.1877    423.3802 300.3038572 +22.7165741     1142.344     72.40049      1.274     2.37     4.417333     20.43679     156.2367        17     1.251     0.798  80.31   0
       264    622.8071    424.4913 300.2753483 +22.6898128     459.1648     72.34509      1.092     2.12     4.769967     20.43679     89.87803        10     0.865     0.655  83.98   0
       265    415.6910    420.7830 300.2120902 +22.6266721     6090.787     72.36356      1.189     2.03     4.798044     20.43679     977.3695        31     1.080     0.934  74.83   0
       266    999.8198    421.9397 300.3936668 +22.8020095     156.8091     72.38203      1.169     3.77     4.314435     20.43679      34.6829         5     0.834     0.489  29.93   0
       267    904.9673    415.1354 300.3662990 +22.7716505     697.6721      72.4374      1.324     2.85     4.378997     20.43679     91.06418        10     0.842     0.769  83.61   0
       268    807.5956    414.8887 300.3360288 +22.7424162      1436.67     72.34509      1.244     2.03     4.291267     20.43679     231.4131        16     0.973     0.825  56.06   0
       269    400.0795    409.3874 300.2109339 +22.6187209     567.0277     72.41895      1.303     2.81     4.804443     20.43679     67.89284         9     0.857     0.681  62.96   0
       270    761.0336    406.6421 300.3241980 +22.7260995     283.8861     72.49274      1.058     3.35     4.280004     20.43679     48.95596         5     0.969     0.422  66.76   0
       271    482.9465    407.4520 300.2373449 +22.6430050     426.4092      72.4743      1.139     1.82     4.762227     20.43679     70.42271         6     0.701     0.496   5.19   0
       272    463.3268    405.2523 300.2319539 +22.6364928     319.6497     72.45585      1.403     2.85     4.770117     20.43679      51.5239         6     0.945     0.513  54.06   0
       273    780.2257    402.6097 300.3314872 +22.7306901      634.571      72.4374      1.214     2.17     4.280262     20.43679     84.82221         9     0.798     0.655  63.51   0
       274    303.1769    400.0277 300.1838351 +22.5869826     2453.496      72.4374      1.238     2.10     5.087245     20.43679     391.1832        22     1.038     0.907 -89.91   0
       275     61.9740    401.8206 300.1082918 +22.5151598     199.6094     72.41895      1.165     3.79     4.936891     20.43679     31.53173         5     0.826     0.499  59.16   0
       276     21.9097    397.6175 300.0972128 +22.5019356     967.4548     72.36356      1.426     3.71     5.430223     20.43679     129.6917        18     1.231     0.912  33.19   0
       277    272.5488    389.4293 300.1777530 +22.5747575     29377.12     72.45585      1.247     2.20     5.051912     20.43679     3840.032        63     1.229     1.106  60.80   0
       278    807.2113    386.6570 300.3450760 +22.7341897     1502.031     72.40049      1.248     2.02     4.286359     20.43679     248.4424        18     1.028     0.851 -71.71   0
       279    845.6278    376.2156 300.3604388 +22.7426953     183.6479     72.45585      1.025     3.49     4.314187     20.43679     31.22217         5     0.767     0.459 -75.76   0
       280    722.3354    375.6826 300.3221940 +22.7056129     624.7064     72.54803      1.158     2.12     4.314616     20.43679     94.24492         9     0.764     0.701 -85.33   0
       281    370.8986    374.5625 300.2131634 +22.5999765     649.0561      72.4374      1.410     3.62     4.821054     20.43679     73.98153        12     1.140     0.780  84.92   0
       282    146.8616    375.4470 300.1432264 +22.5330549     423.4309      72.4743      1.200     2.38     4.573645     20.43679     65.79626         7     0.722     0.590 -37.71   0
       283    682.9998    369.1134 300.3120742 +22.6919419     1900.933     72.30814      1.157     1.82     4.367175     20.43679     392.6835        17     0.999     0.762  65.24   0
       284    491.2464    363.8176 300.2540944 +22.6329641     354.9768      72.4743      0.942     2.07     4.677974     20.43679     77.93444         7     0.790     0.537  60.97   0
       285    898.0735    361.6546 300.3815145 +22.7542166     556.9439     72.41895      1.153     2.51     4.320319     20.43679     98.51188         9     0.871     0.646  61.04   0
       286    344.7049    353.8047 300.2117552 +22.5861655     1948.682     72.34509      1.305     3.20     4.880913     20.43679     286.9396        20     1.228     0.809  70.33   0
       287    557.1549    352.4351 300.2783033 +22.6494463     290.7997      72.4743      1.076     1.96     4.697535     20.43679     67.27895         5     0.653     0.487  12.45   0
       288    783.7260    346.4005 300.3508271 +22.7155886     694.7521     72.30814      1.215     2.14     4.297142     20.43679     107.0904        11     0.835     0.762  -2.86   0
       289    776.3816    346.9039 300.3483752 +22.7135335     388.3057     72.34509      1.290     3.46     4.301416     20.43679     37.62366         5     0.807     0.429 -70.46   0
       290    666.3303    344.3057 300.3149359 +22.6798218     440.7496     72.56644      1.158     2.26     4.392632     20.43679     80.17789         8     0.826     0.641 -84.87   0
       291    683.3036    343.8321 300.3203760 +22.6847704     446.4358     72.40049      1.501     2.94      4.35413     20.43679     41.48133         7     0.833     0.578  64.17   0
       292    744.6781    337.6056 300.3415158 +22.7013661     252.8035     72.34509      0.956     3.43     4.398557     20.43679     42.46356         5     0.995     0.343 -70.12   0
       293    420.5728    333.0923 300.2420777 +22.6029605     1243.475     72.38203      1.284     2.53     4.810735     20.43679     183.8812        17     1.032     0.840  82.58   0
       294    804.0320    326.1920 300.3637147 +22.7158632     245.0069      72.4374      1.134     2.83     4.281127     20.43679     58.94446         8     0.937     0.586 -66.68   0
       295    826.7363    325.2376 300.3711001 +22.7223883     275.0932      72.4374      1.188     5.16     4.285489     20.43679     33.28943         6     1.307     0.576 -70.73   0
       296    665.4049    324.8606 300.3209597 +22.6739585     2144.339     72.40049      1.186     2.04      4.53733     20.43679     346.4402        19     1.040     0.798  64.53   0
       297    926.7689    319.1306 300.4042654 +22.7505864     3052.127     72.41895      1.237     2.23     4.308757     20.43679     427.3121        23     1.024     0.935 -60.71   0
       298    988.0297    313.8227 300.4250916 +22.7674009     437.0364      72.4374      1.229     2.26     4.470917     20.43679     72.62933         8     0.781     0.640  27.37   0
       299    373.7366    308.8316 300.2353824 +22.5819570     529.7793      72.4374      1.273     1.88     4.861598     20.43679      114.622         8     0.762     0.627  12.35   0
       300    996.1913    306.9408 300.4298709 +22.7678656     1485.844     72.40049      1.251     2.30     4.523908     20.43679     232.5112        18     0.963     0.952  -0.20   0
       301     48.7759    303.1407 300.1362232 +22.4828923     1434.541      72.4374      1.526     3.17     4.933393     20.43679     144.2837        21     1.341     0.919 -42.21   0
       302     79.5074    302.9299 300.1458377 +22.4920485     472.3382     72.56644      1.320     3.27     4.859807     20.43679     67.81567        11     0.909     0.839 -35.85   0
       303    942.1518    299.1754 300.4155389 +22.7494557     639.6859      72.4374      1.465     3.49     4.352144     20.43679      69.3382        13     1.150     0.851  74.94   0
       304    786.1414    296.8060 300.3676777 +22.7020608     276.6092     72.40049      1.312     3.64     4.399113     20.43679     35.16915         8     0.826     0.676  49.02   0
       305    132.5630    294.9140 300.1649225 +22.5056589     411.9448     72.41895      1.284     3.03     4.931011     20.43679     57.03284         9     0.884     0.680 -22.35   0
       306    927.9965    292.4182 300.4133184 +22.7432754     291.7367     72.36356      1.263     3.27     4.299631     20.43679      46.3615         6     0.827     0.677 -88.60   0
       307    808.6720    288.7192 300.3773234 +22.7064840     334.4086     72.56644      1.118     2.84     4.281089     20.43679     47.92679         6     0.734     0.547  48.55   0
       308    736.9816    286.2505 300.3557867 +22.6843049     666.2755      72.4374      1.266     2.46     4.862935     20.43679     121.0201        11     1.007     0.637  75.45   0
       309    327.6369    286.1548 300.2284041 +22.5616288     271.0241      72.4743      1.177     4.47     4.939768     20.43679     46.29085         7     1.046     0.543  65.09   0
       310    827.6581    278.8944 300.3864290 +22.7093457     295.2595     72.51117      0.965     2.13     4.380915     20.43679     66.17183         5     0.715     0.429  69.35   0
       311    835.2356    275.2776 300.3899644 +22.7105751     2135.749     72.40049      1.184     1.99     4.420701     20.43679     338.8657        22     1.056     0.869  83.43   0
       312    253.7597    272.8036 300.2097657 +22.5356505     2227.362     72.45585      1.294     2.30     5.012113     20.43679       297.23        22     1.044     0.984   2.22   0
       313    331.6082    267.8295 300.2355859 +22.5575580     1086.354      72.4374      1.380     2.48     4.924646     20.43679     124.2607        14     0.992     0.788 -35.66   0
       314     83.2980    267.9109 300.1583790 +22.4831371     367.3769     72.62167      1.416     3.91     4.901507     20.43679     39.42936         9     0.928     0.680  19.20   0
       315    733.6481    266.7695 300.3610703 +22.6777087     577.7896     72.45585      1.220     2.65     4.885185     20.43679      78.5685        10     0.848     0.771 -80.75   0
       316    840.5762    263.7922 300.3953562 +22.7088731     275.3349      72.4374      0.968     1.72      4.52926     20.43679     67.60001         5     0.659     0.445  63.85   0
       317    267.1463    259.7670 300.2181578 +22.5359212     317.1501     72.45585      1.410     4.53     4.996959     20.43679     29.46704         5     1.315     0.443  29.22   0
       318    148.5376    260.0361 300.1812041 +22.5004397      621.258     72.45585      1.206     2.62     4.995202     20.43679     96.13756         8     0.802     0.669  42.71   0
       319    686.2806    256.7911 300.3495532 +22.6606549     1588.086     72.38203      1.204     2.12     4.830091     20.43679     261.4294        17     0.987     0.812  57.59   0
       320      1.4108    257.7968 300.1362267 +22.4556775      201.668     56.68328      0.964     3.23      4.86086     20.43679     29.85056         5     0.731     0.455 -70.97  24
       321    751.1250    256.2641 300.3699243 +22.6799237     481.3134      72.4743      1.139     2.40      4.83901     20.43679     89.22147         9     0.895     0.589  30.55   0
       322    118.3544    255.6225 300.1732576 +22.4901229     231.7149      72.4743      1.427     4.16     4.951744     20.43679      30.0051         5     1.037     0.476 -86.80   0
       323    169.9155    253.4753 300.1899762 +22.5049664     610.6917     72.54803      1.488     2.43     5.009976     20.43679     84.63168         8     0.749     0.696 -35.27   0
       324    957.7869    249.1661 300.4366442 +22.7397591     914.4865     72.41895      1.310     2.63     4.589963     20.43679     114.9444        13     0.924     0.832  83.58   0
       325    690.1738    248.1166 300.3535807 +22.6593284     852.3238     72.41895      1.332     2.12     4.841475     20.43679     123.3529        11     0.897     0.706 -84.92   0
       326    459.9266    249.4908 300.2814537 +22.5907474     265.4425     72.60327      1.154     2.98     4.845176     20.43679     45.75999         6     0.772     0.500   0.48   0
       327    610.7493    247.5344 300.3290348 +22.6353714     1165.832      72.4743      1.141     2.06     4.817148     20.43679     190.5146        13     0.842     0.788   6.55   0
       328    431.9660    244.1169 300.2744975 +22.5808257     378.8624     72.40049      1.273     3.32      4.86743     20.43679     46.39771         5     0.788     0.476  70.94   0
       329    537.0087    239.1847 300.3087871 +22.6108823     905.9459     72.34509      1.242     2.39     4.804512     20.43679     135.3742        12     0.946     0.696 -81.81   0
       330    806.2766    238.8948 300.3927456 +22.6914469     1367.366     72.56644      1.171     2.13     4.774746     20.43679     255.7157        13     0.882     0.783  64.73   0
       331    818.3702    238.0057 300.3968030 +22.6948124     785.9858      72.4374      1.207     2.02     4.784788     20.43679     130.7559         9     0.788     0.647  33.22   0
       332    864.4321    236.8022 300.4115503 +22.7082576     222.1908     72.40049      1.136     2.27     4.795237     20.43679     46.64248         5     0.679     0.482 -76.17   0
       333    979.2431    228.9039 300.4499103 +22.7403557     1631.362     72.45585      1.264     2.23     4.675626     20.43679     274.4402        17     0.992     0.874  54.63   0
       334    935.1108    228.1717 300.4363857 +22.7269352     1110.917     72.41895      1.211     2.20     4.668749     20.43679     175.6259        15     0.948     0.806 -46.98   0
       335    169.2618    221.6752 300.2000905 +22.4956431     710.8577     72.49274      1.237     2.17       4.9972     20.43679     95.93041         9     0.794     0.667   4.71   0
       336     31.0357    216.4599 300.1588383 +22.4527013     2240.384     72.45585      1.437     2.62     4.991409     20.43679     255.0027        22     1.080     1.029  49.35   0
       337    854.0292    213.0690 300.4160082 +22.6983207     750.4481     72.41895      1.159     2.08      4.91966     20.43679     136.2191         9     0.763     0.650  68.53   0
       338    188.3877    209.7147 300.2099147 +22.4979437     5637.681     72.38203      1.317     2.29     4.994114     20.43679     748.3525        33     1.202     1.002  63.51   0
       339    171.6074    200.7212 300.2076171 +22.4903317     680.8484     72.36356      1.338     3.93     4.995256     20.43679     86.38686        11     1.106     0.726 -32.41   0
       340    987.1973    196.8973 300.4627757 +22.7335329      18339.5     72.34509      1.297     2.25     4.732456     20.43679     2862.322        55     1.217     1.100  83.35   0
       341    832.4655    191.0598 300.4164275 +22.6855380     3602.687      72.4743      1.246     2.16     4.924019     20.43679     517.8863        24     1.046     0.917  71.19   0
       342    936.1232    189.8585 300.4491319 +22.7162224     2592.618      72.4743      1.227     1.96     4.837211     20.43679      471.999        17     0.962     0.838  70.37   0
       343    381.8042    186.7294 300.2775105 +22.5493138     620.2942     72.38203      1.538     4.80      4.87742     20.43679     79.35825        12     1.294     0.893 -77.99   0
       344    135.0558    187.2079 300.2006421 +22.4754951     307.4275      72.4374      1.318     2.46     5.157219     20.43679     43.79324         5     0.756     0.486 -57.78   0
       345    496.1853    184.1995 300.3139198 +22.5828573     301.9086     72.28965      1.268     3.05     4.840415     20.43679     46.40234         6     0.743     0.555  31.78   0
       346    306.1199    178.2561 300.2567203 +22.5242003     687.8445      72.4743      1.527     2.69     4.896471     20.43679     80.13722        11     0.887     0.805  63.66   0
       347    310.0806    176.8161 300.2584190 +22.5249738     440.2043      72.4374      1.387     3.77     4.893908     20.43679     49.32214         5     0.800     0.511  50.28   0
       348     72.0758    175.3748 300.1849133 +22.4532168     491.2008     72.45585      1.272     2.82     5.519213     20.43679     80.76305         9     0.898     0.651 -63.46   0
       349    433.3000    173.6357 300.2977781 +22.5609828     1686.845     72.41895      1.202     2.11     4.866443     20.43679     279.1904        18     1.034     0.852  75.47   0
       350    361.4592    174.2892 300.2752175 +22.5396447     504.5445     72.51117      1.336     2.41     4.873509     20.43679     61.15054         7     0.799     0.590 -19.28   0
       351    494.4369    172.5654 300.3171497 +22.5789915     407.9177     72.51117      1.512     3.93     4.842407     20.43679     73.20865         7     1.139     0.391  16.54   0
       352    176.9512    169.3487 300.2194543 +22.4829279     421.7902      72.4743      1.303     3.15     4.990138     20.43679     51.70125         7     0.733     0.667 -11.61   0
       353    721.4849    162.3790 300.3911500 +22.6440658     258.2709     72.38203      1.144     3.33     4.915741     20.43679      65.1858         5     0.731     0.464  70.83   0
       354    867.5959    157.2402 300.4383485 +22.6863318     200.3955     72.45585      1.098     2.90     4.963782     20.43679      51.4386         5     0.744     0.425 -66.36   0
       355    997.6976    154.1838 300.4799070 +22.7243919     3647.146     72.34509      1.299     2.24     4.796008     20.43679     456.5383        25     1.081     1.011  89.54   2
       356    207.3096    153.5846 300.2340029 +22.4875021     5829.556     72.36356      1.339     2.42     4.972533     20.43679     742.9717        32     1.203     0.998  66.54   0
       357    713.6913    154.0550 300.3914222 +22.6393397     206.9858     72.49274      1.011     2.00     4.900612     20.43679      59.0778         5     0.712     0.418 -70.11   0
       358     58.7279    153.0509 300.1880075 +22.4428079     730.0846      72.4374      1.504     3.35     5.678211     20.43679     84.05375        13     1.032     0.899  35.36   0
       359    836.6678    150.5578 300.4308757 +22.6751525     409.4882     72.41895      1.179     3.61     4.948516     20.43679     62.75448         9     1.157     0.564  29.45   0
       360    179.1222    146.9854 300.2273823 +22.4771587     439.5267     72.45585      1.834     4.90      4.98285     20.43679     39.69252         9     1.237     0.551  48.02   0
       361    682.9927    144.4646 300.3849704 +22.6273911     240.7679     72.41895      1.471     4.13      4.83316     20.43679      40.9912         5     0.994     0.540  74.75   0
       362    222.7591    144.6420 300.2417056 +22.4895652      338.656      72.5296      1.303     1.84     4.965001     20.43679      56.6379         5     0.678     0.446  20.27   0
       363    453.3777    138.8717 300.3153010 +22.5570122     6335.651      72.4743      1.232     2.10     4.867862     20.43679     975.5458        32     1.129     0.936  65.55   0
       364    497.0007    138.9196 300.3288606 +22.5700938     66.11108     72.32661      0.932     3.68     4.858202     20.43679     32.02829         5     0.648     0.600  89.95   0
       365    338.6647    138.7308 300.2796611 +22.5226025     664.6577     72.49274      1.299     2.96     4.899025     20.43679     91.96751        14     1.023     0.859  27.19   0
       366    510.2597    133.5848 300.3347174 +22.5725328     297.7687     72.40049      1.138     3.66     4.853553     20.43679     38.44969         6     0.851     0.521  42.78   0
       367    647.4627    129.8616 300.3786409 +22.6125548     264.5258      72.4743      1.102     1.91     4.832344     20.43679     49.27831         5     0.669     0.466 -68.25   0
       368    705.8772    128.3081 300.3973388 +22.6295997     881.8527     72.58486      1.268     1.85       4.8764     20.43679     139.9189         9     0.914     0.563  79.24   0
       369    798.2105    126.9552 300.4265456 +22.6568545      476.847     72.45585      1.209     3.29     4.931582     20.43679     94.86089         8     0.956     0.594  60.84   0
       370    146.3734    122.6737 300.2250894 +22.4603629     503.9012      72.4374      1.667     3.95     5.127095     20.43679     50.08585         8     1.039     0.594  41.35   0
       371    504.7548    121.3336 300.3369774 +22.5673641     425.5189      72.4374      1.261     2.53     4.863313     20.43679     62.81296         8     0.914     0.537  66.37   0
       372    581.7055    118.8790 300.3617271 +22.5897064     6221.225     72.54803      1.215     2.12     4.861655     20.43679     1027.586        31     1.089     0.957  77.61   0
       373    356.4926    117.8654 300.2919728 +22.5219517     1572.428     72.54803      1.340     2.64     4.919269     20.43679     209.5752        18     1.087     0.880  60.24   0
       374    622.9164    116.2460 300.3754126 +22.6012913     891.1399     72.41895      1.212     2.29     4.867989     20.43679     141.2872        11     0.924     0.668  76.79   0
       375    692.5196    114.5016 300.3976556 +22.6216319     425.6225     72.56644      1.484     5.13     4.841137     20.43679     63.33665         9     1.377     0.540  76.05   0
       376    638.8039    112.2344 300.3816610 +22.6048960     496.3842      72.4374      1.214     2.94     4.845099     20.43679     80.29459        11     1.022     0.688 -89.31   0
       377    105.5490    110.3317 300.2164066 +22.4445826      713.879     72.41895      1.467     3.70     5.504252     20.43679     92.66255        14     1.051     0.957 -66.15   0
       378    908.6486    109.8024 300.4665327 +22.6849791       595.35      72.4374      1.385     2.34     5.076933     20.43679     87.62545         9     0.802     0.715  30.82   0
       379    677.2708    107.6808 300.3951180 +22.6151056     524.7414     72.54803      1.206     2.30     4.798512     20.43679     85.03957         8     0.864     0.577  69.12   0
       380    625.9396    103.7227 300.3804153 +22.5985976     2702.776     72.49274      1.255     2.21     4.869978     20.43679     431.9292        24     1.038     0.920  83.81   0
       381    266.8238    104.6021 300.2683893 +22.4912739     272.5094     72.38203      1.165     2.50     4.948244     20.43679     69.47319         7     0.913     0.508  73.57   0
       382    640.8298    102.4351 300.3854698 +22.6026863     886.4863     72.45585      1.803     3.90     4.843499     20.43679     93.96367        15     1.398     0.659  53.87   0
       383    712.3433     95.3313 300.4100475 +22.6220568     1499.568     72.45585      1.192     2.29     4.887456     20.43679     203.4118        17     0.986     0.868  52.80   0
       384    650.3911     88.4045 300.3929972 +22.6015167     859.0067     72.28965      1.408     2.65     4.838297     20.43679     103.5102        14     0.989     0.830  57.90   0
       385    455.8493     87.7658 300.3326433 +22.5430709     1034.344      72.4743      1.250     2.43     4.973464     20.43679     168.9029        12     0.983     0.725  67.16   0
       386     28.9447     87.8345 300.1999049 +22.4151606     570.9494     72.45585      1.414     2.97     5.662275     20.43679     67.25197         9     0.929     0.648  31.55   0
       387    359.8011     86.0729 300.3033113 +22.5138113     791.9323     72.32661      1.240     2.65     5.046937     20.43679     109.6943        11     0.893     0.769  64.19   0
       388    741.9354     84.5322 300.4227684 +22.6278117      594.011     72.49274      1.417     2.37     5.013576     20.43679     77.76772         8     0.793     0.635  79.56   0
       389   1002.7120     82.6536 300.5046699 +22.7053189     2248.368     72.45585      1.242     2.29     5.261208     20.43679      333.341        19     0.969     0.943 -50.71   0
       390    131.1155     76.1730 300.2354263 +22.4424397     3744.787      72.4374      1.452     2.75       5.3396     20.43679     384.1328        31     1.228     1.087  58.64   0
       391    699.3141     76.3864 300.4121320 +22.6127102     633.8898     72.38203      1.200     2.62     4.877508     20.43679     93.79347        12     0.959     0.737  66.12   0
       392    457.0342     73.4561 300.3376519 +22.5393146     284.6901     72.45585      1.288     3.02     5.108841     20.43679     49.32868         8     0.791     0.715 -85.22   0
       393    553.3859     72.8475 300.3678374 +22.5679975      447.082     72.45585      1.238     2.43      4.81481     20.43679      63.3067         7     0.808     0.565  56.77   0
       394    692.6002     68.4559 300.4126121 +22.6084204     945.8333     72.34509      1.229     2.30     4.855491     20.43679     113.0177        14     0.882     0.847  76.71   0
       395    247.0707     68.2378 300.2740390 +22.4749119     1191.399     72.41895      1.316     2.46     5.266932     20.43679     166.4148        16     1.036     0.849  62.39   0
       396    658.2806     67.4716 300.4022419 +22.5978623     412.5501     72.56644      1.451     2.49     4.823302     20.43679     49.87268         5     0.689     0.485  14.04   0
       397    730.3256     63.2094 300.4260653 +22.6182063     666.7352      72.4374      1.434     4.32     5.081882     20.43679     69.02392        13     1.139     0.773  81.01   0
       398    653.8271     63.2322 300.4022294 +22.5953103     418.9007      72.4374      1.224     2.02     4.847855     20.43679     67.16936         6     0.683     0.549 -34.80   0
       399    750.2968     59.6228 300.4334503 +22.6231536      2167.13     72.36356      1.198     2.20     5.174842     20.43679     360.1253        17     1.018     0.793  54.58   0
       400    456.0038     57.8846 300.3423800 +22.5345321     350.0969     72.36356      1.195     2.30     5.243487     20.43679     71.71976         8     0.786     0.628  58.94   0
       401    925.0978     52.7641 300.4901572 +22.6734979     807.0044      72.4374      1.380     2.54      5.55499     20.43679     114.5206        12     0.959     0.731  81.83   0
       402    698.7902     52.3283 300.4197694 +22.6056375     1024.774     72.41895      1.221     2.37     4.910622     20.43679     116.3399        11     0.881     0.719 -79.93   0
       403    405.9186     50.4003 300.3292231 +22.5173795     360.6958     72.30814      1.393     3.37      5.32714     20.43679     39.40082         5     0.764     0.431 -21.67   0
       404    121.2478     49.7604 300.2409233 +22.4318990     262.1947      72.4743      1.262     4.20     5.469473     20.43679     34.94716         7     1.102     0.456 -59.78   0
       405    133.5387     55.1071 300.2430090 +22.4371179      894.109      72.5296      1.424     3.20     5.424836     20.43679     102.3461        15     1.072     0.912  70.38   0
       406    312.4256     45.3057 300.3017947 +22.4879078     165.3022     72.36356      1.272     4.01     5.550623     20.43679     29.62605         5     0.794     0.710 -38.04   0
       407    148.8773     44.6551 300.2511638 +22.4387139     114.4767      72.4743      0.920     4.60     5.463232     20.43679     36.27321         6     0.958     0.627  82.90   0
       408    283.5763     41.7489 300.2939768 +22.4782427     339.2699     72.45585      1.328     4.79      5.62677     20.43679     52.37263         9     1.201     0.543  56.74   0
       409    783.4290     36.1705 300.4513777 +22.6263281     362.9171     72.40049      1.501     5.57     5.470253     20.43679     35.77445         9     1.330     0.657 -54.70   0
       410    551.2222     36.9850 300.3787911 +22.5570434     891.6479      72.4374      1.226     2.60     4.769595     20.43679     120.0194        11     0.873     0.728  55.62   0
       411    686.5827     34.8326 300.4216391 +22.5969533     392.0018     72.41895      1.082     2.35     4.827971     20.43679     56.16476         6     0.759     0.493  88.11   0
       412    160.9352     34.6016 300.2581702 +22.4394408     427.2348      72.4374      1.193     2.12      5.54905     20.43679     69.48331         7     0.697     0.630  -0.62   0
       413    714.3824     31.9291 300.4312401 +22.6044408       722.84     72.45585      1.195     2.31     5.075397     20.43679     105.4712        11     0.883     0.733  89.87   0
       414    522.9550     30.1559 300.3722060 +22.5466159     2055.871      72.4743      1.326     2.23     4.977819     20.43679     280.1475        19     1.080     0.852  71.30   0
       415    245.7997     27.6024 300.2868175 +22.4628610     713.1271     72.21565      1.222     2.50     5.689661     20.43679     91.58045        10     0.835     0.737  84.64   0
       416    480.2181     24.0533 300.3608831 +22.5320635     1231.675     72.41895      1.223     2.02     5.547534     20.43679     216.6947        16     0.938     0.853  87.44   0
       417    585.6346     20.6009 300.3948160 +22.5626389     1270.569     72.40049      1.216     2.33     5.113657     20.43679     192.5858        16     1.017     0.820  89.53   0
       418    681.6815     20.3223 300.4248165 +22.5913146       312.58     72.54803      1.424     2.98     4.778698     20.43679     44.95412         5     0.734     0.458  -9.39   0
       419    180.9860     19.7776 300.2692070 +22.4411927     543.0323     72.41895      1.363     2.52     5.695396     20.43679      73.8521        10     0.830     0.743 -82.85   0
       420    229.5623     17.5357 300.2850329 +22.4551046     453.2689     72.41895      1.105     2.99     5.742076     20.43679     89.68196         9     0.970     0.753  48.11   0
       421    203.2140   1020.5015 299.9510509 +22.7349181     804.9954     70.43552      1.921     4.57     9.594501     20.43679     82.70305        15     1.300     1.019 -62.13  16
       422    492.1162   1020.5648 300.0408684 +22.8216627      523.496     70.35957      1.671     3.73      1.91722     20.43679     52.85139         6     0.817     0.638 -29.98  16
       423    106.0063   1020.0964 299.9209804 +22.7056098     934.2382     71.45283      7.245     7.96     28.66222     20.43679     44.28798        10     1.523     1.165 -18.18  25
       424    520.7625   1016.8915 300.0509783 +22.8292062     1627.114     72.40049      1.660     3.44     1.981907     20.43679     133.7112        24     1.209     1.127 -15.65  16
       425    181.2884   1023.2161 299.9433538 +22.7291119      585.332     58.90336      5.081     5.44     13.92567     20.43679      36.1198         5     1.178     0.709  10.76  25
