#   1 NUMBER                 Running object number                                     
#   2 X_IMAGE                Object position along x                                    [pixel]
#   3 Y_IMAGE                Object position along y                                    [pixel]
#   4 ALPHA_J2000            Right ascension of barycenter (J2000)                      [deg]
#   5 DELTA_J2000            Declination of barycenter (J2000)                          [deg]
#   6 FLUX_APER              Flux vector within fixed circular aperture(s)              [count]
#   7 FLUXERR_APER           RMS error vector for aperture flux(es)                     [count]
#   8 FLUX_RADIUS            Fraction-of-light radii                                    [pixel]
#   9 FWHM_IMAGE             FWHM assuming a gaussian core                              [pixel]
#  10 BACKGROUND             Background at centroid position                            [count]
#  11 THRESHOLD              Detection threshold above background                       [count]
#  12 FLUX_MAX               Peak flux above background                                 [count]
#  13 ISOAREA_IMAGE          Isophotal area above Analysis threshold                    [pixel**2]
#  14 A_IMAGE                Profile RMS along major axis                               [pixel]
#  15 B_IMAGE                Profile RMS along minor axis                               [pixel]
#  16 THETA_IMAGE            Position angle (CCW/x)                                     [deg]
#  17 FLAGS                  Extraction flags                                          
         1    406.9648     15.5610 300.3408614 +22.5071241     2279.166     72.47379      1.333     2.19     4.960965     20.43145     329.6761        24     1.084     0.971  82.31   0
         2     54.1238     13.4196 300.2318659 +22.4007802     1543.866     72.41847      1.522     2.89     5.648596     20.43145      171.225        18     1.112     0.894  58.88   0
         3    537.8303      9.3197 300.3836104 +22.5445253     539.5374     72.41847      1.498     4.30     4.932769     20.43145     98.19074        12     1.574     0.625  78.36  16
         4    196.5890      7.6401 300.2780081 +22.4418186     354.7453     72.41847      1.331     3.37     4.760811     20.43145     37.29336         5     1.038     0.316 -21.43   0
         5    445.0072      5.2065 300.3560547 +22.5155435     327.1854     72.03007      1.427     3.87     4.879348     20.43145     33.66937         6     0.932     0.461  40.48  16
         6    881.6245      4.2688 300.4923478 +22.6459909     404.9525     69.82656      1.577     2.34     4.920516     20.43145     46.82717         5     0.696     0.458 -72.41  16
         7    699.1599   1015.1277 300.1070760 +22.8817117     205.3475     72.40002      1.245     3.94       3.1744     20.43145     32.32555         6     0.794     0.558  47.62   0
         8    613.2263   1024.0000 300.0774282 +22.8584743     331.1516     54.33384      1.194     3.84     2.915994     20.43145     59.49937         6     1.462     0.289   0.00  24
         9    192.2613   1021.5387 299.9472896 +22.7314027     1714.495     66.95534      5.975    11.22     11.93053     20.43145       64.951        31     2.813     1.246  54.59  26
        10    123.5787   1020.8339 299.9261787 +22.7105734     1433.877     69.46213      5.290     9.52     24.96014     20.43145     43.26183        19     2.302     1.098  82.64  26
        11     80.3199   1020.7709 299.9127616 +22.6975623     1616.832     69.73084     11.272    17.04     34.41998     20.43145     51.71443        57     3.335     2.420 -18.23  27
        12     61.1275   1019.1440 299.9073302 +22.6913312     1996.562     72.43692     11.032    19.32     37.90111     20.43145     47.19144        83     3.700     2.802  21.79  19
        13     71.5319   1012.3983 299.9127575 +22.6925239     2248.146     72.38158     14.345    21.99     33.21907     20.43145     65.54075       116     3.978     3.375  -7.61  19
        14    175.8800   1011.1515 299.9455806 +22.7235067     650.6045     72.43692      5.807     6.29     13.61109     20.43145     26.55287         7     1.368     0.812 -57.90   0
        15     41.1726   1013.9906 299.9028105 +22.6838607     3471.331     72.41847     10.494    48.64      40.1502     20.43145     82.81519       602     8.816     7.448  -1.50  27
        16     39.7951    982.5032 299.9126318 +22.6744265     2499.617     72.32619      6.832    26.32      27.4682     20.43145     59.67604       198     6.876     2.797 -20.71  19
        17     39.9639    994.8504 299.9086654 +22.6780144      2797.81     72.43692      8.574    28.35     32.45567     20.43145     65.54307       224     7.372     3.026 -16.45  27
        18    378.6557    998.9957 300.0125757 +22.7809051     505.8065     72.38158      1.557     4.43     3.848593     20.43145     57.32755        12     1.066     0.986 -43.22   0
        19     89.7430    998.9626 299.9227874 +22.6941445     668.1399     72.41847      3.786     4.27     26.01182     20.43145      30.1517         5     1.060     0.490  53.41   0
        20    415.6654   1014.2811 300.0191112 +22.7963968     827.9975     72.52907      1.394     3.63      3.95011     20.43145     84.59823        16     1.079     0.972 -83.31   0
        21    346.1363   1012.2552 299.9981460 +22.7749441     6465.378     72.47379      1.658     3.37      3.80002     20.43145     592.0978        41     1.339     1.288 -42.19   0
        22    892.5067    990.7828 300.1752461 +22.9327166     2084.198     72.34466      1.738     3.79     2.818197     20.43145     136.0478        24     1.213     1.150 -63.52   0
        23    542.7712    987.7781 300.0672883 +22.8269443     456.5776     72.41847      1.866     6.97     3.319151     20.43145       35.108        12     1.629     0.837 -75.49   0
        24    574.8478    985.7322 300.0779386 +22.8359826     309.8835     72.41847      1.642     4.11     3.226155     20.43145     34.33722         6     0.754     0.645 -79.51   0
        25    681.3916    979.7057 300.1130737 +22.8662192      794.043     72.30772      1.964     5.04      3.32034     20.43145      82.8331        15     1.524     0.938  80.89   0
        26     58.5992    977.8993 299.9199701 +22.6787555     1236.406     72.25227      7.935    12.49     23.37827     20.43145     42.22495        27     2.321     1.871  18.38   1
        27   1008.1339    978.5414 300.2152838 +22.9638704     516.5717     72.45536      1.867     7.82       3.1161     20.43145     36.39167        13     1.593     1.075  66.85   0
        28    715.8856    974.0992 300.1256421 +22.8749580     1080.168      72.5843      1.597     4.44     3.279896     20.43145     92.51144        20     1.310     1.013 -31.55   0
        29    493.9818    974.8680 300.0563070 +22.8086008     334.1836     72.41847      1.434     2.07     3.247806     20.43145     51.53061         5     0.619     0.541 -88.48   0
        30    738.3234    967.6035 300.1347458 +22.8798245     11132.13     72.32619      1.591     3.06     3.271065     20.43145     958.8619        48     1.323     1.277 -47.78   0
        31    783.7338    967.2994 300.1489920 +22.8933572     436.6822     72.51064      1.452     5.36     3.367739     20.43145     45.13116         8     0.946     0.857 -86.79   0
        32    929.0695    967.2928 300.1942913 +22.9369372     400.6402     72.54748      1.544     4.43     3.128869     20.43145     45.58233         7     0.814     0.686 -13.80   0
        33    870.9893    960.0888 300.1785308 +22.9174546     210.6232     72.36311      1.612     5.19     3.202555     20.43145     46.12217         7     1.553     0.490 -71.71   0
        34     50.2348    959.2039 299.9234570 +22.6708869     267.2454     72.41847      1.401     5.15     16.94326     20.43145     54.38607        10     1.006     0.750  64.90   0
        35    443.1354    955.3579 300.0468369 +22.7877466     378.0471     72.40002      1.520     6.59     3.634018     20.43145     59.65005        10     1.395     0.873 -76.44   0
        36    790.0370    955.3829 300.1548348 +22.8918279     385.7348     72.41847      1.336     4.54      3.47701     20.43145      46.6324         6     0.861     0.680  19.87   0
        37    746.7794    949.7252 300.1431993 +22.8772307     1290.145     72.41847      1.580     3.51     3.374348     20.43145     113.6012        20     1.147     1.087  -6.71   0
        38    929.8586    948.8080 300.2005542 +22.9318676     398.4926     72.40002      1.495     4.83     3.362121     20.43145     48.39738         9     1.027     0.817  21.99   0
        39    598.9551    946.3815 300.0982518 +22.8319282      554.056     72.43692      2.191     5.44     3.353119     20.43145     47.54894         9     1.454     0.574  43.27   0
        40    784.8958    943.0449 300.1572488 +22.8867452     896.2422     72.43692      1.684     3.61     3.554847     20.43145     71.48215        17     1.108     1.013  -5.29   0
        41    125.0242    942.8621 299.9520064 +22.6886653     307.4265     72.40002      1.219     3.75     9.009851     20.43145     37.23525         5     0.830     0.486 -67.40   0
        42    893.4963    940.0218 300.1920781 +22.9184432     499.4181     72.32619      1.781     6.97     3.460976     20.43145     41.79156        13     1.472     0.924 -60.79   0
        43    833.7208    934.0859 300.1753791 +22.8988158     554.5943      72.5843      1.656     5.79     3.607009     20.43145     49.52346        13     1.127     1.064 -31.36   0
        44    397.2980    929.9406 300.0408502 +22.7667012     4089.552     72.49222      1.482     2.81     3.768596     20.43145     484.8576        31     1.219     1.131 -37.07   0
        45    695.9176    930.1409 300.1337305 +22.8563557     594.0368     72.49222      1.494     5.64     3.453823     20.43145     61.90955        12     1.303     0.718 -86.90   0
        46    684.6964    933.3212 300.1292006 +22.8539024     759.4712     72.52907      1.479     3.62     3.453674     20.43145     69.86137        12     1.060     0.783 -42.80   0
        47    440.9638    917.8659 300.0583630 +22.7763432      338.065     72.41847      1.468     3.67     3.703716     20.43145     45.95918         5     0.637     0.609  -7.85   0
        48    175.9198    918.3646 299.9757919 +22.6969271     338.9262     72.36311      1.446     4.12     5.374747     20.43145     33.41818         6     0.775     0.627  52.37   0
        49     39.8911    917.6373 299.9337713 +22.6558705     374.6375     72.40002      1.397     2.73       4.8641     20.43145     45.60081         5     0.753     0.416  22.64   0
        50    122.5767    915.5073 299.9601476 +22.6800911     691.1476     72.34466      1.620     4.37     5.814994     20.43145      70.5049        11     1.214     0.736  46.44   0
        51     99.6206    912.6890 299.9539332 +22.6723900     1510.208     72.34466      1.695     3.72     5.897758     20.43145     148.7563        26     1.422     1.140  14.60   0
        52     31.3134    913.5963 299.9324224 +22.6521364     412.2859     72.34466      2.004     4.89     4.624344     20.43145     48.52501         8     1.311     0.515  63.38   0
        53    971.4332    901.6453 300.2288671 +22.9307908     2156.104     72.47379      1.648     3.54     3.638322     20.43145     155.7866        24     1.209     1.181   2.93   0
        54    925.6735    899.9581 300.2151482 +22.9165889      2241.15     72.40002      1.673     3.58     3.680357     20.43145     165.2375        26     1.236     1.191 -75.08   0
        55    630.7081    900.4514 300.1230855 +22.8282770     360.8952     72.47379      1.655     5.71     3.606739     20.43145     36.80414         8     1.449     0.634 -55.64   0
        56    131.8812    894.4677 299.9698842 +22.6768551     488.4194     72.52907      1.518     3.53     5.115286     20.43145     54.05246        10     0.972     0.770  48.37   0
        57    709.0716    893.9966 300.1495900 +22.8499294     594.0482     72.36311      1.629     4.97     3.636316     20.43145     51.24936        11     1.090     0.807 -30.02   0
        58    577.3022    887.9312 300.1105326 +22.8086642      4767.79     72.54748      1.419     2.65     3.716405     20.43145     538.1699        30     1.159     1.066 -70.48   0
        59     66.9643    888.6876 299.9515990 +22.6557054     569.3441     72.40002      2.190     3.18      4.75165     20.43145     46.18323         5     0.810     0.491  60.49   0
        60    379.5101    885.1074 300.0499063 +22.7485065     549.9712      72.5843      1.402     3.14     3.786113     20.43145     72.62061        12     1.017     0.780   1.68   0
        61    127.4378    881.9008 299.9725925 +22.6719191     1393.035     72.41847      1.628     3.47     4.784896     20.43145     153.9269        21     1.221     1.089  23.89   0
        62    597.9814    880.6407 300.1193425 +22.8127760     755.2899     72.43692      1.435     3.48     3.734309     20.43145     73.78182        13     0.999     0.890  41.14   0
        63    395.9146    879.6259 300.0567923 +22.7518575     289.5458     72.40002      1.482     6.25     3.771346     20.43145     36.24379         9     1.385     0.792  38.90   0
        64    146.8618    878.9621 299.9795834 +22.6769089     504.1276     72.43692      1.375     2.95     4.658948     20.43145     63.38726         8     0.970     0.542  42.31   0
        65   1008.2429    868.3230 300.2511900 +22.9322555     325.6671     72.40002      1.339     6.00     3.591192     20.43145     32.47894         9     1.257     0.806 -24.08   0
        66    753.3859    867.6478 300.1719678 +22.8556571     4179.262     72.41847      1.409     2.55     3.808587     20.43145     456.5367        33     1.156     1.125  15.79   0
        67    970.1575    867.8001 300.2394829 +22.9206902     1256.689     72.40002      1.699     3.99     3.663589     20.43145     89.81798        17     1.133     1.007  -5.75   0
        68    483.9116    864.8707 300.0889696 +22.7740304     440.8506      72.5843      1.292     4.38     3.815844     20.43145     44.65947         9     1.093     0.626 -75.73   0
        69    161.4348    861.7999 299.9896950 +22.6763649     395.9868     72.38158      1.446     2.97     4.288785     20.43145     68.21146        10     1.051     0.676 -17.32   0
        70    470.3802    860.4570 300.0861952 +22.7687044     569.3135     72.43692      1.330     2.61     3.814629     20.43145      76.5632        10     0.829     0.799  20.59   0
        71    116.6436    858.3928 299.9768869 +22.6619403     1073.822     72.43692      1.560     3.35     4.257208     20.43145     115.4196        16     1.087     0.966 -60.18   0
        72    266.3735    850.3751 300.0260267 +22.7045912     52981.75     72.38158      1.522     2.72     4.260212     20.43145     5661.811        91     1.375     1.343 -78.45   0
        73    531.8059    853.4814 300.1075799 +22.7851323     581.2939     72.34466      1.589     2.62     3.833437     20.43145     72.47185        10     0.833     0.818 -77.59   0
        74    524.1125    849.4171 300.1065078 +22.7816583     1730.069     72.36311      1.386     2.74     3.841253     20.43145     183.8633        17     0.977     0.950  22.80   0
        75    195.1886    848.8713 300.0043900 +22.6827921       422.54     72.43692      1.478     4.47     4.249611     20.43145     47.41024         8     0.907     0.771  76.07   0
        76    936.9433    848.3807 300.2354448 +22.9051583     909.9836     72.41847      1.505     3.67     3.777328     20.43145     79.43669        12     1.013     0.778  80.87   0
        77    239.7920    848.2177 300.0184656 +22.6959939     205.1172     72.36311      1.123     3.29      4.25554     20.43145     38.82692         6     0.767     0.538 -41.40   0
        78    553.0959    845.4968 300.1168041 +22.7892283     909.4122      72.6027      1.340     2.97     3.850384     20.43145     107.9933        13     0.970     0.824  68.88   0
        79    564.2521    843.4244 300.1209510 +22.7919804     597.0698     72.43692      1.372     2.75     3.858494     20.43145     72.83685        12     0.955     0.781  69.43   0
        80    884.1740    840.4509 300.2215738 +22.8870632     249.3514     72.43692      1.015     2.62     4.011779     20.43145     49.61966         5     0.726     0.432  25.12   0
        81    669.8552    840.1105 300.1549089 +22.8227040     372.1626     72.45536      1.122     2.89     3.868404     20.43145     55.60891         7     0.859     0.520 -43.80   0
        82    464.5887    837.5851 300.0918341 +22.7604061     283.3464     72.34466      1.120     2.93     3.854485     20.43145     46.97902         5     0.723     0.463  72.66   0
        83    316.0627    827.6376 300.0488720 +22.7129848     31056.09     72.43692      1.435     2.67     4.071253     20.43145     3215.981        77     1.326     1.285  66.04   0
        84    706.9900    830.2487 300.1696829 +22.8310102     622.2923     72.43692      1.250     2.61     3.932152     20.43145      89.5826        11     0.851     0.806 -40.63   0
        85    330.3023    828.2150 300.0531120 +22.7174238     2005.294     72.30772      1.428     2.86     4.002942     20.43145     237.4775        21     1.105     1.017  78.84   0
        86    839.1730    823.3062 300.2131253 +22.8686504     2732.888     72.34466      1.351     2.63     4.219193     20.43145     330.9828        22     1.053     1.006  69.26   0
        87    327.0918    822.1619 300.0540827 +22.7147244     645.7021     72.41847      1.480     3.97     4.018476     20.43145      59.3455        12     0.969     0.899 -15.69   0
        88    868.7024    821.5738 300.2228925 +22.8770054     301.8427     72.36311      1.469     3.92     4.203526     20.43145     42.84254         5     0.979     0.450  13.68   0
        89    597.0310    819.4874 300.1389422 +22.7949444     860.2261     72.40002      1.320     2.34     3.918076     20.43145     134.0172        12     0.942     0.708  79.27   0
        90    198.7319    819.4578 300.0150591 +22.6754232     857.6952     72.43692      1.464     3.27     4.158265     20.43145     93.93999        15     1.032     0.958 -42.02   0
        91      3.9371    814.9213 299.9560219 +22.6156393     638.3146      68.7469      1.391     3.62     4.051908     20.43145     65.65767        11     1.009     0.856  77.58  16
        92    444.1321    814.3123 300.0930400 +22.7475926     895.7814     72.54748      1.355     2.94     3.899978     20.43145     117.2703        13     1.015     0.752  73.47   0
        93    365.0399    814.8201 300.0682721 +22.7240066     181.9512     72.45536      1.017     3.79      3.91248     20.43145     28.94307         5     0.806     0.512  55.89   0
        94    845.3211    811.1377 300.2189999 +22.8669999     595.4821     72.49222      1.554     4.06     4.306295     20.43145     52.66348        11     1.022     0.745  12.15   0
        95    433.4541    819.3904 300.0880661 +22.7458455      535.545     72.41847      1.433     2.77      3.88553     20.43145     55.07238         8     0.879     0.618  85.41   0
        96    346.5063    810.5422 300.0638997 +22.7172181     435.1912     72.47379      1.681     3.95     3.946946     20.43145     47.59413         5     0.987     0.452  13.88   0
        97    302.2077    810.0138 300.0502967 +22.7037728     378.4019     72.30772      1.381     3.25     4.109937     20.43145     52.45147         8     0.824     0.667 -54.82   0
        98    390.0779    809.0450 300.0779381 +22.7298632     349.2122     72.40002      1.176     2.79     3.918172     20.43145     54.82392         9     0.798     0.730  21.17   0
        99     31.9695    808.9341 299.9666743 +22.6223409     576.4022     72.41847      1.658     4.98     4.068242     20.43145      57.2527        12     1.065     0.912  -6.97   0
       100    823.3759    805.2480 300.2140766 +22.8587301      242.827     72.41847      1.473     4.09     4.349847     20.43145     33.22074         6     0.719     0.664 -24.68   0
       101    196.3007    803.7377 300.0194166 +22.6701864     474.7232     72.51064      1.259     2.74     4.108637     20.43145     68.32389         9     0.864     0.691  -1.40   0
       102    519.6076    794.0938 300.1231022 +22.7644347        521.6     72.30772      1.347     3.16     3.931453     20.43145     65.28733         9     0.993     0.604  86.29   0
       103    489.1074    792.2708 300.1142034 +22.7547623     651.5854     72.54749      1.401     3.57     3.932405     20.43145     81.07582         9     0.993     0.640 -41.56   0
       104    511.0059    789.7345 300.1218431 +22.7606037     1433.044     72.41847      1.371     2.69     3.933356     20.43145     190.9299        19     1.063     0.967 -17.42   0
       105    398.2085    791.3815 300.0862123 +22.7272363     318.1613     72.38158      1.335     2.89     3.940103     20.43145     39.43349         5     0.709     0.470  13.56   0
       106    905.5632    788.6208 300.2451024 +22.8785924     4441.237     72.43692      1.402     2.58     4.114989     20.43145     470.2775        32     1.198     1.081  54.82   0
       107    431.2329    789.5129 300.0970933 +22.7366086     383.3089     72.38158      1.484     3.62     3.934699     20.43145     57.57254         5     0.933     0.492  -6.31   0
       108    592.8301    784.6067 300.1489802 +22.7836751     268.2227     72.41847      1.325     2.87     3.952857     20.43145     40.80032         5     0.714     0.466  15.65   0
       109    893.8960    780.0215 300.2442623 +22.8726260     1627.953     72.32619      1.342     2.61     4.235478     20.43145     214.7992        21     1.112     0.954 -54.01   0
       110    256.9584    774.2299 300.0478673 +22.6799313      847.532     72.45536      1.343     2.80     4.079587     20.43145     113.1005        13     0.978     0.804 -67.31   0
       111    123.0934    774.4633 300.0061898 +22.6398183     265.2275     72.52907      1.389     4.31     4.058421     20.43145     36.11514         5     0.792     0.669  72.94   0
       112    720.3563    771.3677 300.1929991 +22.8181173     2634.922     72.47379      1.389     2.36     4.030203     20.43145     314.0412        26     1.218     1.004 -10.37   0
       113    925.1135    770.0229 300.2572467 +22.8791111     1764.995     72.36311      1.470     2.89     4.011506     20.43145      205.891        21     1.092     0.981  50.85   0
       114    386.1123    757.7815 300.0933773 +22.7139689     113.5373     72.36311      1.266     4.59     3.958306     20.43145     30.65302         5     0.934     0.642 -26.85   0
       115    105.8179    757.8326 300.0062310 +22.6298646     686.7406     72.40002      1.487     3.51     4.062844     20.43145     77.32445        13     1.097     0.823  27.75   0
       116    802.4965    757.0422 300.2232495 +22.8386306     527.5099     72.41847      1.398     2.81     4.560502     20.43145     69.48637         8     0.800     0.695  41.52   0
       117    838.8061    748.2743 300.2374163 +22.8469971     146297.3     72.36311      1.325     2.36     4.597651     20.43145     18297.23       159     1.377     1.330  74.79   0
       118    601.5114    752.0614 300.1622676 +22.7769387     415.8358     72.49222      1.329     2.56     3.957784     20.43145     47.95364         8     0.776     0.676  -3.03   0
       119    985.7922    749.8940 300.2827142 +22.8915141     1301.684     72.30772      1.455     2.73     4.004134     20.43145     143.5038        18     1.039     0.956  88.14   0
       120    691.0822    748.7285 300.1912437 +22.8028412     840.0323     72.54749      1.316     2.98     3.976449     20.43145     110.7976        13     0.989     0.774 -32.12   0
       121    871.6652    740.9204 300.2500496 +22.8547344     392.0005     72.52907      1.247     2.80     4.562227     20.43145     54.34078         9     0.867     0.674  -7.32   0
       122    525.0542    737.1558 300.1433148 +22.7497308     1747.852     72.43692      1.291     2.09     3.958564     20.43145     286.4192        19     1.039     0.870 -83.12   0
       123    706.2638    734.4644 300.2006110 +22.8032984      9348.34     72.45536      1.248     2.21     3.976792     20.43145     1203.608        37     1.106     1.030  69.91   0
       124    207.7891    729.7333 300.0470534 +22.6524149     4815.074     72.41847      1.403     2.71      4.02007     20.43145     593.9312        35     1.182     1.134 -85.73   0
       125    289.9256    727.8747 300.0731904 +22.6765302     1304.004     72.51064      1.467     2.65     3.985464     20.43145     167.4957        17     1.032     0.913  89.82   0
       126    165.3785    725.7858 300.0351569 +22.6385545     451.8123     72.40002      1.292     3.02     4.026539     20.43145     55.02727         9     0.952     0.635 -65.36   0
       127    498.0678    723.2354 300.1394427 +22.7376422     671.6869     72.41847      1.219     2.10      4.04357     20.43145     121.1127        10     0.821     0.687  84.65   0
       128    489.6916    715.3755 300.1393918 +22.7328744     3390.253     72.36311      1.297     2.32     4.086905     20.43145     461.1772        28     1.087     1.027  81.70   0
       129     15.6140    712.9783 299.9927980 +22.5899267     227.0921     72.40002      1.320     4.16     4.878028     20.43145     25.28658         5     1.083     0.455 -26.18   0
       130    479.9204    708.9936 300.1384262 +22.7281124     1421.525     72.34465      1.267     2.11     4.112698     20.43145     229.3256        15     0.952     0.828  23.42   0
       131    873.4493    706.6134 300.2617618 +22.8454167     439.4313     72.45536      1.309     4.13     4.455609     20.43145     72.65247         7     0.978     0.510  62.34   0
       132    390.6691    706.1754 300.1115753 +22.7005315     323.7695     72.41847      1.234     2.50     4.007709     20.43145      49.9768         7     0.779     0.611  63.71   0
       133    143.3508    705.6469 300.0348600 +22.6261685     629.7048     72.45536      1.326     3.00     4.012915     20.43145      90.8756        13     0.978     0.841 -28.33   0
       134    157.2989    703.8732 300.0397706 +22.6298462     661.3436      72.5659      1.578     3.84     3.996425     20.43145     86.77643        10     0.988     0.762  44.99   0
       135    404.5885    698.8564 300.1182847 +22.7026073     1813.963     72.40002      1.290     2.31     4.022466     20.43145     268.4001        22     1.247     0.906  88.90   0
       136    214.0762    700.9411 300.0583687 +22.6460448     382.3588     72.47379      1.397     2.21     3.993717     20.43145     56.24027         5     0.623     0.553   3.11   0
       137    926.6467    699.8979 300.2805295 +22.8594300     503.4919     72.45536      1.387     3.35     4.060432     20.43145     70.10391        12     0.932     0.893 -11.17   0
       138    503.7936    699.5305 300.1489322 +22.7325571     506.3514     72.38158      1.358     2.75     4.189832     20.43145     58.89222         7     0.890     0.475 -11.74   0
       139    438.5496    698.0135 300.1291238 +22.7125527     332.3874     72.45536      1.304     2.26      4.07929     20.43145     41.93451         6     0.750     0.497  88.20   0
       140    980.3070    695.9080 300.2985592 +22.8743629      867.446      72.5843      1.461     2.74     4.046772     20.43145     103.9604        14     1.027     0.796 -71.50   0
       141     58.6803    693.9545 300.0123578 +22.5974015      19935.3     72.40002      1.544     2.80     4.459268     20.43145     2369.209        61     1.342     1.299  22.95   0
       142    489.5937    694.0650 300.1462901 +22.7267299     981.0688     72.38158      1.273     2.33     4.209412     20.43145      155.526        15     1.050     0.807 -53.98   0
       143    525.0679    693.0654 300.1576551 +22.7370822     294.2764     72.47379      1.117     2.06     4.261096     20.43145     59.30125         5     0.611     0.554  -3.80   0
       144    183.1574    700.8342 300.0487942 +22.6367354     504.7807     72.47379      1.415     4.33     3.990167     20.43145     59.49976        10     1.092     0.729 -76.43   0
       145    861.1799    689.6110 300.2634657 +22.8368565     36.68761     72.40002      1.074     2.49     4.431664     20.43145     35.02322         5     0.711     0.453 -19.21   0
       146    907.6959    680.1977 300.2810266 +22.8480926     939.9181     72.32619      1.184     2.17     4.161978     20.43145     159.2759        11     0.793     0.769 -60.11   0
       147      4.8090    677.9115 300.0008426 +22.5766307     1469.913     71.26566      1.834     4.42      5.07727     20.43145     110.5998        25     1.431     1.080  88.72  16
       148     71.0612    678.8735 300.0211059 +22.5967942     326.7957     72.45536      1.199     3.81     4.337609     20.43145     48.92344         6     0.918     0.455  49.83   0
       149    774.6459    678.3165 300.2401707 +22.8076772     488.0211     72.40002      1.230     2.58     4.128513     20.43145     66.48466         7     0.772     0.610  66.07   0
       150    453.1325    674.7290 300.1412310 +22.7102454     396.5874     72.45536      1.142     2.59     4.204997     20.43145     68.04021         7     0.814     0.587 -78.95   0
       151    245.3177    674.2606 300.0767533 +22.6477675     332.7932     72.51064      1.418     4.28     3.966769     20.43145     52.89726         7     1.080     0.662 -32.77   0
       152    847.8964    672.9811 300.2647322 +22.8280994     732.3289     72.32619      1.346     2.89     4.314372     20.43145     90.29149        11     0.968     0.707  86.14   0
       153    843.7208    672.4670 300.2635979 +22.8267004     335.1719     72.52907      1.301     2.73      4.30251     20.43145     49.39669         5     0.703     0.484 -13.63   1
       154    592.2269    671.6375 300.1855270 +22.7510714     213.8257     72.43692      1.052     2.56     4.260127     20.43145     41.11198         5     0.716     0.450 -17.57   0
       155    409.8335    666.9072 300.1303030 +22.6950137     805.6129     72.36311      1.296     2.30     4.094007     20.43145     110.4665        11     0.856     0.755  45.52   0
       156    557.7264    665.4983 300.1767826 +22.7389640     536.5509      72.5659      1.270     2.45     4.445309     20.43145     78.39601        10     0.902     0.660  87.16   0
       157    604.9606    663.9468 300.1919916 +22.7526819     468.4219     72.40002      1.349     2.08     4.253858     20.43145     81.07269         9     0.761     0.709  26.35   0
       158    575.3431    663.5413 300.1829028 +22.7436848     519.4312     72.49222      1.160     2.38     4.380777     20.43145     73.75775         9     0.879     0.631  35.35   0
       159    454.1615    662.8704 300.1454062 +22.7071511     1068.177     72.38158      1.565     2.32     4.288687     20.43145     142.8133        14     1.071     0.796  43.98   0
       160    419.5557    658.3722 300.1361019 +22.6954809     1817.803     72.43692      1.290     2.31     4.152132     20.43145      212.897        19     1.005     0.923  49.10   0
       161    887.7478    658.2862 300.2819315 +22.8358212     3323.529     72.43692      1.263     2.21     4.296071     20.43145     433.2482        22     1.009     0.957  47.69   0
       162    985.7685    656.4667 300.3130858 +22.8646683     775.8325     72.41847      1.223     2.93     4.061831     20.43145     106.3737        11     0.969     0.817  74.84   0
       163    448.5284    648.8944 300.1481966 +22.7014510     363.4844     72.52907      1.229     3.62     4.359674     20.43145     49.25363         7     0.950     0.615  68.35   0
       164    927.3384    648.1369 300.2975737 +22.8447689     262.6065     72.45536      1.096     1.72     4.252964     20.43145     55.65481         5     0.681     0.430  68.00   0
       165    282.8966    645.1635 300.0978942 +22.6506962     9046.354     72.41847      1.305     2.30     3.918036     20.43145     1313.515        38     1.128     1.052  62.08   0
       166    405.3445    642.1483 300.1369547 +22.6865630     8825.118     72.45536      1.257     2.17     4.158909     20.43145     1188.751        37     1.115     1.039  85.91   0
       167    483.7609    639.4155 300.1622407 +22.7092972     315.0335     72.43692      1.225     4.60     4.650368     20.43145     41.01385         6     0.918     0.655  76.60   0
       168    170.7509    639.4225 300.0649017 +22.6154004      329.608     72.41847      1.277     2.72      3.97032     20.43145     50.29072         5     0.705     0.651 -66.91   0
       169   1010.0187    637.1451 300.3269302 +22.8663819     1010.902     72.40002      1.407     2.70     3.969319     20.43145      142.169        16     1.066     0.886 -60.04   0
       170    817.0013    635.9341 300.2671470 +22.8082004     1794.763     72.40002      1.295     2.14     4.276359     20.43145     306.6024        19     1.000     0.865 -46.47   0
       171    901.6771    633.3085 300.2943936 +22.8328203     12382.86      72.5659      1.285     2.21     4.369494     20.43145     1545.381        44     1.136     1.099  61.03   0
       172    465.9263    631.7340 300.1591879 +22.7017442     11267.98     72.45536      1.233     2.13     4.602571     20.43145     1835.578        37     1.057     1.024  45.21   0
       173    635.4583    627.4563 300.2133495 +22.7513499     491.4714     72.49222      1.140     2.54     4.313264     20.43145     74.19568         8     0.762     0.731 -38.09   0
       174    193.3986    627.3355 300.0758685 +22.6187296     1278.946     72.41847      1.224     2.44     3.967574     20.43145     165.4657        17     1.011     0.893  65.37   0
       175    351.3246    626.0940 300.1253705 +22.6657530     411.7124      72.5659      1.333     2.04     3.994103     20.43145     66.08621         7     0.672     0.645 -79.75   0
       176    440.0066    624.6820 300.1534153 +22.6919469      437.477     72.34466      1.391     2.93     4.446472     20.43145     61.54087         8     0.837     0.680  86.12   0
       177    397.6714    619.9995 300.1417669 +22.6779059     4492.364     72.28924      1.252     2.09     4.191897     20.43145     668.9495        29     1.106     1.051  72.94   0
       178    740.5763    619.7554 300.2485929 +22.7806489     765.5151     72.45536      1.082     2.13     4.256526     20.43145     125.4948         9     0.793     0.672  20.04   0
       179    375.8933    618.4507 300.1354961 +22.6709294     1244.115     72.49222      1.266     2.46      4.09805     20.43145     164.3476        11     0.913     0.677  71.22   0
       180    130.2457    617.8583 300.0593241 +22.5970609     681.0792     72.45536      1.477     3.10     4.038212     20.43145     82.92673        12     1.003     0.836  17.65   0
       181    817.4343    615.1653 300.2740329 +22.8023650     1632.085     72.49222      1.372     2.80     4.310047     20.43145     178.5462        20     1.141     0.960 -44.37   0
       182    514.2074    607.4418 300.1821081 +22.7092504     198578.1     72.43692      1.217     2.05     4.939681     20.43145     28383.06       200     1.377     1.363  56.74   0
       183     64.0042    615.7534 300.0394298 +22.5765776     288.5833     72.40002      1.283     3.26     4.393536     20.43145      49.4599         6     0.882     0.483 -39.96   0
       184    917.6873    613.7288 300.3057494 +22.8319926     167.9369      72.5659      1.351     4.42     4.497683     20.43145     34.49749         6     1.037     0.537  35.64   0
       185    697.8657    612.2014 300.2377436 +22.7656778     795.3192     72.40002      1.189     2.25     4.222129     20.43145     138.6683        10     0.841     0.707 -68.51   0
       186    200.4280    607.4539 300.0845147 +22.6151361     3604.296     72.41847      1.337     2.35     3.961001     20.43145     451.1101        31     1.185     1.110  24.24   0
       187    379.6984    603.8380 300.1414288 +22.6678776     461.5488     72.41847      1.928     2.50     4.141193     20.43145     46.83239         6     0.703     0.644 -18.75   0
       188    766.1660    603.2806 300.2619201 +22.7835871      484.516     72.36311      1.197     2.49     4.309653     20.43145     75.16196         7     0.721     0.614  58.66   0
       189    546.0170    593.9777 300.1963846 +22.7149233     123.4601     72.40002      1.051     3.13     4.907565     20.43145      40.9269         5     0.961     0.365  58.05   0
       190    404.6429    591.6906 300.1531358 +22.6718731     455.5804     72.41847      1.456     3.75     4.317665     20.43145     48.26297         8     0.849     0.707 -18.54   3
       191    404.8859    587.7010 300.1545079 +22.6708011     2588.894      72.5843      1.257     2.06     4.332592     20.43145     427.9449        23     1.043     0.921  89.35   2
       192    249.1780    590.0321 300.1053294 +22.6247645     549.3687     72.41847      1.637     2.85     3.879666     20.43145     60.35425         7     0.773     0.700  44.47   0
       193    854.4172    587.3306 300.2946058 +22.8054518     238.9054     72.45536      1.177     3.40     4.423817     20.43145     41.12748         5     0.741     0.452  70.35   0
       194    816.1569    583.7811 300.2838350 +22.7929677     381.4865     72.43692      1.285     2.71     4.358202     20.43145     59.39793        10     0.878     0.729  86.10   0
       195    635.4529    583.3072 300.2276967 +22.7386725     239.5013     72.47379      1.071     3.36     4.406263     20.43145     51.33288         5     0.739     0.442  67.25   0
       196    874.7355    576.6099 300.3044233 +22.8084600     192.2759     72.40002      1.494     3.89     4.494339     20.43145     33.67453         5     1.015     0.426 -82.97   0
       197    722.1030    576.1854 300.2569985 +22.7625997     391.8829     72.32619      1.120     2.74     4.315989     20.43145     79.00648         8     0.860     0.649  -8.37   0
       198    801.8226    573.8118 300.2826078 +22.7858087     1665.486     72.41847      1.225     1.82     4.341063     20.43145     316.9032        17     0.930     0.826   4.50   0
       199    672.9454    571.4936 300.2432116 +22.7465187      2474.98     72.47379      1.140     2.03     4.257459     20.43145     403.5544        19     0.963     0.831  66.25   0
       200    917.1631    568.6689 300.3202307 +22.8188898     486.3685     72.40002      1.205     3.61     4.566845     20.43145     74.84557        11     1.139     0.670 -58.19   2
       201    915.9512    564.3951 300.3212417 +22.8172989     776.3764     72.40002      1.418     2.21     4.570768     20.43145     99.29262        10     0.883     0.649  63.44   3
       202    882.6204    568.2314 300.3096040 +22.8084153     293.5146     72.41847      1.090     1.91      4.53013     20.43145     56.29534         5     0.652     0.473 -75.91   0
       203    577.7659    568.1650 300.2146562 +22.7170315     367.2097     72.49222      0.979     2.18     4.684932     20.43145     70.69062         7     0.745     0.629 -35.31   0
       204    460.4716    567.4448 300.1783840 +22.6816568     634.0144     72.38158      1.166     3.45     4.799119     20.43145     95.33152        11     1.055     0.715 -52.61   0
       205    930.2651    565.4760 300.3253533 +22.8218976     1236.851     72.51064      1.243     2.25     4.578388     20.43145     173.1102        15     0.956     0.852  14.50   0
       206    802.0693    563.6724 300.2859797 +22.7829702     2266.336     72.49222      1.507     4.35      4.35147     20.43145     298.9255        27     1.713     0.873  75.88   0
       207    555.5349    562.3558 300.2096234 +22.7086990     567.1344     72.40002      0.984     2.47     4.795417     20.43145     102.5328         7     0.876     0.521  39.64   3
       208    554.8054    558.4814 300.2106553 +22.7073679     536.5139     72.34466      1.661     5.38     4.794171     20.43145      71.7843         8     1.427     0.643  68.96   3
       209    340.9918    562.0435 300.1429720 +22.6442751     342.0852     72.43692      1.148     4.15     4.012465     20.43145     52.38696         8     0.988     0.653 -29.17   0
       210    393.7334    560.9067 300.1597456 +22.6597668     424.9164      72.5659      1.191     2.66     4.354329     20.43145     60.94187         7     0.697     0.678  26.94   0
       211    840.1912    558.9185 300.2994051 +22.7930274     4259.163     72.36311      1.224     2.09     4.468121     20.43145      710.437        27     1.034     0.972 -80.79   0
       212    481.6206    558.5212 300.1878647 +22.6854369     145.4713     72.41847      1.023     2.96     4.947861     20.43145     56.23701         5     0.729     0.451 -22.00   0
       213    577.7850    555.4630 300.2187897 +22.7133904     410.6489     72.38158      1.133     2.46     4.669848     20.43145     47.10096         5     0.708     0.445 -24.12   0
       214    500.5392    554.9404 300.1949156 +22.6900815     354.4432     72.47379      1.121     2.00     4.916034     20.43145     68.27813         6     0.731     0.498 -87.18   0
       215     72.2290    549.7136 300.0634437 +22.5601075     880.6894     72.41847      1.305     2.85       4.6079     20.43145     109.3538        14     0.987     0.872  75.30   0
       216    932.0956    549.2048 300.3312115 +22.8177707      702.861     72.32619      1.206     2.52      4.58142     20.43145     106.0497        12     0.897     0.786  86.63   0
       217    702.2399    547.0322 300.2602846 +22.7482741     353.3527     72.45536      1.432     3.27      4.33054     20.43145     45.48047         5     0.809     0.546   3.94   0
       218    733.1027    542.9440 300.2712270 +22.7563493     357.1171     72.51064      1.277     2.19     4.362119     20.43145     55.26371         5     0.614     0.561   5.29   0
       219    338.5039    542.7316 300.1484730 +22.6379871     33.75691     72.54749      0.712     4.29     4.023446     20.43145     32.28722         6     1.088     0.482 -82.06   0
       220    928.0634    538.3851 300.3334701 +22.8134539     310.5162     72.38158      1.205     3.03     4.587011     20.43145     51.43862         8     0.895     0.666  83.13   0
       221     65.0249    539.5409 300.0645110 +22.5550282     272.3462     72.41847      1.185     3.20     4.634434     20.43145     43.29505         6     0.775     0.497  -2.94   0
       222    672.5835    533.4032 300.2554760 +22.7354717     552.2234     72.32619      1.186     2.48     4.305013     20.43145     69.22318         8     0.820     0.649   8.60   0
       223    613.6693    529.5630 300.2383774 +22.7167106     855.2404     72.40002      1.239     2.16     4.461203     20.43145     109.1743        12     0.849     0.756  70.24   0
       224   1021.0548    527.1605 300.3661173 +22.8380816     1018.648     68.70803      1.299     2.48     4.420825     20.43145     145.8618        12     0.870     0.791 -47.83  16
       225    928.0204    521.7385 300.3388655 +22.8086576     556.8321     72.38158      1.281     2.63     4.580017     20.43145     91.30464        11     0.926     0.746  69.58   0
       226    674.3347    521.6584 300.2598373 +22.7326236     843.3872     72.45536      1.183     2.47     4.305662     20.43145       123.13        11     0.931     0.703  47.15   0
       227    831.4960    517.8157 300.3100506 +22.7786140     845.5804     72.32619      1.099     2.27     4.415255     20.43145     170.1558        13     0.912     0.798  54.16   0
       228    815.7476    514.2529 300.3063001 +22.7728721     543.7332     72.45536      1.113     2.31     4.373039     20.43145     106.0595        10     0.847     0.697  33.50   0
       229    796.5720    514.7034 300.3001780 +22.7672561     355.8013     72.36311      1.425     3.49     4.340147     20.43145     37.25611         5     0.761     0.462  72.90   0
       230    560.2330    512.3882 300.2273210 +22.6957612     3069.448     72.40002      1.154     1.96     4.666016     20.43145     496.4026        22     0.975     0.879  79.67   0
       231    920.4213    511.0547 300.3399674 +22.8033113     503.6761     72.43692      1.209     3.32     4.562253     20.43145     71.06234        11     1.042     0.781 -48.10   0
       232     36.0014    503.8214 300.0671001 +22.5360746     377.0047     72.34466      1.351     4.05       4.5771     20.43145     52.63242         8     1.042     0.770  62.46   0
       233    399.8176    499.8284 300.1814821 +22.6440610     406.0971     72.41847      1.291     4.63     4.511596     20.43145     53.47066         8     1.088     0.614 -41.57   0
       234    331.6093    500.3170 300.1601084 +22.6237472     313.5417     72.36311      1.553     2.83     4.095545     20.43145     51.67962         5     0.931     0.348  20.95   0
       235    971.5762    491.1837 300.3623743 +22.8129230     1249.997     72.41847      1.279     2.74     4.511982     20.43145     155.6877        18     1.064     0.904  76.31   0
       236    929.8241    490.0423 300.3497257 +22.8000896     1003.394     72.47379      1.236     1.87     4.567335     20.43145     186.0577        14     1.066     0.722  74.89   0
       237    843.5634    491.1519 300.3224743 +22.7745686     374.1439     72.45536      1.132     2.55     4.376082     20.43145     81.07735         7     0.788     0.591  63.75   0
       238    579.9496    488.1483 300.2413336 +22.6947110     350.6927     72.45536      1.140     2.53     4.518938     20.43145     53.74486         8     0.792     0.655  46.88   0
       239    670.7020    486.2364 300.2702137 +22.7213616      1094.96     72.41847      1.147     2.02     4.307608     20.43145     182.4303        11     0.823     0.758  77.97   0
       240    466.5092    486.9798 300.2064052 +22.6603690     413.1369     72.34466      1.110     2.09     4.790437     20.43145     74.13879         6     0.725     0.485  76.87   0
       241    174.8846    484.7042 300.1164576 +22.5722594     650.5634      72.6027      1.298     2.15     4.308338     20.43145     116.1611        11     0.905     0.698  75.44   0
       242    237.1843    480.3467 300.1372367 +22.5896965     3573.539     72.40002      1.256     2.25     4.103463     20.43145     472.3384        25     1.065     0.950  62.32   0
       243    970.2380    478.5546 300.3660597 +22.8088926      4348.57     72.47379      1.255     2.03     4.514568     20.43145     688.0253        31     1.089     1.023  86.21   0
       244    184.3529    475.1476 300.1225043 +22.5723577     7440.677     72.45536      1.324     2.29     4.301476     20.43145     930.6111        36     1.144     1.079  66.56   0
       245    950.2029    469.5894 300.3627243 +22.8003155     1761.379     72.23378      1.216     2.04     4.528058     20.43145     286.9082        17     0.958     0.881  21.69   0
       246    325.1957    469.3627 300.1681688 +22.6129399     4836.752     72.45536      1.227     2.09     4.190787     20.43145     718.0343        29     1.053     0.996  80.00   0
       247    569.3431    465.9532 300.2452413 +22.6851583     18188.48     72.45536      1.183     1.94     4.541106     20.43145     3074.825        47     1.109     1.005  71.47   0
       248    416.5740    467.4733 300.1972048 +22.6397977     319.7892     72.41847      1.084     2.96      4.67147     20.43145     48.90841         7     0.827     0.642  68.37   0
       249    586.9504    465.9063 300.2507381 +22.6904222     767.1824     72.47379      1.689     5.35     4.467823     20.43145     82.63861        15     1.581     0.727 -40.33   0
       250    786.3839    475.1545 300.3098515 +22.7528418     164.6387     72.43692      1.121     3.29     4.314514     20.43145     35.51718         5     0.863     0.483  85.77   0
       251    766.4471    456.0893 300.3098322 +22.7413913     402.6222     72.38158      1.119     2.30     4.333894     20.43145     70.05853         6     0.740     0.496  86.43   0
       252    189.5778    452.7357 300.1314073 +22.5674944     301.3551     72.40002      0.951     2.79     4.301877     20.43145     57.65636         5     0.724     0.440  67.13   0
       253    902.7851    448.3524 300.3548379 +22.7800100     850.6722     72.45536      1.350     2.76     4.453966     20.43145     101.9721        11     1.007     0.657  55.64   0
       254    612.7424    446.9741 300.2649177 +22.6927152      361.179     72.41847      1.285     4.50      4.37611     20.43145     48.60847         8     1.355     0.424  52.57   0
       255    439.9869    447.7873 300.2108829 +22.6411657     302.7735     72.34466      1.228     1.89     4.724218     20.43145     70.45136         5     0.733     0.447  57.23   0
       256    124.0528    446.2266 300.1131593 +22.5459714     2127.245     72.43692      1.393     2.60     4.472568     20.43145     234.1237        23     1.065     1.005 -84.71   0
       257    923.6039    435.5384 300.3654908 +22.7825627     1148.381     72.41847      1.167     2.32     4.483661     20.43145     167.9812        16     0.974     0.835  61.21   0
       258    509.9864    435.3586 300.2367022 +22.6585812      6528.05     72.43692      1.202     1.95     4.690275     20.43145      1100.19        32     1.054     0.957  63.53   0
       259    224.7185    434.8467 300.1481394 +22.5729011     586.4158     72.41847      1.232     2.47     4.279316     20.43145     106.3531         8     0.820     0.648  62.27   0
       260     82.2629    427.9497 300.1061116 +22.5281914     526.0435     72.47379      1.389     2.95     4.527285     20.43145     67.06237         9     0.925     0.648 -59.02   0
       261    769.8828    426.8646 300.3203947 +22.7340242     342.7245     72.52907      1.152     1.97     4.362339     20.43145     62.00007         6     0.698     0.543  53.39   0
       262    623.6549    425.4719 300.2752991 +22.6898097     567.4257     72.41847      1.317     2.28      4.37611     20.43145     84.20913         7     0.773     0.627 -80.20   0
       263    714.0434    424.2194 300.3038572 +22.7165346     1085.883     72.43692      1.204     2.07     4.370513     20.43145     171.5003        14     0.971     0.726  73.77   0
       264    416.6305    421.6474 300.2121056 +22.6266588     6041.472     72.43692      1.181     2.11     4.728683     20.43145      957.301        30     1.065     0.947  76.46   0
       265    905.8543    416.0905 300.3662730 +22.7716573     620.8575     72.47379      1.096     2.12     4.427579     20.43145     109.0721         8     0.749     0.640  52.44   0
       266    808.3826    415.7304 300.3360077 +22.7423585     1369.684     72.45536      1.205     2.33     4.366599     20.43145     229.6766        18     1.096     0.870  32.52   0
       267    401.2189    410.2466 300.2110134 +22.6187653      503.632     72.45536      1.171     3.13     4.740807     20.43145     82.15416         8     1.036     0.596  70.91   0
       268    483.8899    408.2014 300.2373999 +22.6429607     444.5335     72.34466      1.226     2.23     4.715913     20.43145     66.36047         7     0.754     0.634 -61.59   0
       269    761.5287    406.9781 300.3242501 +22.7258077     348.1458     72.43692      1.407     2.20     4.372659     20.43145     47.35292         6     0.745     0.499  88.27   0
       270    781.4178    403.8123 300.3314753 +22.7308563     467.6543     72.38158      1.063     1.79     4.369546     20.43145     92.05021         6     0.683     0.492  85.49   0
       271    285.2444    403.3299 300.1771906 +22.5820070     228.8521     72.38158      1.166     3.48     4.320004     20.43145     42.88209         5     0.782     0.449  12.72   0
       272    304.1341    400.8993 300.1838534 +22.5869736      2611.08     72.51064      1.267     2.13     4.439673     20.43145     400.0098        21     1.028     0.902  48.34   0
       273     22.6634    398.4092 300.0971915 +22.5018368     879.9865     72.38158      1.352     2.66     4.519161     20.43145     118.5852        14     0.928     0.876  -3.76   0
       274    273.4832    390.3832 300.1777376 +22.5747642     29428.82     72.38158      1.253     2.19     4.403628     20.43145     3681.162        69     1.255     1.126  56.02   0
       275    808.1850    387.6494 300.3450651 +22.7342300     1373.053     72.45536      1.182     2.00     4.366599     20.43145      234.943        14     0.863     0.794  77.37   0
       276    763.4720    385.3423 300.3318813 +22.7201732     281.4914     72.45536      1.161     2.95     4.370267     20.43145     55.14658         6     0.693     0.663  26.44   0
       277    147.6209    376.7198 300.1430525 +22.5330975     596.2249     72.40002      1.441     3.33      4.40155     20.43145     70.27723         8     0.978     0.631  83.58   0
       278    846.1887    376.7957 300.3604339 +22.7424939     330.9459     72.25227      1.577     4.96     4.366599     20.43145     31.19278         6     1.074     0.648  89.83   0
       279    723.4725    376.4893 300.3222941 +22.7056467     589.2927      72.5843      1.283     3.68     4.371973     20.43145     72.69982         6     0.907     0.430  71.43   0
       280    371.8624    375.6246 300.2131236 +22.6000245     480.0659     72.40002      1.105     2.43     4.830048     20.43145     77.25978         9     0.844     0.663 -66.14   0
       281    683.9047    369.9729 300.3120846 +22.6919202     1925.098     72.32619      1.224     1.83     4.373407     20.43145     391.1018        18     1.049     0.779  80.30   0
       282    492.1851    364.4710 300.2541808 +22.6328892      252.981     72.41847      1.006     2.00     4.623368     20.43145     55.72897         5     0.675     0.463  22.25   0
       283    898.9529    362.7544 300.3814412 +22.7542604     666.8911     72.43692      1.277     2.27     4.376165     20.43145      114.468        10     0.826     0.752  21.75   0
       284    345.7892    354.7221 300.2118003 +22.5862068     2262.655     72.40002      1.444     2.61      4.91145     20.43145     313.5315        22     1.218     0.895  55.92   0
       285    557.7320    353.2669 300.2782203 +22.6493152     323.7764     72.47379      0.979     2.21     4.372557     20.43145     64.74015         5     0.703     0.435 -81.37   0
       286    784.8740    347.3748 300.3508778 +22.7156738     557.1082     72.43692      1.067     1.81     4.380969     20.43145     121.0152         9     0.810     0.620  54.94   0
       287    667.0237    344.9800 300.3149414 +22.6796821     411.6787     72.41847      1.218     2.89     4.439594     20.43145     71.22009        10     0.996     0.660  68.96   0
       288    684.0699    345.1731 300.3201879 +22.6848445     352.6608     72.41847      1.284     2.28     4.439054     20.43145     53.01338         5     0.748     0.483 -51.89   0
       289    635.4601    344.2633 300.3053443 +22.6700195     381.8403     72.45536      1.152     3.35     4.446472     20.43145     46.34828         5     0.745     0.437  66.54   0
       290    745.7867    338.2675 300.3416556 +22.7013486     200.4417     72.43692      1.141     3.40     4.477364     20.43145     38.63695         5     0.955     0.351  47.60   0
       291    421.5468    334.0735 300.2420692 +22.6029877     1163.188     72.43692      1.202     2.25     4.752795     20.43145     169.8777        16     1.006     0.807  76.69   0
       292    136.2209    335.2976 300.1529574 +22.5177917     270.0648     72.34466      1.209     4.13     4.443215     20.43145     30.74125         6     0.753     0.645 -86.76   0
       293    228.8967    334.2725 300.1820931 +22.5452891     199.9771     72.54749      1.170     3.38     4.580126     20.43145     36.13364         5     0.967     0.342  46.07   0
       294    804.7690    326.8857 300.3637293 +22.7157444     375.9484     72.40002      1.332     2.38     4.374483     20.43145     60.12838         6     0.740     0.522  54.65   0
       295    666.3370    325.8485 300.3209384 +22.6739798     2150.475     72.45536      1.194     1.97     4.598666     20.43145      363.992        18     0.945     0.827  76.01   0
       296    927.6555    320.0269 300.4042622 +22.7505727     3172.188     72.41847      1.257     2.18     4.368241     20.43145     450.8482        26     1.076     0.954  68.99   0
       297    988.8265    315.1609 300.4249177 +22.7674885     384.2717     72.43692      1.206     2.61      4.48026     20.43145     68.53534         8     0.842     0.635  86.19   0
       298    374.7041    309.8041 300.2353752 +22.5819779     557.7214     72.32619      1.156     2.31     4.935173     20.43145     88.30141         8     0.766     0.629 -55.86   0
       299    996.9374    307.8574 300.4298184 +22.7678167     1639.181     72.47379      1.356     2.39     4.495205     20.43145     249.5118        20     1.222     0.937  50.21   0
       300     49.6543    304.2191 300.1361514 +22.4829100     1379.882     72.40002      1.503     2.97     4.514008     20.43145     154.5942        19     1.155     0.944 -42.90   0
       301     80.3344    303.8179 300.1458119 +22.4919968     617.6406     72.40002      1.363     3.64     4.506294     20.43145     70.12637        11     1.023     0.873  -7.89   0
       302    943.5430    300.5547 300.4155372 +22.7497315     544.0914     72.43692      1.398     2.95     4.395466     20.43145      62.3082        11     0.996     0.736  46.85   0
       303    787.0201    297.2763 300.3678100 +22.7019186     308.9888     72.41847      1.179     2.95     4.484942     20.43145     47.87859         7     0.726     0.662  43.23   0
       304    133.6353    296.1237 300.1648693 +22.5057738     505.7789     72.38158      1.357     2.86     4.459423     20.43145     56.94473        10     0.850     0.804 -82.66   0
       305    928.2079    293.0539 300.4131903 +22.7429836     272.1135     72.41847      1.207     3.05     4.366811     20.43145     54.00269         8     0.942     0.576  25.44   0
       306    809.4971    289.4565 300.3773528 +22.7064026        270.7     72.51064      1.118     3.06     4.384711     20.43145     53.90979         7     0.823     0.647 -25.57   0
       307    738.0638    287.2670 300.3558050 +22.6843793     581.4819     72.47379      1.146     2.06     4.885955     20.43145     105.1945         9     0.805     0.649  19.82   0
       308    328.4256    287.0604 300.2283635 +22.5615750     252.6698     72.41847      0.992     2.11     5.016737     20.43145     60.42253         6     0.735     0.494  87.80   0
       309    828.6917    279.9388 300.3864242 +22.7094150     333.5995     72.51064      1.139     3.15     4.377563     20.43145     53.83315         7     0.861     0.576  13.00   0
       310    836.1229    276.2431 300.3899399 +22.7105780     1965.776     72.40002      1.195     2.14     4.374751     20.43145     321.0544        18     0.981     0.860  80.02   0
       311    254.6520    273.8607 300.2097080 +22.5356692     2108.429     72.47379      1.283     2.33     4.976547     20.43145     333.9705        20     1.084     0.873  64.65   0
       312    332.8088    268.6593 300.2356987 +22.5576053     979.8428     72.38158      1.386     2.83     5.024668     20.43145     110.5459        16     1.026     0.882  -8.22   0
       313     84.3849    269.2797 300.1582794 +22.4833000     219.0114     72.43692      1.215     2.31      4.54001     20.43145     53.91899         5     0.703     0.447  69.16   0
       314    734.5833    267.9223 300.3609994 +22.6777773     397.9217     72.41847      0.985     1.81     4.738075     20.43145     92.24307         7     0.659     0.619 -72.66   0
       315    841.4498    264.8573 300.3952956 +22.7089001     403.3429     72.47379      1.056     2.41     4.371771     20.43145     71.76579         6     0.715     0.571  49.61   0
       316    149.5321    261.0802 300.1811819 +22.5004827     786.2408     72.52907      1.385     2.96     4.497447     20.43145     96.39282        14     1.088     0.786  70.21   0
       317    687.1909    257.7106 300.3495502 +22.6606476     1594.301     72.34466      1.128     1.89     4.853262     20.43145      317.697        17     0.918     0.895  80.18   0
       318      1.4068    258.4558 300.1360183 +22.4553073     220.4983     56.80973      1.553     4.24     4.727056     20.43145     26.45939         5     1.042     0.491  88.83  24
       319    752.1669    257.4222 300.3698854 +22.6800258     574.8582     72.41847      1.159     2.14     4.580067     20.43145     92.52881         8     0.767     0.643  52.87   0
       320    118.4410    256.5585 300.1729883 +22.4898618     377.4715     72.51064      1.290     3.30     4.522374     20.43145     39.91492         6     0.904     0.424  71.13   0
       321    170.9099    254.4768 300.1899683 +22.5049973     603.1197      72.5659      1.230     2.06     4.578439     20.43145     75.09358         8     0.738     0.647 -75.98   0
       322    958.6734    249.9401 300.4366836 +22.7397081     998.8106     72.45536      1.366     2.58     4.419732     20.43145     135.8006        14     1.026     0.816  49.22   0
       323    460.8220    250.0821 300.2815508 +22.5906365     362.0413     72.38158      1.219     2.91     4.828266     20.43145     57.46849         5     0.748     0.532  52.92   0
       324    691.4184    249.0153 300.3536889 +22.6594150     804.7529     72.40002      1.158     2.91     4.815309     20.43145     123.9408        11     0.961     0.726  14.11   0
       325    611.6418    248.5210 300.3290042 +22.6353762     1308.611     72.40002      1.260     2.29     4.582554     20.43145     195.9271        15     1.063     0.718  51.89   0
       326    433.1917    245.0275 300.2745937 +22.5809047     330.3947     72.41847      1.241     2.54     4.904381     20.43145      67.9707         7     0.786     0.650  37.47   0
       327    537.9811    240.2256 300.3087634 +22.6109247      903.493     72.43692      1.157     2.12     4.719218     20.43145     154.0921        10     0.807     0.696  79.77   0
       328    819.4900    238.9345 300.3968641 +22.6948725     920.2642     72.54748      1.233     2.25     4.379048     20.43145     147.5167        15     0.970     0.843 -51.54   0
       329    807.2725    239.8110 300.3927721 +22.6914661     1437.455     72.43692      1.203     2.15     4.384564     20.43145     236.6487        15     0.892     0.826  52.83   0
       330    980.1228    229.6491 300.4499579 +22.7402940     1578.442     72.41847      1.305     2.25     4.460938     20.43145     261.2482        18     1.003     0.909 -45.97   0
       331    935.8741    229.1383 300.4363247 +22.7269014      1068.85     72.45536      1.193     2.18     4.370604     20.43145     177.9437        12     0.934     0.683  76.54   0
       332    170.0058    222.4254 300.2000875 +22.4955255     737.7374     72.40002      1.277     2.50     4.643816     20.43145     107.7878        12     1.004     0.769 -81.98   0
       333     31.8138    217.4878 300.1587549 +22.4526706     2370.588     72.36311      1.469     2.66     4.831775     20.43145     267.8989        28     1.260     1.137 -38.23   0
       334    855.0408    214.0772 300.4160111 +22.6983709     764.8304     72.40002      1.241     2.15      4.37481     20.43145     120.9444         9     0.770     0.682  59.59   0
       335    189.3157    210.6854 300.2098980 +22.4979445     5763.519     72.52907      1.295     2.43     4.800795     20.43145     730.5825        33     1.177     0.995  52.97   0
       336    170.7121    211.5091 300.2038488 +22.4926035     291.5313      72.5843      1.023     3.81     4.717749     20.43145     42.23101         6     0.924     0.451  86.81   0
       337    172.5030    201.4144 300.2076805 +22.4902424     530.5795     72.32619      1.097     2.46     4.797988     20.43145     88.94956         9     0.952     0.581  81.82   0
       338    988.1436    197.8340 300.4627832 +22.7335451      18166.6     72.43692      1.315     2.19     4.707779     20.43145     2915.781        52     1.223     1.102  89.44   0
       339    833.3777    191.9056 300.4164528 +22.6855105     3546.076     72.32619      1.245     2.20     4.508715     20.43145     560.4011        24     1.119     0.887  74.14   0
       340    937.1025    190.6440 300.4491986 +22.7161996     2803.169     72.41847      1.294     2.12     4.411411     20.43145     481.2209        23     1.141     0.899  76.24   0
       341    382.6915    187.0949 300.2776800 +22.5491315     701.9925      72.6027      1.307     3.13     5.001938     20.43145     92.11951        11     1.017     0.754  78.73   0
       342    136.1136    187.6907 300.2008244 +22.4753928     371.6964      72.5843      1.330     2.04     4.833697     20.43145     59.54852         5     0.732     0.406 -21.29   0
       343    497.1219    185.4069 300.3138327 +22.5829340     243.9786     72.34465      1.195     2.24     4.817703     20.43145     52.64714         6     0.741     0.485  -8.02   0
       344    306.9260    179.2393 300.2566638 +22.5241692     518.4718     72.40002      1.159     2.30      4.98474     20.43145     94.02621         9     0.835     0.667  69.60   0
       345     73.0049    176.5737 300.1848231 +22.4532797     676.7145     72.38158      1.547     3.74     4.855758     20.43145     73.81843        12     1.123     0.709 -81.34   0
       346    310.9486    177.3731 300.2585201 +22.5248389     485.8083     72.43692      1.509     2.89     4.984142     20.43145     63.76324         7     0.914     0.614  18.97   0
       347    434.2355    174.5790 300.2977762 +22.5609815     1623.477     72.43692      1.172     2.12     4.949579     20.43145     257.5765        16     0.952     0.809  70.12   0
       348    362.2340    175.0920 300.2752105 +22.5395535     383.3218     72.36311      1.138     2.63     4.990672     20.43145     64.79097         7     0.746     0.618  84.69   0
       349    496.0276    173.8510 300.3172411 +22.5792861     402.7295     72.43692      1.189     3.34     4.823886     20.43145     52.41623         7     0.875     0.538 -44.05   0
       350    177.8201    170.2753 300.2194349 +22.4828965     374.3552     72.41847      1.272     2.68     4.989276     20.43145     53.62177         6     0.725     0.604  79.91   0
       351    650.7024    168.4098 300.3671614 +22.6240546      152.599     72.32619      1.041     3.93     4.895916     20.43145     42.19397         6     1.047     0.423  57.02   0
       352    722.5327    163.6430 300.3910819 +22.6441957     403.4937     72.40002      1.332     2.78      4.89284     20.43145     58.58023         6     0.937     0.485  56.54   0
       353    994.0053    157.2970 300.4777633 +22.7236404     212.6672     72.32619      1.138     3.23     5.091102     20.43145     41.12236         5     0.798     0.524 -37.00   3
       354    998.6199    155.1208 300.4799086 +22.7243955     3541.978     72.41847      1.305     2.27     5.143635     20.43145     425.4101        27     1.130     0.994 -77.74   2
       355    208.2585    154.5431 300.2339989 +22.4875038     5879.072     72.49222      1.314     2.34     4.920196     20.43145     771.2853        32     1.183     1.002  64.58   0
       356    714.8229    154.6556 300.3915956 +22.6393035     366.1299     72.45536      1.183     3.13     4.912008     20.43145      50.2756         9     0.860     0.740  81.86   0
       357     59.3600    153.9638 300.1879186 +22.4426985     752.3053     72.49222      1.583     3.27     4.933636     20.43145      96.1966        12     1.002     0.857  67.32   0
       358    322.8385    154.0921 300.2697699 +22.5217159     297.0723     72.41847      1.062     3.93     4.963356     20.43145     35.10266         6     0.926     0.477 -55.44   0
       359    837.5014    151.7764 300.4307571 +22.6752071     409.2491     72.36311      1.209     2.37     4.625938     20.43145     64.92572         8     0.743     0.733 -15.04   0
       360    180.2158    148.5775 300.2272178 +22.4773849     292.4724     72.41847      1.181     2.84     4.983462     20.43145     56.74812         7     0.809     0.664  79.50   0
       361    223.5527    145.7241 300.2416137 +22.4895558      430.452     72.41847      1.474     2.54     4.846884     20.43145     67.17754         6     0.852     0.622  57.91   0
       362    454.3124    139.7951 300.3153067 +22.5570040     6131.291     72.34466      1.220     2.19     4.871174     20.43145     972.6747        33     1.111     0.983  72.25   0
       363    339.6487    139.5169 300.2797257 +22.5225672     719.1938     72.41847      1.199     2.84     4.943206     20.43145     97.58644        12     0.982     0.837  27.38   0
       364    511.2450    134.4169 300.3347692 +22.5725144     320.6386     72.43692      1.254     3.54     4.845113     20.43145     49.93897         7     0.844     0.620  72.10   0
       365    474.4832    133.7333 300.3235498 +22.5613053     222.1429     72.52907      1.079     3.50     4.790548     20.43145     44.23084         5     0.776     0.455 -70.76   0
       366    207.6998    134.1263 300.2404477 +22.4814738     116.9538     72.54748      0.879     3.31      4.85428     20.43145     66.03912         5     0.828     0.383  70.00   0
       367    706.9264    129.3782 300.3973352 +22.6296727     782.8298     72.41847      1.285     2.46     4.910482     20.43145     109.3602        10     0.841     0.763 -21.55   0
       368    799.4598    127.8629 300.4266580 +22.6569424     432.0763     72.45536      1.352     3.19     4.918687     20.43145     75.95789        10     0.929     0.779 -37.09   0
       369    146.9678    123.4571 300.2250327 +22.4602056     462.6819     72.43692      1.303     3.54     4.921762     20.43145     63.06324        11     1.075     0.721 -86.27   0
       370    505.5645    122.3826 300.3369046 +22.5673548     372.2153     72.41847      1.168     2.63     4.823405     20.43145     53.79756         7     0.877     0.492  84.85   0
       371    958.0749    122.0355 300.4779959 +22.7027449     299.7954     72.36311      1.457     3.76     4.858309     20.43145     25.12473         5     1.029     0.395  31.68   0
       372    582.6704    119.8482 300.3617292 +22.5897222     6238.472     72.40002      1.248     2.14     4.904865     20.43145     953.6229        33     1.102     1.002  84.31   0
       373    357.4431    118.8589 300.2919606 +22.5219655     1396.877     72.40002      1.214     2.24     4.918989     20.43145     221.1505        16     0.932     0.894 -77.89   0
       374    623.7190    117.2239 300.3753619 +22.6012617     753.0023     72.38158      1.155     2.19     4.891533     20.43145     123.6752        10     0.792     0.713  56.60   0
       375    639.7994    113.1977 300.3816754 +22.6049201     604.0864     72.19678      1.176     2.32      4.90941     20.43145     96.99903         9     0.878     0.647  87.08   0
       376    106.5985    111.5377 300.2163544 +22.4446817     655.5025     72.38158      1.402     2.61     4.955636     20.43145     86.56898        12     0.933     0.802 -87.75   0
       377    909.8274    110.4333 300.4667145 +22.6849678     601.2429     72.43692      1.323     2.83     4.742805     20.43145     85.20517        11     1.006     0.707 -84.25   0
       378    948.7807    109.9250 300.4790256 +22.6964800     163.9902     72.41847      0.948     2.13     4.868675     20.43145     53.16977         6     0.709     0.544  39.85   0
       379    678.2770    108.6055 300.3951486 +22.6151224     454.3606     72.32619      1.135     2.32     4.946179     20.43145      82.3429         9     0.820     0.706 -19.09   0
       380    626.8933    104.6715 300.3804215 +22.5986044     2683.416     72.52907      1.270     2.16      4.88995     20.43145     439.2395        23     1.022     0.939  54.65   0
       381    641.8167    103.3347 300.3855025 +22.6026892      908.608     72.40002      1.729     3.91     4.911129     20.43145     86.47602        14     1.282     0.813  58.48   0
       382    267.3077    105.4447 300.2682807 +22.4911023     448.8596     72.41847      1.588     3.29     4.841071     20.43145     53.76252         5     0.766     0.410  25.76   0
       383    713.3710     96.1719 300.4101130 +22.6220562     1633.224     72.38158      1.233     2.23     4.895209     20.43145     245.8339        17     0.994     0.848 -89.04   0
       384    873.3802     94.2070 300.4606143 +22.6693922     345.1289     72.38158      1.391     3.41     4.774128     20.43145     38.98295         6     0.724     0.637 -38.75   0
       385    790.8676     90.4780 300.4361057 +22.6436206     337.6861     72.52907      1.672     3.98     4.892967     20.43145     34.05122         6     1.348     0.336  41.54   0
       386    651.2654     89.1905 300.3930323 +22.6014529     713.5561     72.38158      1.160     2.31     4.929531     20.43145      99.3941        10     0.813     0.704  22.51   0
       387    456.8623     88.8061 300.3326375 +22.5431177     956.0037     72.40002      1.237     2.27     4.822084     20.43145     149.4603        11     0.859     0.706  75.50   0
       388     29.8712     89.1561 300.1997771 +22.4152535      416.644     72.38158      1.365     1.97     5.157989     20.43145     80.44762         6     0.711     0.533 -47.93   0
       389    360.7545     87.1279 300.3032813 +22.5138425     879.6432     72.41847      1.295     2.02     4.876044     20.43145     143.2789        10     0.814     0.685  46.72   0
       390    743.0286     84.8129 300.4230365 +22.6276699     430.2099     72.41847      1.375     4.56     4.842865     20.43145     58.14796        10     1.206     0.690 -81.68   0
       391   1003.6717     83.5170 300.5047098 +22.7053097     2074.783     72.54749      1.229     2.21     4.880095     20.43145     331.2015        19     0.984     0.917 -89.15   0
       392    132.1436     77.0803 300.2354658 +22.4424458     3897.403     72.45536      1.391     2.47     4.876195     20.43145     455.4145        29     1.187     1.008  64.05   0
       393    700.1237     77.5456 300.4120268 +22.6127348      629.873     72.45536      1.194     2.55     4.904016     20.43145     94.79147        11     0.925     0.739 -80.20   0
       394    554.6347     73.8507 300.3679184 +22.5681056     327.3183     72.43692      1.186     2.32     4.950145     20.43145     53.94532         5     0.715     0.442  70.08   0
       395    457.9838     74.3084 300.3376878 +22.5392879     227.9719     72.34466      1.127     2.78     4.817312     20.43145     47.86917         7     0.719     0.666  11.45   0
       396    693.2749     69.2455 300.4125850 +22.6082979      808.404     72.40002      1.167     2.58     4.914052     20.43145     115.6376        13     0.931     0.832 -53.15   0
       397    248.0791     69.1588 300.2740693 +22.4749181     1267.909     72.40002      1.286     2.53     4.768311     20.43145      152.356        11     0.917     0.712  88.40   0
       398    658.9342     68.4495 300.4021469 +22.5977868     468.7282     72.41847      1.395     2.68     4.948139     20.43145     65.77128         8     0.825     0.740 -17.54   0
       399    731.3065     64.2169 300.4260634 +22.6182386     673.5112     72.34466      1.558     4.02      4.81855     20.43145     86.05544        13     1.267     0.790  71.97   0
       400    654.7627     64.1061 300.4022561 +22.5952891     501.5576     72.40002      1.463     2.29     4.946433     20.43145     75.24699         8     0.778     0.648  44.13   0
       401    751.3445     60.6064 300.4334773 +22.6231994     2134.021     72.38158      1.179     2.13     4.804924     20.43145     351.0595        17     0.977     0.832  75.41   0
       402    456.8665     59.0883 300.3422755 +22.5345797     399.2918     72.52907      1.219     3.18     4.822084     20.43145     57.39232         8     0.838     0.641  44.03   0
       403    134.4520     55.9687 300.2430285 +22.4370756     1112.485     72.43692      1.552     3.02     4.869678     20.43145     104.1982        15     0.989     0.931 -48.37   0
       404    926.1136     53.9605 300.4901071 +22.6735986     780.7875     72.40002      1.258     2.00     4.876835     20.43145     149.8704        12     0.968     0.790 -38.66   0
       405    699.7894     53.0946 300.4198515 +22.6056049     968.9399     72.36311      1.244     2.59      4.88681     20.43145      142.149        13     0.984     0.760  84.14   0
       406    457.2225     45.6910 300.3467303 +22.5308364     322.5457     72.34466      1.073     2.39     4.822084     20.43145     54.76622         7     0.809     0.576  61.50   0
       407    284.1701     42.6443 300.2938878 +22.4781170     399.1401     72.45536      1.248     2.41     4.792456     20.43145     74.30783         9     0.853     0.652  70.22   0
       408    784.5027     36.9859 300.4514685 +22.6263330     165.6468     72.30772      1.078     4.14     4.762736     20.43145     37.53372         5     0.767     0.638  -2.22   0
       409    687.5861     35.7892 300.4216614 +22.5969758     409.0742     72.32619      1.349     1.99     4.913028     20.43145     47.88031         5     0.662     0.472  72.52   0
       410    552.1430     37.9720 300.3787766 +22.5570472      806.761     72.41847      1.239     2.35     4.959548     20.43145     131.0828        13     1.023     0.730  65.56   0
       411    161.5488     35.4340 300.2581069 +22.4393001     346.3016     72.43692      1.123     2.87        4.781     20.43145     56.76561         7     0.803     0.649 -20.09   0
       412    715.1246     32.7143 300.4312370 +22.6043362     765.5217     72.52907      1.288     1.76     4.824499     20.43145     134.9503         9     0.791     0.628  65.47   0
       413    523.8448     31.0866 300.3722001 +22.5465934     1857.438     72.40002      1.264     2.09     4.877454     20.43145     292.6701        19     1.028     0.857  85.04   0
       414    246.7976     28.5761 300.2868290 +22.4628775     706.6531     72.36311      1.190     2.49     4.751756     20.43145     101.8887        11     0.891     0.756 -26.97   0
       415    481.2253     25.0187 300.3609024 +22.5320851     1365.491     72.43692      1.271     2.29     4.707557     20.43145     243.7917        17     0.998     0.880  30.83   0
       416    586.5755     21.5452 300.3948225 +22.5626365     1378.668     72.45536      1.248     2.29     4.972012     20.43145     194.2915        16     0.992     0.837  66.02   0
       417    181.8834     20.6491 300.2692201 +22.4411481     532.9539     72.41847      1.286     2.12     4.768445     20.43145     87.90534         8     0.758     0.642 -87.78   0
       418    230.4601     18.5487 300.2850007 +22.4551017     492.8402     72.47379      1.410     5.23     4.743244     20.43145      94.7449        10     0.995     0.778  23.23   0
       419    204.1868   1021.2455 299.9510911 +22.7348999     722.0437     68.02415      1.927     5.88     9.813575     20.43145     59.70943        18     1.281     1.076 -25.23  16
       420    492.8604   1021.0617 300.0409205 +22.8215109     410.3973     68.72747      1.370     3.23     2.892653     20.43145     55.69543         8     0.876     0.729  12.30  16
       421    765.1869   1019.4675 300.1262304 +22.9027635     466.3314     72.43692      1.703     4.32     3.008974     20.43145     35.48934         7     1.103     0.482  47.68  16
       422    521.6495   1017.6816 300.0509798 +22.8291817     1549.284     72.43692      1.582     3.68     3.052823     20.43145     141.3206        21     1.167     1.080 -62.33  16
       423     88.3527   1023.3076 299.9144308 +22.7007018      879.422     58.43253      4.446     7.30     33.22574     20.43145     51.74305        15     1.835     0.813   8.16  25
