#   1 NUMBER                 Running object number                                     
#   2 X_IMAGE                Object position along x                                    [pixel]
#   3 Y_IMAGE                Object position along y                                    [pixel]
#   4 ALPHA_J2000            Right ascension of barycenter (J2000)                      [deg]
#   5 DELTA_J2000            Declination of barycenter (J2000)                          [deg]
#   6 FLUX_APER              Flux vector within fixed circular aperture(s)              [count]
#   7 FLUXERR_APER           RMS error vector for aperture flux(es)                     [count]
#   8 FLUX_RADIUS            Fraction-of-light radii                                    [pixel]
#   9 FWHM_IMAGE             FWHM assuming a gaussian core                              [pixel]
#  10 BACKGROUND             Background at centroid position                            [count]
#  11 THRESHOLD              Detection threshold above background                       [count]
#  12 FLUX_MAX               Peak flux above background                                 [count]
#  13 ISOAREA_IMAGE          Isophotal area above Analysis threshold                    [pixel**2]
#  14 A_IMAGE                Profile RMS along major axis                               [pixel]
#  15 B_IMAGE                Profile RMS along minor axis                               [pixel]
#  16 THETA_IMAGE            Position angle (CCW/x)                                     [deg]
#  17 FLAGS                  Extraction flags                                          
         1    423.7926     16.7707 300.3032887 +22.5139078     764.2171     72.41082      1.457     2.79     5.468726     20.42929     113.4234        12     1.015     0.802 -69.47   0
         2    195.0036      6.5671 300.2354139 +22.4424864     3843.188     72.41082      1.611     3.10     5.967862     20.42929     440.5541        35     1.522     1.110  51.04  16
         3    763.2556      7.3612 300.4120806 +22.6127655     645.5605     72.41082      1.407     2.92     5.813567     20.42929     80.13638        10     0.910     0.755 -49.78   0
         4    617.9401      4.2555 300.3678017 +22.5684048     381.1223     69.85743      1.360     3.91     5.647407     20.42929     48.21193         8     1.059     0.619 -47.71  16
         5    520.7457      3.9702 300.3376210 +22.5392425     424.9354     68.81731      1.476     4.31     5.639055     20.42929      49.2119         7     0.736     0.720  63.99  16
         6    193.4718    999.5217 299.9125882 +22.7269529     2144.995      72.5214      3.804    13.88     80.82345     20.42929     64.60052        48     3.282     1.633 -73.15   3
         7    272.0962   1017.8787 299.9310646 +22.7558043     2894.868      72.5214      7.339    40.98     35.06557     20.42929     77.70735       250     8.613     5.411  59.92  27
         8    224.3549    988.8697 299.9256555 +22.7331657     4552.379     72.39237      9.144    40.14     65.96456     20.42929     93.80998       443     9.399     4.758  88.38  19
         9    243.8587    987.5377 299.9321535 +22.7386353     6020.093     72.46613     11.479    44.86     49.21163     20.42929     114.1387       653     9.489     6.719 -89.48  19
        10    262.5272    977.5361 299.9412125 +22.7413687     9320.354      72.4477     12.876    40.47     29.40413     20.42929     189.8617      1074    13.430     5.852  68.86  19
        11    192.1328    980.5590 299.9183403 +22.7211160     1665.851     72.39237      3.824    11.02     64.79446     20.42929     55.55637        36     2.351     1.673  87.85   3
        12    188.6751    978.7109 299.9178665 +22.7195488     758.2672     72.55822      2.880     3.47     63.65221     20.42929     53.25625         5     0.795     0.721  58.73   3
        13     99.0189    921.1705 299.9087126 +22.6761555     4441.142     72.41082     18.261    55.45     10.47471     20.42929     86.99401      1067    12.764     6.969 -32.15   3
        14    950.3641    973.6116 300.1567272 +22.9464448      835.121     72.41082      2.020     6.57     4.140802     20.42929     46.71865        16     1.476     0.955 -27.74   0
        15    185.0214   1001.2626 299.9093947 +22.7249163     459.0485     72.37392      2.046     7.53     82.98389     20.42929     42.31074        10     1.859     0.853 -23.51   1
        16    657.1954    989.7259 300.0600936 +22.8632169     8574.516     72.33701      1.969     4.59     3.922215     20.42929     515.9411        48     1.558     1.432  35.31   3
        17    662.6762    987.5425 300.0625113 +22.8642334      9386.62      72.4477      1.980     4.45     3.896745     20.42929     498.6868        49     1.574     1.421  43.81   3
        18    152.6521    955.0779 299.9143549 +22.7019666     1326.907     72.41082      5.002    11.80     47.41198     20.42929      49.3186        25     4.309     0.900  71.38   2
        19      1.8112    966.2126 299.8638609 +22.6598915     798.0028     59.01768      4.209     4.36    -11.66896     20.42929     32.86518         5     0.869     0.622 -40.64  25
        20    168.7979    958.7798 299.9181700 +22.7078720     1459.139     72.33701      4.387    13.24     50.85834     20.42929     47.27172        41     2.563     1.902  20.73   0
        21    675.5179    956.8795 300.0764870 +22.8592843     6976.533     72.55822      1.917     4.16      3.92234     20.42929      430.779        50     1.555     1.431  39.16   0
        22    112.9718   1013.3394 299.8830703 +22.7067569     3332.862     72.42926     13.581    75.21     89.94844     20.42929     147.7816      1419    17.145     9.155  42.74  27
        23      5.2496    976.4302 299.8616057 +22.6638511     2070.236     72.20765     11.217    16.29    -13.38873     20.42929     59.65324        69     2.892     2.551  44.98  27
        24    826.1269    950.4882 300.1255056 +22.9025848     261.2452     72.55822      1.361     5.20     4.128774     20.42929     35.26416         5     1.025     0.744 -69.91   0
        25    101.0015    952.8878 299.8990138 +22.6858408     5187.922     72.33701     22.845    95.38     33.58202     20.42929     1358.687      3020    17.735    14.233 -26.05  19
        26    556.1053    951.4581 300.0410557 +22.8219331     388.4162     72.48456      1.700     4.13     4.011303     20.42929     36.87003         6     1.030     0.473  53.29   0
        27      2.1100    949.8159 299.8692865 +22.6552831     568.2205     60.55898      3.756     5.43    -5.414632     20.42929     28.71815         5     1.143     0.727 -15.65  24
        28    583.9907    947.5267 300.0510185 +22.8291650     1763.045     72.41082      1.918     4.62     4.015165     20.42929     133.2769        27     1.415     1.259  -7.18   0
        29    477.7861    944.1882 300.0190360 +22.7963659     1050.129     72.33701      1.774     5.00     4.144366     20.42929     74.35039        20     1.334     1.070 -45.56   0
        30    408.4031    941.9297 299.9981754 +22.7749128     6616.898     72.35547      1.891     4.23     4.318777     20.42929     487.9811        45     1.484     1.425  59.25   0
        31    758.3803    991.1429 300.0911622 +22.8939518     657.8308     72.41082      2.241     4.56     4.129771     20.42929     46.67781         8     1.025     0.846 -88.56   2
        32    440.9497    929.0830 300.0124828 +22.7809880     554.7313     72.42926      1.912     6.37     4.274226     20.42929      42.0179        11     1.138     1.001 -12.39   0
        33    187.4699    971.8096 299.9197366 +22.7172090     885.4716     72.39237      2.621     7.24     58.09935     20.42929     35.86869        13     1.587     0.925  -2.14   2
        34    954.7130    920.9820 300.1752036 +22.9326361     2174.465     72.35547      2.045     4.94     4.430163     20.42929     112.5676        33     1.569     1.319   8.56   0
        35    605.1013    917.9194 300.0672230 +22.8269984     461.6172     72.53981      2.136     4.51     3.982019     20.42929       45.395         5     1.183     0.491 -21.73   0
        36    743.8527    909.7086 300.1131233 +22.8662264     908.5255     72.46613      2.268     8.99     4.213472     20.42929     59.21725        24     1.947     1.318 -82.61   0
        37     19.2999   1016.6455 299.8528888 +22.6795903     1370.078     72.42926      9.122    19.76    -9.600613     20.42929     43.69473        63     5.171     2.097 -85.64  27
        38    778.5889    904.1956 300.1257429 +22.8750526     1134.157     72.24464      1.893     5.22     4.230136     20.42929     70.64729        20     1.310     1.126  29.96   0
        39    556.4473    904.2372 300.0565202 +22.8084882     413.4644      72.4477      1.834     3.94     4.250398     20.42929     33.97723         5     1.018     0.643  26.28   0
        40    800.6937    897.6297 300.1347688 +22.8797909     11534.92     72.33701      1.828     3.99     4.246799     20.42929     710.5659        52     1.465     1.430  76.29   0
        41    991.9203    897.8519 300.1943340 +22.9371381     574.3403     72.41082      1.930     5.29     4.570083     20.42929     36.83464         9     1.006     0.787  81.50   0
        42    846.6789    897.8685 300.1490279 +22.8936368     383.3741      72.5214      1.746     5.11     4.246799     20.42929     42.79266         7     1.077     0.684 -52.83   0
        43    231.1425    896.3967 299.9578414 +22.7086918     1034.043     72.37392      8.783     8.74       9.3119     20.42929     31.31466        12     1.745     1.223  61.22   3
        44    224.5414    896.6462 299.9557076 +22.7067833     776.3329      72.4477      5.835     5.30      9.73463     20.42929     31.08328         5     1.008     0.787  86.69   0
        45    112.0172    889.1568 299.9231623 +22.6708796     1116.432     72.42926      5.438     4.75     9.442466     20.42929     71.66642        16     1.309     1.195 -50.29   0
        46     16.0524    994.7704 299.8589960 +22.6723482     1690.366     72.42926     11.838    14.64    -9.125573     20.42929     45.83505        50     3.257     1.829  70.31  19
        47    851.8038    885.8395 300.1545378 +22.8917186     488.6768     72.42926      2.175     4.86     4.280127     20.42929     41.77413         6     1.051     0.638  -5.05   0
        48    505.4957    885.2536 300.0468287 +22.7877675     453.2825     72.48456      1.856     6.20     4.379304     20.42929     32.71355         7     1.207     0.894  29.60   0
        49    809.1551    879.9533 300.1431549 +22.8772516     1494.651      72.4477      1.762     4.15      4.29679     20.42929     102.8328        23     1.300     1.161 -45.52   0
        50    103.3304    879.8152 299.9234999 +22.6655956     604.2477     72.42926      2.560     4.63     7.323257     20.42929     42.31287         5     1.297     0.470 -89.37   0
        51    992.4366    879.1551 300.2005755 +22.9319231      492.931      72.4477      1.551     5.39     4.570986     20.42929     38.29752        11     1.055     0.777   6.14   0
        52    662.4355    877.2349 300.0983138 +22.8325076     380.0936     72.48456      1.781     3.48     4.331758     20.42929     28.46093         5     0.776     0.450  70.76   0
        53    847.4764    873.3013 300.1572658 +22.8868224     818.2357     72.55822      2.053     4.81     4.316231     20.42929     54.70926        14     1.138     0.983 -24.34   0
        54    956.0767    870.9940 300.1918860 +22.9186897     295.4124     72.31854      1.641     4.95     4.521843     20.42929     30.32146         6     1.123     0.617  -0.36   0
        55    895.7809    864.5534 300.1751734 +22.8987804     642.8058      72.4477      1.752     5.38      4.41813     20.42929     55.84197        13     1.129     0.960  -6.56   0
        56    747.2915    863.3339 300.1292758 +22.8539454     716.2545     72.53981      1.844     5.25     4.338959     20.42929     76.11296        11     1.194     0.792 -33.81   0
        57    459.6631    859.7021 300.0408690 +22.7666968     4145.372     72.50298      1.713     3.68      4.48303     20.42929     343.9823        33     1.315     1.246  29.66   0
        58      7.0706    861.6774 299.8994873 +22.6315145     366.5939      72.5214      1.696     4.23     4.996044     20.42929     34.63482         5     1.069     0.476  63.72  16
        59    758.1839    860.7989 300.1334949 +22.8564813     609.9023     72.28159      1.605     4.46     4.339468     20.42929     48.97375        14     1.076     0.976 -39.55   0
        60    238.4979    848.7054 299.9756349 +22.6972235     397.6667     72.59502      1.164     3.31     6.251688     20.42929     35.94398         5     0.732     0.463 -70.57   0
        61    121.2283    848.0211 299.9393994 +22.6618510     319.3596     72.39237      1.785     4.63     6.384638     20.42929     45.07758         6     1.421     0.428 -54.51   0
        62      6.0339   1008.8254 299.8513117 +22.6733679     2769.336     72.41082     14.281    42.60    -23.74072     20.42929     66.16123       492    11.966     4.209  89.14  27
        63    184.9014    845.1911 299.9601124 +22.6801400     748.7593     72.28159      1.888     5.96     7.299407     20.42929      68.6863        16     1.300     0.983  19.82   0
        64    378.7779   1000.4936 299.9699069 +22.7828219     467.0935     72.33701      1.901     4.34     4.259095     20.42929     31.67863         6     1.090     0.491  -5.43   0
        65    162.0750    842.2309 299.9539784 +22.6724443     1475.352     72.41082      1.759     3.82      7.64586     20.42929     146.0149        25     1.390     1.121  30.82   0
        66    693.4502    830.5515 300.1231559 +22.8284025     568.7121      72.4477      2.033     6.06     4.575934     20.42929     36.55123        10     1.190     0.867 -75.97   0
        67    570.6514    994.4496 300.0316004 +22.8386271     2373.192      72.4477      1.909     4.66      4.06553     20.42929     147.3709        32     1.455     1.358  40.36   0
        68    988.1664    830.2450 300.2151469 +22.9165966     2056.306      72.4477      1.867     4.53     4.644355     20.42929     133.6226        28     1.422     1.248  -6.22   0
        69    477.9372    829.9875 300.0562182 +22.7636501     253.7963     72.39237      1.347     5.30      4.64832     20.42929     33.33912         5     1.377     0.577  76.22   0
        70    771.7335    823.9145 300.1497105 +22.8499520     642.6921     72.50298      1.671     3.73     4.348897     20.42929     61.89853        13     1.023     0.965  10.45   0
        71    194.4262    824.2386 299.9698851 +22.6769893     336.2906     72.42926      1.364     2.93     6.257387     20.42929     50.84064         5     0.800     0.583 -37.84   0
        72    639.6696    817.8814 300.1105192 +22.8086502      4783.42      72.5214      1.584     3.49     4.680977     20.42929     450.9612        31     1.219     1.194  39.87   0
        73    129.7245    818.5720 299.9516134 +22.6559571     358.0471     72.41082      1.108     3.83     5.891767     20.42929     51.86304         6     0.941     0.447 -89.17   0
        74    441.5818    815.2054 300.0497072 +22.7485106     600.0529     72.37392      1.541     4.43     4.802275     20.42929     49.84697        12     1.112     0.765 -28.19   0
        75    189.6991    811.4735 299.9725648 +22.6719112     1256.366     72.55822      1.769     4.39     5.769159     20.42929     124.9221        24     1.312     1.247  55.65   0
        76    660.2622    810.4203 300.1193601 +22.8126794     648.5481     72.37392      1.555     5.04     4.776306     20.42929     64.51448        13     1.198     0.820  27.18   0
        77    209.3677    808.5496 299.9796306 +22.6769719     299.4701      72.4477      1.485     4.37     5.536143     20.42929     37.52852         7     1.005     0.541  58.60   0
        78    815.7281    797.6096 300.1719766 +22.8555786       4258.5     72.39237      1.712     3.58     4.377332     20.42929     361.8527        39     1.421     1.296  29.86   0
        79    224.2596    791.9164 299.9896676 +22.6766682     395.4215      72.5214      1.515     4.80     5.166049     20.42929     56.69864         6     0.939     0.694 -35.32   0
        80    532.4752    790.3726 300.0860758 +22.7686303     673.8842     72.41082      1.778     3.86     4.991531     20.42929     63.42549        12     1.148     0.794 -11.24   0
        81    179.0020    787.8412 299.9769205 +22.6619263     988.2114     72.41082      1.728     4.01     5.331814     20.42929     105.7597        18     1.294     1.065   4.63   0
        82    328.7371    780.0717 300.0260128 +22.7046000     53911.32      72.4477      1.666     3.48     4.948715     20.42929     4634.418        98     1.477     1.413  24.80   0
        83    594.2366    783.0735 300.1076821 +22.7850449     512.8306     72.35547      1.480     4.57     4.897203     20.42929     58.04154         8     0.966     0.876 -77.58   0
        84    586.5718    779.2238 300.1065461 +22.7816431     1544.307     72.41082      1.538     3.27     4.917715     20.42929     151.5083        21     1.099     1.077  24.03   0
        85    999.3145    778.5760 300.2354224 +22.9050928     993.2045     72.37392      2.100     5.06     4.784559     20.42929      66.2683        20     1.274     1.133  21.66   0
        86    256.9691    777.7155 300.0044552 +22.6824046     522.9348     72.42926      1.802     6.68     5.058963     20.42929     44.70795        11     1.348     0.929 -85.11   0
        87    615.4736    775.2765 300.1168312 +22.7891709     878.8564     72.50298      1.488     4.07     4.874062     20.42929     86.34991        14     1.169     0.923  17.65   0
        88     14.7400    774.4540 299.9302217 +22.6088151      747.205     72.46613      2.013     5.26     4.959855     20.42929     66.91463        17     1.337     0.944  41.42   0
        89    626.0702    773.3769 300.1207495 +22.7918009     578.6134     72.42926      1.721     5.47     4.884059     20.42929     52.28547        16     1.193     1.040   7.16   0
        90    946.6362    770.8394 300.2215027 +22.8870968     303.5845     72.48456      1.465     4.34     4.719539     20.42929     38.44978         5     1.028     0.522 -40.82   0
        91    732.1358    770.0950 300.1548640 +22.8226373     486.9466     72.50298      1.497     3.99     4.614789     20.42929     45.74722         8     0.835     0.741 -84.14   0
        92    769.8276    760.4677 300.1697408 +22.8311643     836.6812     72.39237      1.708     3.53     4.663679     20.42929     68.55187        15     1.128     0.904  16.29   0
        93    378.4660    757.3317 300.0488759 +22.7129855        31573     72.46613      1.628     3.10     4.929128     20.42929     3167.012        67     1.367     1.328  66.10   0
        94    392.8492    757.7956 300.0532008 +22.7174305     2015.547     72.39237      1.562     3.58     4.927475     20.42929     200.2394        24     1.199     1.118  38.66   0
        95    901.6748    753.4380 300.2131346 +22.8686346      2773.51     72.35547      1.657     3.43     4.756043     20.42929     226.3137        28     1.264     1.199  11.48   0
        96    389.5579    751.8555 300.0541071 +22.7147396     685.4684     72.39237      1.612     3.14     4.932515     20.42929     78.32436        11     0.939     0.829 -36.21   0
        97    659.5054    749.4474 300.1389430 +22.7949499     918.0308     72.42926      1.510     3.18     4.965149     20.42929     95.59282        14     1.007     0.880   2.86   0
        98    260.8861    749.2155 300.0149357 +22.6754048     784.9356     72.35547      1.555     3.77      4.99991     20.42929      77.4818        15     1.118     0.958 -16.80   0
        99    496.1375    749.6196 300.0880074 +22.7460444     518.1597     72.39237      1.613     3.82     4.947924     20.42929      70.3304         8     1.082     0.485  -0.41   0
       100    506.5881    744.2317 300.0930121 +22.7476303      856.326     72.41082      1.624     6.42     4.966908     20.42929     78.69624        19     1.514     1.068 -25.63   0
       101     66.3732    745.1624 299.9557835 +22.6159069     545.9539     72.42926      1.648     3.76     5.020263     20.42929     43.82057         7     1.010     0.568 -10.67   0
       102    907.9747    741.1454 300.2190948 +22.8669903     540.1772      72.4477      1.593     5.20     4.834199     20.42929     50.44742        12     1.226     0.826  49.58   0
       103    408.8283    739.9291 300.0639799 +22.7170943     227.0672     72.41082      1.288     3.88     4.944614     20.42929     44.91195         7     1.042     0.686  33.90   0
       104    452.9978    739.4566 300.0778808 +22.7301982     397.0907     72.37392      1.419     3.42     4.941188     20.42929     41.34421         6     0.783     0.498   0.17   0
       105     94.5397    738.4379 299.9667217 +22.6224274     619.2853     72.42926      1.889     3.64     5.016426     20.42929      54.2308         8     1.004     0.634  17.07   0
       106    885.8161    736.3644 300.2137378 +22.8589815       459.45     72.41082      1.599     4.74     4.847117     20.42929       42.225         8     1.002     0.637 -17.20   0
       107    258.9044    733.7693 300.0193388 +22.6703801       636.45     72.35547      1.667     3.83     4.981141     20.42929     58.06423        10     0.944     0.725  -8.96   0
       108    582.3039    724.1358 300.1231204 +22.7645522     358.1022      72.5214      1.318     4.27     4.962648     20.42929     49.76328         8     1.052     0.575 -33.68   0
       109    551.7344    722.5288 300.1141224 +22.7549308     677.3447      72.4477      1.521     3.10     5.012329     20.42929     76.78787        10     0.890     0.753   1.22   0
       110    461.0112    721.5287 300.0862011 +22.7274553     298.5924     72.42926      1.462     4.30     4.958495     20.42929      49.2781         8     0.989     0.724  22.85   0
       111    968.1215    718.7169 300.2451456 +22.8785569     4598.645      72.5214      1.707     3.66     4.877536     20.42929     344.6134        37     1.335     1.319  12.53   0
       112    573.5534    719.6548 300.1218513 +22.7606440     1430.015      72.4477      1.491     3.01     4.976766     20.42929     163.2195        16     1.004     0.956  -5.20   0
       113    493.6216    719.1651 300.0971209 +22.7365504     393.1359     72.42926      1.501     4.02     4.980484     20.42929     49.99622         6     0.906     0.510  52.16   0
       114    654.8395    714.7192 300.1487752 +22.7835819     390.6847     72.37392      1.527     3.95     4.985582     20.42929     38.71867         6     1.103     0.404 -11.07   0
       115    956.6743    710.1132 300.2443704 +22.8726579     1761.308     72.55822      1.728     3.72     4.881952     20.42929     145.9935        24     1.203     1.169   5.12   0
       116    319.3464    703.9141 300.0478403 +22.6799370     793.7724      72.4477      1.526     3.81      4.92772     20.42929     99.11389        14     1.119     0.917  19.71   0
       117    782.9405    701.4924 300.1929942 +22.8181563     2438.414     72.48456      1.562     3.12     4.908961     20.42929     233.9805        25     1.235     1.059   8.63   0
       118    987.6932    700.2850 300.2572415 +22.8791210     1696.297     72.59502      1.762     4.44     4.886858     20.42929     133.2972        22     1.295     1.121 -65.95   0
       119      5.4351    691.4498 299.9543020 +22.5822279     702.3462     72.42926      1.560     3.76     4.990271     20.42929     87.56018        16     1.161     1.107  -4.06  16
       120    168.2919    687.6494 300.0061484 +22.6299812     734.7536      72.4477      1.778     4.47     5.028383     20.42929     73.33755        17     1.258     1.001   4.44   0
       121    865.1716    687.1299 300.2232991 +22.8386573     566.7683     72.41082      1.607     3.44     4.836335     20.42929     65.76613        11     1.148     0.675  -8.06   0
       122    901.3486    678.3417 300.2374368 +22.8469653     150074.4     72.46613      1.625     3.22     4.870825     20.42929     13446.32       145     1.472     1.447  70.11   0
       123    753.8776    678.8165 300.1913031 +22.8029396     650.4859     72.41082      1.292     3.10     4.890767     20.42929     76.00494        12     0.969     0.821 -23.92   0
       124    934.2291    671.5222 300.2499083 +22.8548508     607.9119     72.41082      1.824     4.10     4.901196     20.42929     59.18008         7     1.050     0.458  12.22   0
       125    587.6158    667.0984 300.1433075 +22.7497702     1538.729     72.31854      1.406     2.89     4.977376     20.42929     192.2638        19     1.077     0.999  10.07   0
       126    768.7978    664.4297 300.2006279 +22.8032764     9534.931     72.37392      1.477     2.77     4.928441     20.42929     1088.501        43     1.266     1.161  46.76   0
       127    270.2149    659.3489 300.0470360 +22.6524225     5055.247     72.41082      1.564     2.98     4.960819     20.42929     533.6072        35     1.297     1.202  50.82   0
       128    352.3474    657.4818 300.0731927 +22.6765071     1147.723      72.4477      1.572     3.24     4.879304     20.42929     134.1174        21     1.248     1.088 -31.92   0
       129    227.8457    655.0051 300.0352703 +22.6384740     479.3875     72.41082      1.589     4.00     5.048624     20.42929      60.2456        11     1.175     0.626  18.60   0
       130    560.5259    653.0906 300.1394214 +22.7376325     842.9988     72.57662      1.473     3.38     5.054416     20.42929     106.2877        15     1.150     0.872  38.18   0
       131    552.1996    645.1380 300.1394119 +22.7328548     3283.295     72.35547      1.422     2.92     5.080615     20.42929     330.3148        26     1.136     1.065  68.88   0
       132    542.5617    639.0242 300.1383966 +22.7282120     1469.158     72.42926      1.429     2.91     5.093313     20.42929     170.0132        18     1.021     0.987  63.12   0
       133    935.9973    636.6238 300.2617978 +22.8453533     447.3677     72.35547      1.474     3.71     4.939421     20.42929     46.24064        11     0.954     0.863 -30.63   0
       134    453.6424    636.0388 300.1116823 +22.7007114     252.7138     72.50298      1.365     4.54     4.908619     20.42929     39.38594         7     0.974     0.601 -34.98   0
       135    205.6387    635.1704 300.0348079 +22.6261262     797.4478     72.42926      1.606     4.44     5.030876     20.42929     70.73347        13     1.110     0.991  28.30   0
       136    219.8374    633.3533 300.0398132 +22.6298618     722.0743      72.4477      1.824     5.83     5.040283     20.42929     68.88178        14     1.373     0.979  50.79   0
       137    989.3071    630.5571 300.2803999 +22.8595685     499.2654     72.42926      1.539     4.33     4.945973     20.42929     50.12661        11     1.143     0.706 -16.39   0
       138    276.7997    630.2844 300.0585253 +22.6460577     539.8798     72.28159      1.717     4.88     4.956696     20.42929      40.5578         7     1.025     0.658  14.76   0
       139    245.7115    630.0901 300.0489194 +22.6366824     552.4511     72.57662      1.731     5.27      5.00785     20.42929     53.71519        13     1.224     0.858  19.71   0
       140    566.7715    629.1754 300.1491353 +22.7326378     460.8828     72.41082      1.291     2.91      5.09892     20.42929     65.08833         9     0.901     0.666  27.60   0
       141    467.3286    628.5950 300.1183606 +22.7026760     1776.843     72.35547      1.456     2.70     4.913355     20.42929     253.1775        19     1.107     0.913  46.81   0
       142    121.1957    623.4480 300.0123635 +22.5974449     20035.18     72.39237      1.699     3.10     4.970031     20.42929     2266.147        66     1.474     1.362  45.22   0
       143     42.2442    625.3039 299.9872247 +22.5743014     803.0527     72.42926      1.876     4.35     4.957921     20.42929     84.02743        15     1.309     0.904 -38.65   0
       144    552.2885    623.7635 300.1463828 +22.7267451     1097.166     72.39237      1.517     4.10     5.116934     20.42929     114.0324        21     1.285     1.036 -31.94   0
       145    587.3911    623.2087 300.1574953 +22.7371020      313.654     72.28159      1.160     2.86     5.103365     20.42929     62.35607         6     0.877     0.558  20.28   0
       146    305.1492    615.2349 300.0722318 +22.6502373     346.4156     72.42926      1.457     5.62     4.906687     20.42929     37.89308         7     1.184     0.751  77.47   0
       147    635.3924    611.6646 300.1761972 +22.7481664     277.7016     72.39237      1.481     4.09     5.081792     20.42929     38.83441         5     1.145     0.417 -53.33   0
       148    970.2580    610.2952 300.2810385 +22.8480439     1077.775     72.48456      1.683     4.81     4.968909     20.42929     96.57098        20     1.453     0.989  11.82   0
       149     67.2736    607.4868 300.0007889 +22.5766977     1694.723     72.55822      2.052     4.80     4.947407     20.42929     136.6359        26     1.544     1.164 -79.89   0
       150    836.9709    608.2681 300.2401256 +22.8075589     427.5616     72.39237      1.383     4.92     4.905828     20.42929     60.83755         8     1.004     0.683  48.93   0
       151    133.8479    608.1005 300.0212809 +22.5968364      458.256      72.4477      1.488     3.94     4.968894     20.42929     51.61544         8     0.902     0.744   5.51   0
       152    515.4189    604.3343 300.1412128 +22.7101209     476.4161     72.37392      1.479     3.87     5.037948     20.42929      68.1144        11     1.049     0.926  71.88   0
       153    909.2084    602.8841 300.2644018 +22.8276392     1051.319     72.35547      2.626     7.73      4.93552     20.42929     61.25737        21     2.135     0.935   7.58   0
       154    309.0669    603.4602 300.0772748 +22.6480328     304.5614      72.4477      1.431     4.63     4.908226     20.42929     42.34446         7     1.298     0.468 -25.91   0
       155    472.2642    596.7363 300.1302449 +22.6950099     670.0997      72.4477      1.370     2.88     4.913372     20.42929     91.08836        13     0.984     0.836  65.43   0
       156    620.0983    595.3350 300.1767367 +22.7388962     424.5342     72.50298      1.277     3.06     5.152801     20.42929     60.72877         8     0.839     0.638  41.08   0
       157    667.5395    594.2216 300.1918782 +22.7527861     436.1084     72.37392      1.435     2.98     5.077569     20.42929      67.5176         7     0.958     0.637   3.24   0
       158    638.0474    593.4049 300.1829551 +22.7437182     696.9669     72.39237      1.336     3.31     5.129025     20.42929     76.74207        12     0.965     0.933   8.96   0
       159    516.8165    592.6960 300.1454279 +22.7071985     916.5588     72.31854      1.515     2.91     5.077202     20.42929     118.4307        16     1.159     0.854  26.51   0
       160    703.2767    591.8317 300.2037900 +22.7628030     229.1106     72.41082      1.177     3.63     4.997779     20.42929     37.26617         7     0.848     0.622  62.43   0
       161    950.4956    588.4097 300.2819819 +22.8358392     3278.105     72.33701      1.571     3.06     4.932258     20.42929     336.5985        27     1.217     1.132   8.17   0
       162    482.0884    588.2184 300.1360697 +22.6955082     1733.696     72.35547      1.382     2.72      4.97479     20.42929     187.1243        20     1.082     0.983 -79.38   0
       163     43.9392    581.5430 300.0019634 +22.5622596     5210.767     72.48456      1.792     3.47     4.947407     20.42929      563.939        37     1.419     1.289  38.39   0
       164    693.4728    579.6129 300.2047034 +22.7563575     229.9412     72.42926      1.053     3.91     5.058291     20.42929     32.23046         5     1.011     0.434 -14.00   0
       165    989.4401    578.3821 300.2973889 +22.8446142     169.7983     72.42926      1.087     3.37     4.964818     20.42929     59.37945         5     0.780     0.421  66.44   0
       166    345.4516    574.8146 300.0978974 +22.6507171     9245.623     72.42926      1.446     2.61     4.922906     20.42929     1254.624        38     1.255     1.113  60.36   0
       167    467.9093    571.8959 300.1369565 +22.6865741     9021.969     72.59502      1.405     2.77     4.982924     20.42929     1133.814        37     1.260     1.065  55.02   0
       168    714.4757    568.3421 300.2149088 +22.7594100     272.4202      72.4477      1.352     3.49     5.003887     20.42929     35.83461         7     0.844     0.649 -17.10   0
       169    879.6369    566.0316 300.2671483 +22.8081976     1900.331     72.41082      1.488     3.10     4.827855     20.42929      198.467        24     1.242     0.996  62.79   0
       170    964.3063    563.4585 300.2943940 +22.8328026     12750.46     72.46613      1.569     2.97     4.914243     20.42929     1354.764        49     1.315     1.272  85.63   0
       171    528.5215    561.5421 300.1591900 +22.7017606     11760.49      72.4477      1.381     2.38     5.196603     20.42929     1627.585        42     1.184     1.136  59.47   0
       172    697.9871    557.4539 300.2133064 +22.7513449     624.4699     72.42926      1.409     4.13     5.098667     20.42929     73.90553         9     0.875     0.706  50.10   0
       173    255.8647    556.8953 300.0758481 +22.6187245     1331.668      72.5214      1.507     3.09     5.024593     20.42929     155.3408        20     1.126     1.035  56.12   0
       174    413.7991    556.1923 300.1252133 +22.6658533     353.3446     72.22614      1.559     4.36     4.787568     20.42929     39.22735         7     0.897     0.604  52.17   0
       175    502.7398    554.5853 300.1534215 +22.6920396     423.1681     72.37392      1.067     2.02     5.153929     20.42929      58.2209         5     0.661     0.473  17.57   0
       176    460.1671    549.7337 300.1417431 +22.6778921     4422.224     72.41082      1.364     2.51     5.009657     20.42929     557.0734        28     1.154     1.027  51.61   0
       177    802.9832    549.9850 300.2484579 +22.7806386     755.7004     72.37392      1.266     2.67     4.873466     20.42929     105.3518        11     0.873     0.795 -60.93   0
       178    438.5357    548.0142 300.1355681 +22.6709175     1143.399     72.37392      1.387     2.48     4.899112     20.42929     164.2844        16     0.982     0.941  36.90   0
       179    192.7465    547.6107 300.0592349 +22.5971409     659.4875     72.41082      1.488     3.37     4.951856     20.42929     75.64089        15     1.113     0.904 -47.54   0
       180    880.1288    545.3706 300.2740113 +22.8024080     1603.866     72.41082      1.566     3.15     4.781915     20.42929     161.6656        23     1.325     1.006 -39.95   0
       181    126.2921    545.5511 300.0392440 +22.5766281     179.1824      72.4477      1.020     3.25     4.911332     20.42929     45.72464         7     0.863     0.618  67.27   0
       182    576.8142    537.2629 300.1821133 +22.7092551     204482.5     72.37392      1.377     2.52     5.326938     20.42929        25157       192     1.406     1.383  -3.56   0
       183    760.3445    542.2816 300.2376676 +22.7656590     775.6642      72.4477      1.360     3.22     4.900218     20.42929     106.0269        14     1.143     0.735  60.90   0
       184    400.2602    543.2717 300.1251952 +22.6580877     398.7271      72.4477      1.323     3.89     4.853481     20.42929     46.59348         6     0.770     0.563  33.00   0
       185    262.9044    537.1434 300.0844510 +22.6151664     3500.082     72.48456      1.466     2.91      5.05115     20.42929     361.5753        29     1.228     1.095  58.58   0
       186    829.1647    533.4922 300.2619763 +22.7837383     578.9138     72.35547      1.442     2.95     4.831246     20.42929     65.54855         7     0.904     0.654   4.44   0
       187    442.0037    533.2872 300.1414294 +22.6677287      246.964     72.33701      1.507     4.67     4.963131     20.42929     34.39254         5     0.939     0.659  29.45   0
       188    847.7570    531.7648 300.2683345 +22.7888078     307.3644     72.46613      1.288     3.35     4.802483     20.42929     43.74546         5     0.832     0.621  31.25   0
       189    467.3780    517.8239 300.1543488 +22.6708912     2806.689     72.37392      1.555     2.77     5.143881     20.42929     336.4065        28     1.521     0.961  88.84   0
       190    311.4918    519.8998 300.1051632 +22.6247791     462.8679     72.57662      1.553     3.59     5.132138     20.42929     53.33431         9     0.926     0.764 -82.58   0
       191    878.8977    514.5632 300.2836309 +22.7931866      218.128     72.41082      1.159     4.03     4.799125     20.42929      41.3992         7     1.037     0.477  46.42   0
       192    698.1589    513.2032 300.2277286 +22.7386856     328.0511     72.42926      1.251     3.60      5.16181     20.42929     39.85849         6     0.904     0.458  35.13   0
       193    784.4032    506.2990 300.2568507 +22.7625245     484.3312     72.30007      1.398     2.89     4.909925     20.42929     49.45202         8     0.876     0.620  74.64   0
       194    864.4244    503.9264 300.2825709 +22.7857976     1609.619      72.4477      1.413     2.60      4.77826     20.42929     201.4691        23     1.146     1.042 -74.63   0
       195    735.6911    501.4335 300.2432466 +22.7465424     2535.079     72.37392      1.372     2.50     5.027331     20.42929     324.5424        24     1.153     0.983  56.80   0
       196     95.3947    501.7671 300.0438554 +22.5548043     333.6128     72.39237      1.636     4.79     4.985098     20.42929     33.05431         5     1.022     0.636 -22.36   0
       197    374.5067    501.3483 300.1307923 +22.6383366     182.5731     72.48456      1.353     3.84     5.122718     20.42929     38.31638         5     0.988     0.428 -13.63   0
       198    979.9496    499.3433 300.3200940 +22.8190564      419.309     72.46613      1.314     2.17      4.96022     20.42929     72.52654         8     0.788     0.636  29.41   2
       199    978.6673    494.7358 300.3211899 +22.8173483      795.619     72.46613      1.651     4.67     4.961809     20.42929     79.81681        15     1.502     0.822 -72.95   2
       200    992.9831    495.7794 300.3253178 +22.8219323     1263.556     72.39237      1.524     3.34     4.970001     20.42929     133.6847        21     1.228     1.014  81.61   0
       201    945.2184    498.2475 300.3096144 +22.8083475     219.9162      72.4477      1.365     3.81     4.935894     20.42929     37.27032         5     1.008     0.413  45.53   0
       202    640.4949    498.3205 300.2145936 +22.7171430     355.3128      72.5214      1.158     2.99     5.409409     20.42929     53.59171         7     0.892     0.533  27.46   0
       203    522.8654    497.3804 300.1782617 +22.6816429     712.9386     72.39237      1.267     2.60     5.530451     20.42929     90.53287        11     0.903     0.755 -36.11   0
       204    864.7668    493.8771 300.2859404 +22.7830122     2258.502     72.41082      1.625     3.94     4.776746     20.42929     255.3673        31     1.602     1.046  74.03   0
       205    617.8957    492.0574 300.2095866 +22.7085762     751.5623     72.48456      1.697     2.82     5.531199     20.42929     71.15997        10     0.870     0.748  11.90   0
       206    456.6468    490.8515 300.1597649 +22.6599322     384.6071      72.4477      1.228     3.38     5.180021     20.42929     53.44932         7     0.845     0.606  12.35   0
       207    403.9490    491.4778 300.1431591 +22.6443244     259.3558     72.39237      1.470     4.86     5.051216     20.42929     30.39861         7     1.029     0.788  31.87   0
       208    544.1171    488.5369 300.1877503 +22.6854688     210.2866     72.50298      1.143     2.56     5.725134     20.42929     49.54282         5     0.724     0.461 -19.77   0
       209    902.8727    489.0416 300.2993945 +22.7930281     4341.451     72.39237      1.436     2.83     4.878785     20.42929     489.8553        31     1.175     1.124  60.48   0
       210    563.7911    484.8532 300.1950732 +22.6903034      248.757     72.41082      1.349     4.63     5.720038     20.42929     40.26036         8     1.190     0.646 -44.03   0
       211    994.5903    479.7023 300.3310388 +22.8177917     752.4243     72.31854      1.316     3.22     4.973845     20.42929     106.8156        13     1.081     0.789  51.74   0
       212    134.8079    479.2437 300.0634176 +22.5601572     1005.736     72.42926      1.703     3.72      5.00122     20.42929     83.71283        18     1.177     1.001 -20.42   0
       213    795.2617    472.6854 300.2711485 +22.7561170     291.2216     72.53981      1.953     4.07     4.915596     20.42929     36.22871         6     1.071     0.441  58.80   0
       214    400.8151    472.5404 300.1483313 +22.6379487      303.994     72.37392      1.266     2.65     5.137733     20.42929     39.38167         5     0.717     0.456  21.25   0
       215    991.1161    468.7657 300.3335053 +22.8136082     232.0984     72.37392      1.374     3.22     5.016475     20.42929      40.0224         5     0.722     0.680  44.95   0
       216    127.8233    469.1781 300.0645136 +22.5551754     499.5131     72.41082      1.619     2.73     5.056704     20.42929     46.66266         6     0.735     0.560 -42.70   0
       217    735.1092    463.5699 300.2553573 +22.7354899     491.9041     72.37392      1.723     2.96     5.082394     20.42929     63.51104         6     1.015     0.346  49.02   0
       218    624.0047    461.2488 300.2214910 +22.7015564     412.1276     72.39237      1.289     2.30      5.52178     20.42929      60.3367         7     0.692     0.651  40.86   0
       219    676.2238    459.5640 300.2383071 +22.7167086     754.3801     72.42926      1.248     2.34     5.261843     20.42929     99.25227         8     0.791     0.637  46.84   0
       220    655.2136    457.9556 300.2322828 +22.7099556     179.6564     72.42926      1.026     3.80     5.361498     20.42929     31.40831         5     0.809     0.513  35.13   0
       221    991.1126    452.1958 300.3388832 +22.8088436     660.4711     72.33701      1.576     3.18     5.082314     20.42929     72.74716        11     1.130     0.649  26.07   0
       222    737.1804    451.7283 300.2598467 +22.7327077     757.3492      72.4477      1.283     2.53     5.076311     20.42929     113.6728        14     1.083     0.767  64.43   0
       223    894.4725    448.1701 300.3100426 +22.7787670     1057.764     72.41082      1.376     2.60     5.061592     20.42929     128.2975        13     1.063     0.736  21.96   0
       224    852.3176    445.6883 300.2977018 +22.7654371     84.31038      72.5214      1.051     3.84     5.023835     20.42929     38.35975         5     0.900     0.469 -44.89   0
       225    878.7050    444.3558 300.3063632 +22.7729518     658.1129     72.42926      1.288     2.50     5.066396     20.42929     78.56801        11     0.896     0.751 -42.24   0
       226    858.8755    444.4879 300.3001364 +22.7670549     274.2994     72.53981      1.288     2.92     5.043147     20.42929     42.71109         6     0.962     0.436  59.79   0
       227    622.8631    442.1571 300.2273324 +22.6957304     3265.451     72.41082      1.313     2.43     5.498669     20.42929     431.8427        26     1.081     1.019  70.28   0
       228    983.0391    441.2455 300.3399186 +22.8032799     540.1542     72.48456      1.263     3.71     5.127258     20.42929     67.56164         8     0.928     0.632  53.43   0
       229     99.1695    433.2263 300.0672758 +22.5362708     404.4207     72.41082      1.446     3.24     5.287771     20.42929     41.40232         8     0.828     0.653 -44.79   0
       230    628.4403    430.2175 300.2329451 +22.6939706     314.8604     72.42926      1.217     3.34     5.459852     20.42929     36.41361         5     0.765     0.422  65.87   0
       231    394.9702    429.8303 300.1603750 +22.6239351     366.7281     72.39237      1.252     2.43     5.324717     20.42929     55.41182         6     0.761     0.640  -8.32   0
       232    462.5372    429.2398 300.1815974 +22.6440052     364.9323     72.41082      1.353     3.59     5.502067     20.42929     47.73898        10     0.970     0.698   5.30   0
       233    992.7144    420.1017 300.3498004 +22.8000961     939.0262     72.57662      1.488     3.10     5.205353     20.42929     105.3469        15     1.009     0.918 -32.57   0
       234    906.1234    421.1772 300.3224379 +22.7744950     594.1109     72.41082      1.331     3.65     5.225266     20.42929     70.17027         9     0.897     0.745  10.15   0
       235    642.4628    418.7362 300.2410399 +22.6948709     325.0771      72.4477      1.548     3.44     5.390955     20.42929     30.95287         5     0.746     0.459 -70.58   0
       236    733.7151    416.2005 300.2702981 +22.7214620     1009.598     72.28159      1.280     2.72     5.086745     20.42929     122.3246        14     0.969     0.805 -11.92   0
       237    529.2895    416.7225 300.2064432 +22.6604030     514.9055     72.53981      1.371     2.72     5.645421     20.42929     69.04137         8     0.930     0.538  71.67   0
       238    237.5960    414.0583 300.1165337 +22.5722562     776.1755     72.37392      1.557     4.46      5.32227     20.42929     79.59282        14     1.297     0.870  55.05   0
       239     76.9947    412.3749 300.0671508 +22.5236410     280.1631     72.39237      1.306     3.85     5.406314     20.42929     36.09056         5     0.876     0.484   0.33   0
       240    299.8519    409.9046 300.1372458 +22.5897178     3711.103     72.48456      1.401     2.77     5.423381     20.42929      482.696        28     1.164     1.043  55.17   0
       241    247.0213    404.6884 300.1225057 +22.5723910     7886.622     72.33701      1.476     2.77      5.37455     20.42929      889.202        39     1.269     1.184  59.54   0
       242    751.5714    405.2274 300.2794249 +22.7236540     338.7544     72.37392      1.488     3.35      5.09573     20.42929     36.24166         5     0.756     0.430 -66.72   0
       243    625.5765    404.2104 300.2404934 +22.6856418     344.8293     72.41082      1.426     3.42     5.452353     20.42929     40.69305         5     0.840     0.567  39.07   0
       244   1012.9677    399.5491 300.3627906 +22.8002464     1883.329      72.4477      1.574     3.39      5.26047     20.42929     210.0597        25     1.285     1.117  68.90   0
       245    387.7896    398.9888 300.1681494 +22.6129286     4911.969     72.30007      1.385     2.60     5.503973     20.42929     670.2034        32     1.220     1.050  52.66   0
       246    632.0359    395.7514 300.2452508 +22.6851457     18844.25      72.4477      1.350     2.42     5.434546     20.42929     2808.155        50     1.215     1.102  68.40   0
       247    649.6964    395.8603 300.2507176 +22.6904645     839.2507     72.48456      1.655     5.29     5.376947     20.42929     80.50986        18     1.557     0.879 -36.37   0
       248    479.7997    397.3989 300.1973049 +22.6400315     223.6349     72.18916      1.458     2.93     5.638232     20.42929     33.23662         5     0.738     0.437 -21.75   0
       249    829.0887    386.3084 300.3097306 +22.7414185     312.0902     72.57662      1.105     2.05     5.197432     20.42929     66.80322         6     0.706     0.544  53.17   0
       250    252.0822    383.3327 300.1310095 +22.5677771     433.3828      72.5214      1.684     2.67     5.486664     20.42929     42.44051         5     0.850     0.469  -3.81   0
       251    965.7388    378.3496 300.3549339 +22.7800210     956.0365     72.46613      1.940     4.06     5.283046     20.42929     91.33206        18     1.376     0.918 -68.83   0
       252    675.9249    376.8120 300.2650711 +22.6928439     273.7069     72.42926      1.296     3.34     5.323064     20.42929      38.3518         5     0.791     0.498 -48.12   0
       253    186.5974    375.9017 300.1130564 +22.5460221     2138.021     72.31854      1.533     2.59     5.423162     20.42929     274.4589        27     1.322     1.106 -17.80   0
       254    986.5311    365.7399 300.3655131 +22.7826160     1217.374      72.4477      1.490     2.71     5.329343     20.42929     150.0992        18     1.123     0.987 -70.61   0
       255    572.7319    365.2087 300.2366888 +22.6586148     6787.025     72.39237      1.293     2.33     5.521661     20.42929     865.5161        36     1.150     1.066  45.77   0
       256    287.3026    364.3345 300.1481289 +22.5728754      718.716      72.5214      1.323     3.09       5.7232     20.42929      90.8344        13     1.018     0.847  38.14   0
       257    144.8891    357.9058 300.1059280 +22.5283584     502.5671     72.59502      1.348     3.36     5.488886     20.42929     68.82903         9     1.097     0.636 -10.43   0
       258    832.7034    357.1890 300.3203068 +22.7341303     278.9122     72.31854      1.209     3.04     5.241581     20.42929     41.96139         7     0.833     0.588  62.81   0
       259    686.4510    355.5823 300.2752397 +22.6898947      510.536     72.41082      1.198     2.49     5.322462     20.42929     74.97708         8     0.750     0.739  52.25   0
       260    776.7456    354.3294 300.3037886 +22.7165616     1218.474      72.4477      1.494     2.54     5.211928     20.42929     174.6143        16     1.074     0.857  67.72   0
       261    479.3313    351.4441 300.2120705 +22.6266924     6162.489     72.37392      1.326     2.35     5.649083     20.42929     791.5786        35     1.198     1.035  61.65   0
       262    968.8109    346.2381 300.3663122 +22.7717072     634.5182     72.41082      1.389     3.03     5.323029     20.42929     87.49337        10     0.988     0.693 -20.54   0
       263    871.3131    345.9066 300.3360074 +22.7424408     1470.786     72.59502      1.415     2.63     5.251277     20.42929     190.9883        17     1.022     0.956 -46.91   0
       264    464.1729    340.2896 300.2109703 +22.6189490     431.5564     72.39237      1.336     2.94     5.661745     20.42929     52.73958        11     0.858     0.850 -85.84   0
       265    546.4012    338.0863 300.2372883 +22.6429391     575.6522     72.31854      1.483     2.56     5.510693     20.42929     70.59556         7     0.819     0.596  64.85   0
       266    526.8970    335.8571 300.2319378 +22.6364587     214.3916     72.50298      1.284     4.38     5.539239     20.42929     43.32948         8     0.921     0.747 -80.31   0
       267    844.1263    333.4689 300.3315648 +22.7307301     680.0254     72.48456      1.510     3.06     5.260673     20.42929      80.2485        11     0.934     0.831  82.20   0
       268    366.9066    330.5777 300.1838475 +22.5870288      2575.45     72.31854      1.360     2.59     5.841283     20.42929     362.8914        23     1.118     0.941  49.25   0
       269     85.3291    327.9624 300.0971287 +22.5019156     1165.081     72.39237      1.704     2.81     5.556254     20.42929     124.0081        16     1.044     0.899  35.93   0
       270    714.5906    325.3100 300.2938305 +22.6896183     386.8296     72.33701      1.609     3.81     5.285765     20.42929     44.69073         6     0.902     0.462  -0.51   0
       271    336.2135    319.9985 300.1777290 +22.5747973      29752.3     72.24464      1.391     2.75     5.861264     20.42929     3456.243        63     1.314     1.157  63.45   0
       272    870.8781    317.7778 300.3449979 +22.7342240     1389.374     72.39237      1.299     2.22     5.268735     20.42929      223.648        15     0.926     0.865  16.58   0
       273    826.1926    315.5901 300.3317733 +22.7202241     298.3549     72.28159      1.435     3.41     5.272369     20.42929     28.83239         5     0.762     0.442 -20.35   0
       274     32.6335    307.7963 300.0872943 +22.4803356         5012     72.41082      1.684     3.09     5.774243     20.42929     580.6866        41     1.420     1.277  15.19   0
       275    786.2990    306.6924 300.3222218 +22.7057284     455.9134     72.59502      1.198     2.98       5.2753     20.42929     77.05684         9     0.937     0.688 -22.46   0
       276    210.3835    306.4401 300.1429873 +22.5332097     391.9489     72.42926      1.091     2.89     5.518584     20.42929     67.72861         7     0.931     0.525 -47.19   0
       277    435.0337    305.3235 300.2132428 +22.6001795     483.0025     72.41082      1.301     3.57     5.648469     20.42929     68.80043        10     1.042     0.733 -71.41   0
       278    746.6860    299.7889 300.3121131 +22.6918892     1877.123     72.35547      1.413     2.59     5.281093     20.42929     269.3958        23     1.146     1.005  72.06   0
       279    555.0439    294.4844 300.2541245 +22.6330002      299.397     72.37392      1.306     1.79     5.499127     20.42929     71.50146         5     0.668     0.451  25.93   0
       280    961.8940    292.9890 300.3814297 +22.7543261     558.6887     72.35547      1.316     2.79     5.309709     20.42929     82.23345        10     0.919     0.689  29.85   0
       281    408.4213    284.2582 300.2117925 +22.5861594     2186.176     72.41082      1.585     3.22     5.649645     20.42929     268.4357        25     1.377     0.983  57.30   0
       282    620.8163    283.3732 300.2782156 +22.6494975     380.7451     72.42926      1.380     3.36     5.472035     20.42929     62.56554         7     1.028     0.498  66.06   0
       283    840.1700    278.4054 300.3481939 +22.7137164     297.4442     72.41082      1.721     3.86     5.291649     20.42929     38.18583         5     0.954     0.664  79.64   0
       284    847.7143    277.3857 300.3508772 +22.7156805     658.3125     72.35547      1.376     2.66     5.291467     20.42929     94.16172        10     0.955     0.651  52.04   0
       285    747.4550    274.9828 300.3203992 +22.6849892     322.2057     72.39237      1.426     3.97     5.311428     20.42929     36.04874         5     0.762     0.616  -2.66   0
       286    729.9292    275.0585 300.3149121 +22.6797661     409.2844      72.4477      1.347     3.00     5.329565     20.42929     63.56076         9     0.921     0.748 -80.71   0
       287    698.2099    274.6000 300.3051754 +22.6701413     252.9969     72.22614      1.312     4.14     5.397081     20.42929     31.77167         7     1.013     0.484   4.94   0
       288    808.9866    268.9723 300.3415306 +22.7016740     243.6312     72.41082      1.584     3.53     5.293815     20.42929     35.16502         5     0.973     0.372  31.57   0
       289    484.2623    263.8142 300.2420318 +22.6029967     1218.082     72.37392      1.348     2.48     5.413452     20.42929     158.7453        15     1.033     0.800  31.14   0
       290    569.4927    261.8053 300.2692242 +22.6279362     316.2451     72.30007      1.288     4.19     5.399083     20.42929     33.50426         5     0.858     0.584 -44.33   0
       291    995.1698    259.6638 300.4026218 +22.7546955     391.1948     72.42926      2.230     5.14     5.371024     20.42929     44.76863         8     1.371     0.544  68.34   0
       292    729.2621    255.8345 300.3209394 +22.6740407     2168.272     72.42926      1.329     2.39     5.342302     20.42929     315.1604        20     1.032     0.935   6.03   0
       293    990.5851    250.1918 300.4042634 +22.7506000     3168.037     72.31854      1.494     2.73     5.366882     20.42929     372.6938        29     1.301     1.096  89.18   0
       294    437.3543    239.5444 300.2352999 +22.5819793     614.1296      72.4477      1.207     3.34     5.363022     20.42929     82.88878        12     1.137     0.726  41.32   0
       295    112.3354    233.7140 300.1360903 +22.4829557     1397.219     72.50298      1.792     3.30     5.832551     20.42929      138.175        27     1.498     1.146 -17.82   0
       296    142.9508    233.6629 300.1456240 +22.4921135     624.6029     72.46613      1.461     3.35     5.871501     20.42929     74.90359        11     1.037     0.761  -4.43   0
       297   1006.0115    230.7497 300.4153825 +22.7496217     505.6991      72.4477      1.346     3.32     5.374199     20.42929     69.18931         9     0.957     0.636  49.04   0
       298    849.8778    227.1459 300.3678462 +22.7018827     161.2992      72.4477      1.334     4.80     5.293328     20.42929     30.67615         7     1.296     0.504  70.22   0
       299    196.3399    225.9173 300.1647352 +22.5058838      434.096      72.5214      1.422     3.89     5.937948     20.42929     53.43066        10     0.939     0.786 -66.06   0
       300    991.8712    223.2178 300.4134128 +22.7432263     423.6162     72.42926      1.534     3.88     5.372554     20.42929     47.15941         6     0.891     0.492 -31.59   0
       301    872.6144    219.5400 300.3774032 +22.7064974     377.6455     72.37392      1.350     2.93     5.299336     20.42929      66.7719         5     0.752     0.434 -23.46   0
       302    801.0035    217.2053 300.3558306 +22.6844023     677.9234     72.22614      1.295     2.96     5.301441     20.42929     86.98564        10     0.935     0.739  45.26   0
       303    390.9795    216.8494 300.2282252 +22.5615738     490.8466     72.41082      1.528     2.10     5.298536     20.42929      65.2649         6     0.721     0.516  28.50   0
       304    899.0490    206.3110 300.3899378 +22.7106007     2141.752     72.39237      1.407     2.52     5.326391     20.42929     286.7331        25     1.127     1.081 -87.68   0
       305    317.5394    203.3448 300.2097518 +22.5357027     2295.611     72.48456      1.424     2.47     5.644664     20.42929     298.5809        26     1.191     1.046  58.69   0
       306    395.3821    198.4935 300.2355473 +22.5576190     1085.282     72.33701      1.512     2.86     5.290286     20.42929      114.537        16     0.997     0.948  33.95   0
       307    146.7761    199.2450 300.1579731 +22.4833780     326.0833     72.42926      1.377     4.10     5.965078     20.42929     38.84447         6     1.138     0.563  23.69   0
       308    797.4406    197.9590 300.3609607 +22.6778027     590.2969     72.48456      1.309     3.27     5.316255     20.42929     70.22398        12     1.058     0.748  33.47   0
       309    904.5206    195.0972 300.3952806 +22.7090123      450.039     72.53981      1.474     2.88     5.334041     20.42929     47.85809         8     0.857     0.645 -29.63   0
       310    212.3933    190.7546 300.1811284 +22.5005956     773.9479     72.42926      1.433     2.98     5.966212     20.42929      102.199        11     0.991     0.741   0.91   0
       311    815.0230    187.2627 300.3699108 +22.6799873     629.1993     72.39237      1.444     3.18     5.300508     20.42929     71.19136        10     0.998     0.718  66.23   0
       312    750.0748    187.5040 300.3495850 +22.6606252     1691.618     72.55822      1.327     2.48     5.546897     20.42929     273.6333        20     1.094     0.969  82.11   0
       313    233.7731    184.0434 300.1899532 +22.5050720     537.1121     72.42926      1.352     3.25     5.966783     20.42929       73.625        10     0.884     0.820  46.08   0
       314   1021.7930    180.1759 300.4367070 +22.7397933     772.7729     65.86221      1.363     3.62      5.50962     20.42929      93.3568        14     1.122     0.978 -69.23  24
       315    523.4492    180.0463 300.2813972 +22.5906595     360.4017     72.42926      1.614     2.89     5.314987     20.42929     48.88518         5     0.775     0.554   5.01   0
       316    754.3389    179.0528 300.3536543 +22.6594712     756.0517     72.46613      1.295     2.83     5.574574     20.42929     90.15604        12     0.960     0.787  33.25   0
       317    674.6030    178.5235 300.3289756 +22.6354606     1040.752     72.31854      1.180     2.18     5.456814     20.42929     180.2879        15     0.944     0.813  49.14   0
       318    495.9816    174.6774 300.2745850 +22.5808945     464.8637     72.41082      1.502     3.42     5.303049     20.42929     57.81342         7     0.966     0.647  66.63   0
       319    870.1692    169.9157 300.3927315 +22.6914953     1541.435     72.42926      1.459     2.60     5.304777     20.42929     198.8951        17     1.001     0.956 -86.63   0
       320    601.0513    170.1343 300.3087801 +22.6110379     1086.695      72.4477      1.411     3.00     5.352524     20.42929     125.8988        16     1.096     0.941  76.70   0
       321    882.4282    169.2095 300.3967837 +22.6949591     847.3546     72.41082      1.529     3.78     5.316494     20.42929      100.096        14     1.209     0.823  27.06   0
       322     67.4167    168.6117 300.1432367 +22.4508084     282.0112     72.35547      1.255     3.36      6.25307     20.42929     37.82885         5     0.984     0.333  66.89   0
       323    928.4081    168.2833 300.4114259 +22.7084451     369.8294     72.35547      1.610     2.93      5.36096     20.42929     35.19102         5     0.706     0.471  74.36   0
       324    999.0100    159.4041 300.4363321 +22.7270049     1021.609     72.24464      1.297     2.78     5.509671     20.42929     161.1413        16     1.078     0.876  89.15   0
       325     22.4801    155.2934 300.1335900 +22.4335217     483.0109     72.53981      1.753     3.53     6.586815     20.42929      59.6435         8     0.928     0.742  32.16   0
       326    233.0373    152.5036 300.1999491 +22.4957938     750.5065     72.41082      1.494     2.91     5.982873     20.42929     95.74382        10     0.926     0.733  -2.82   0
       327    115.5968    150.9043 300.1639520 +22.4601582     358.9424     72.31854      1.518     4.44      6.01796     20.42929     30.62744         5     1.172     0.479  84.39   0
       328     94.7002    146.8551 300.1587692 +22.4527357     2151.239     72.50298      1.609     3.12     6.034818     20.42929     251.1522        31     1.349     1.166  46.81   0
       329    918.0654    144.3295 300.4159655 +22.6984619     800.8162      72.4477      1.345     2.61     5.444493     20.42929     97.86145        10     0.811     0.805 -55.14   0
       330     44.0116    143.6379 300.1440587 +22.4366267     625.8918     72.41082      2.149     4.20     6.351149     20.42929     63.88246         9     1.255     0.650 -19.44   0
       331    252.1883    140.2439 300.2098795 +22.4980080     5471.075     72.41082      1.418     2.72     5.975424     20.42929     609.5259        31     1.258     1.044  56.44   0
       332     36.3804    134.6883 300.1445882 +22.4317711     1215.356     72.35547      1.528     3.36     6.335369     20.42929     154.7339        17     1.112     1.012  28.60   0
       333    235.9381    131.2406 300.2077437 +22.4905556     541.8479     72.39237      1.266     2.17     5.978934     20.42929     75.93196         8     0.761     0.623 -34.85   0
       334    896.3391    122.0356 300.4164156 +22.6855516     3710.509     72.42926      1.454     2.67     5.602406     20.42929     410.2903        32     1.244     1.086  59.99   0
       335   1000.1276    120.8377 300.4491834 +22.7162439     2862.293     72.37392      1.550     2.97     5.392764     20.42929      320.149        31     1.247     1.172  86.07   0
       336    445.8082    117.3477 300.2775489 +22.5494014     626.8583     72.41082      1.306     2.66     5.404769     20.42929     85.87876        11     0.919     0.766 -14.00   0
       337    198.2822    117.7509 300.2004055 +22.4754040     367.5578     72.41082      1.366     3.82      6.00532     20.42929     50.83332         6     1.103     0.380  11.47   0
       338    560.4111    115.2318 300.3139192 +22.5830948     207.9625     72.41082      1.132     2.86     5.447429     20.42929     38.74915         5     0.707     0.472  74.62   0
       339    369.7754    109.1282 300.2565481 +22.5242783     627.5198      72.4477      1.407     2.68      5.32288     20.42929     86.57384         9     0.879     0.686  18.60   0
       340    373.8447    107.7527 300.2582603 +22.5251014     494.1923      72.4477      1.757     3.96     5.333103     20.42929     47.99866         8     0.950     0.846  50.66   0
       341    904.7487    107.5389 300.4237377 +22.6838968     262.3635     72.46613      1.024     3.01     5.674909     20.42929     36.21453         5     0.720     0.457  20.86   0
       342    135.9704    105.8636 300.1848842 +22.4533275     642.4437     72.42926      1.648     3.31     6.046079     20.42929     78.78329        14     1.140     0.918 -63.99   0
       343    497.2046    104.2963 300.2977805 +22.5610349     1700.157     72.31854      1.312     2.83     5.436373     20.42929     210.3534        19     1.113     0.866  61.53   0
       344    425.5730    105.1765 300.2751950 +22.5398467     468.2474     72.39237      1.231     2.09     5.432529     20.42929     81.56575         7     0.732     0.603  64.86   0
       345     34.3643    105.1720 300.1535282 +22.4226931     271.2276     72.42926      1.212     3.87     6.120264     20.42929     34.23506         6     0.748     0.633 -32.11   0
       346    558.5563    103.5466 300.3171290 +22.5791811     397.3346      72.4477      1.357     3.41     5.466352     20.42929     55.85503         7     0.937     0.719  33.35   0
       347    240.3009    100.2271 300.2191525 +22.4829543     334.1684     72.35547      1.307     2.74     5.970271     20.42929     57.29512         7     0.837     0.593 -26.01   0
       348    785.8099     94.0866 300.3910083 +22.6444542     400.8515     72.35547      1.372     3.86     5.865438     20.42929     45.58789         9     0.965     0.680  -8.31   0
       349    271.1520     84.1183 300.2339691 +22.4875650      5824.17     72.42926      1.443     2.85     5.829683     20.42929     616.3771        39     1.354     1.131  60.50   0
       350    777.2944     84.9267 300.3913223 +22.6392728     474.5442     72.55822      1.505     3.75     5.852028     20.42929     43.95924         8     0.963     0.642 -82.47   0
       351    122.2697     83.2677 300.1879480 +22.4427351     839.9826     72.46613      1.712     4.37     6.054854     20.42929     92.03837        15     1.330     0.816  72.56   0
       352    243.0288     78.3119 300.2271032 +22.4774761     358.3676     72.41082      1.354     2.76     5.892581     20.42929     58.57444         6     0.806     0.624  32.55   0
       353    746.8205     75.6663 300.3848240 +22.6274941     155.2005     72.39237      1.060     3.35     5.807097     20.42929     34.22577         5     0.752     0.437  16.71   0
       354     32.6525     74.5440 300.1629219 +22.4133866     484.7789      72.4477      1.592     4.62     6.060241     20.42929     55.97064         8     1.222     0.496   2.07   0
       355    517.2495     69.5385 300.3152868 +22.5570441     6354.405     72.46613      1.439     2.52     5.505622     20.42929      798.998        39     1.252     1.159  79.71   0
       356    402.8814     69.4931 300.2796965 +22.5228003     619.9503     72.55822      1.158     2.75     5.478003     20.42929     92.58845         9     0.915     0.659   7.35   0
       357    711.1868     60.7228 300.3785604 +22.6125374     327.8337     72.42926      1.435     3.79     5.781793     20.42929     48.04548         8     1.038     0.712  72.60   0
       358    769.8397     59.2041 300.3973346 +22.6296454     776.2554     72.42926      1.385     3.31     5.837118     20.42929     84.93439        10     1.015     0.643  65.37   0
       359    862.1712     58.6693 300.4262969 +22.6571062     351.4802     72.41082      1.164     2.33     5.948997     20.42929     57.32891         7     0.781     0.589  31.12   0
       360    210.5299     53.1444 300.2251514 +22.4605152     396.8514     72.42926      1.360     3.69     5.964941     20.42929     54.66732         6     0.788     0.497  85.25   0
       361    645.6887     49.6776 300.3617295 +22.5897668     6405.171     72.55822      1.405     2.39     5.702739     20.42929     922.3846        35     1.228     1.082  64.27   0
       362    568.9132     52.3453 300.3369480 +22.5675622     471.0196      72.4477      1.210     2.09     5.564783     20.42929      67.7254         7     0.694     0.621 -42.64   0
       363    420.4937     48.5917 300.2919515 +22.5220657     1432.175     72.31854      1.416     2.49     5.455585     20.42929     187.1796        18     1.070     0.938  56.54   0
       364    686.8454     46.9805 300.3754278 +22.6013039     794.5457      72.4477      1.344     2.94     5.776245     20.42929     105.5574        14     0.973     0.939 -39.82   0
       365    756.6343     44.8292 300.3978763 +22.6215613       386.53     72.42926      1.529     2.23     5.812897     20.42929     43.68876         5     0.712     0.440  69.51   0
       366    702.6367     42.8777 300.3816785 +22.6048481     737.5137     72.37392      1.596     3.36      5.77691     20.42929     84.21162        15     1.186     0.851  65.15   0
       367    972.7819     41.0231 300.4665188 +22.6851036     512.2955     72.41082      1.366     3.20     5.437112     20.42929     75.03604        10     1.010     0.702  -2.99   0
       368    169.5684     40.9161 300.2163764 +22.4447369     685.4404     72.39237      1.454     3.37     6.030179     20.42929     83.97199        14     1.063     0.929   1.08   0
       369   1012.0349     40.3162 300.4789963 +22.6966353     419.6989     72.37392      1.602     3.09     4.972621     20.42929     46.48853         5     0.983     0.526  37.70   0
       370    741.4310     38.7807 300.3950972 +22.6152743     576.4319     72.41082      1.460     2.38     5.784199     20.42929     66.27907        10     0.883     0.672  -1.35   0
       371    705.0903     33.6007 300.3854492 +22.6029142     967.9648     72.30007      1.829     4.97     5.775197     20.42929     92.44728        19     1.558     0.983  56.03   0
       372    330.8239     35.4386 300.2683075 +22.4914445     455.5548     72.42926      1.478     3.65     5.666214     20.42929     45.38758         9     0.906     0.849  87.52   0
       373    689.8245     34.4994 300.3804005 +22.5986061     2768.208     72.35547      1.395     2.56     5.775101     20.42929     411.0566        23     1.103     0.986  78.88   0
       374    776.4252     26.1735 300.4100908 +22.6221151      1502.08     72.37392      1.376     2.77     5.841207     20.42929     179.0254        21     1.167     0.959  71.43   0
       375    854.6234     20.8941 300.4361837 +22.6439824     324.1138     72.31854      1.313     3.13     5.997931     20.42929     49.98915         5     0.823     0.485  31.18   0
       376    714.0386     19.2955 300.3928731 +22.6014770     679.1634     72.39237      1.292     3.42     5.771324     20.42929     81.91657        11     1.007     0.733  73.06   0
       377    519.8009     18.5908 300.3325899 +22.5431628     1094.481     72.22614      1.414     2.55     5.608729     20.42929     149.4901        15     1.119     0.868  38.62   0
       378     92.9817     18.5769 300.1998051 +22.4153851     611.9566     72.41082      2.009     3.38     6.060241     20.42929      53.1764         9     0.942     0.781 -86.06   0
       379    318.9533   1015.0095 299.9465724 +22.7690388      1513.08     72.42926      2.826     5.12     9.681185     20.42929     101.2992        31     1.601     1.357  20.92  16
       380    806.0245     15.6120 300.4227410 +22.6279296     403.1662     72.41082      1.370     2.56     5.896584     20.42929     59.98278         8     0.761     0.697 -85.81   0
       381    155.2948   1010.3000 299.8972137 +22.7185866     1505.069     72.61342      3.053    12.29     93.39556     20.42929     49.11239        41     2.412     1.744 -43.27  16
       382    197.0136    994.2328 299.9154098 +22.7264997     1399.074     72.41082      5.423    12.82       75.019     20.42929     66.62717        30     3.211     1.425 -62.69   3
       383    198.2184   1002.1119 299.9132213 +22.7291195     2336.368     72.35547      4.985    16.93     81.71876     20.42929     61.70481        69     3.493     2.282  84.86  19
