#   1 NUMBER                 Running object number                                     
#   2 X_IMAGE                Object position along x                                    [pixel]
#   3 Y_IMAGE                Object position along y                                    [pixel]
#   4 ALPHA_J2000            Right ascension of barycenter (J2000)                      [deg]
#   5 DELTA_J2000            Declination of barycenter (J2000)                          [deg]
#   6 FLUX_APER              Flux vector within fixed circular aperture(s)              [count]
#   7 FLUXERR_APER           RMS error vector for aperture flux(es)                     [count]
#   8 FLUX_RADIUS            Fraction-of-light radii                                    [pixel]
#   9 FWHM_IMAGE             FWHM assuming a gaussian core                              [pixel]
#  10 BACKGROUND             Background at centroid position                            [count]
#  11 THRESHOLD              Detection threshold above background                       [count]
#  12 FLUX_MAX               Peak flux above background                                 [count]
#  13 ISOAREA_IMAGE          Isophotal area above Analysis threshold                    [pixel**2]
#  14 A_IMAGE                Profile RMS along major axis                               [pixel]
#  15 B_IMAGE                Profile RMS along minor axis                               [pixel]
#  16 THETA_IMAGE            Position angle (CCW/x)                                     [deg]
#  17 FLAGS                  Extraction flags                                          
         1    508.8279     15.7958 300.3326586 +22.5430891     1128.634     72.34407      1.548     3.19      5.23028     20.42087     137.6789        17     1.119     1.003  88.58   0
         2    412.6031     14.1166 300.3032437 +22.5138026     873.9265     72.30717      1.525     3.29     5.394236     20.42087     89.06775        14     1.003     0.922  24.38   0
         3    794.8583     13.0583 300.4226728 +22.6278881     341.5547     72.45467      1.286     4.07     6.229162     20.42087     48.25151         8     0.925     0.715  64.58   0
         4    264.5932      6.0255 300.2598074 +22.4671615     178.0289     72.38096      1.595     4.50     5.207028     20.42087      25.5749         5     1.410     0.408 -78.33  16
         5    184.1064      3.9141 300.2354580 +22.4424512     4068.647     68.71129      1.662     3.16     5.315754     20.42087     373.5829        39     1.389     1.321  -8.57  24
         6    752.1622      5.1034 300.4119387 +22.6128267     588.8386     71.88145      1.401     2.05     6.230436     20.42087      88.4143         8     0.749     0.650 -49.60  16
         7    606.6473      1.5005 300.3677578 +22.5682524     164.4093       57.295      0.985     3.30     6.313549     20.42087     43.17021         5     0.730     0.462  19.81  24
         8    510.0879      1.7071 300.3376151 +22.5394145     272.0164     58.56198      1.333     2.47     5.210879     20.42087     49.61732         5     0.742     0.419 -16.81  24
         9    186.4548   1002.7122 299.9119733 +22.7298754     1753.573     72.41782      4.201    13.22     84.34091     20.42087       56.154        31     3.298     1.474  22.38   3
        10    261.0000   1016.9510 299.9305220 +22.7563298     1441.138     72.36252      4.068     5.75     44.58099     20.42087     45.73153        10     1.746     0.534  77.87  19
        11    263.4162   1016.6114 299.9313840 +22.7569574     1327.593     72.32562      5.105     7.06     41.92838     20.42087     50.03983        16     1.689     0.826  76.78  19
        12    262.5133   1011.1307 299.9328861 +22.7551148     1483.364     72.49149      3.898    13.61     39.62912     20.42087     52.63456        38     2.472     2.086  15.67  19
        13     99.1137   1010.2322 299.8823773 +22.7058161     4548.048     72.36252     15.507    81.39     86.09622     20.42087      145.469      1774    16.228    11.325  43.70  27
        14     89.4338    944.1473 299.9008623 +22.6839643     6154.529     72.39939     29.484   117.29     22.46003     20.42087     1220.565      4892    21.505    17.749 -65.81  19
        15    544.8395    948.5664 300.0410984 +22.8218572     497.1033     72.41782      1.877     4.99      3.88495     20.42087     36.26189         8     1.140     0.618  62.39   0
        16    212.4016    986.3329 299.9253686 +22.7329655      4379.97     72.36252      8.618    37.97     65.65739     20.42087     86.66557       382     8.659     4.622  89.12  19
        17    816.3706    947.2130 300.1261450 +22.9028709     453.8297     72.38096      2.038     4.79     4.001095     20.42087     39.99723         6     1.015     0.640  13.84   0
        18    572.8358    944.8820 300.0510154 +22.8291948     1474.641     72.34407      1.923     4.77     3.924595     20.42087     85.45415        25     1.322     1.253  -0.71   0
        19    646.0679    987.0469 300.0601120 +22.8632555     9014.307     72.36252      2.061     5.42     3.906064     20.42087     537.9588        47     1.636     1.437 -10.46   3
        20    651.5967    984.8034 300.0625643 +22.8642692      9366.97     72.15938      1.975     4.72     3.940227     20.42087     544.0822        49     1.547     1.446  61.94   3
        21    466.8179    941.3166 300.0191641 +22.7963785     970.1423     72.34407      1.851     5.02     3.900304     20.42087     61.96083        21     1.315     1.216  -9.48   0
        22    397.2823    939.2864 299.9981813 +22.7749398     6592.937      72.5099      1.866     4.00     4.254797     20.42087     511.9311        46     1.481     1.425  29.50   0
        23    746.5825    987.6390 300.0912407 +22.8935602     736.1289     72.39939      2.009     5.47      3.95213     20.42087     43.74925        11     1.000     0.842 -11.62   0
        24    182.1312    996.9897 299.9124905 +22.7269370     1926.457     72.36252      4.241     9.78     79.67258     20.42087     66.71479        36     2.179     1.737  -7.74   3
        25    430.4299    926.7411 300.0125775 +22.7812826     473.4295     72.39939      1.763     5.56      4.13402     20.42087     46.20967         8     1.539     0.566 -45.06   0
        26    186.6961    991.4858 299.9157000 +22.7267288     1927.435     72.56509      7.700    14.69      73.7782     20.42087     63.64841        57     2.652     2.262  60.91   3
        27    943.6539    918.4427 300.1751972 +22.9327489     2250.833     72.38096      2.038     4.87     4.173492     20.42087      118.835        34     1.505     1.398 -24.86   0
        28      5.5651    995.1016 299.8582311 +22.6733956     2494.472     72.36252      9.321    18.51    -22.84216     20.42087     62.56877        80     5.097     1.867 -24.56  27
        29    592.2214    915.6502 300.0665596 +22.8266169     305.1089     72.38096      1.540     3.42     4.070627     20.42087      32.7234         5     1.218     0.278  55.35   0
        30    732.6199    907.0930 300.1130860 +22.8662485     822.7954     72.30717      1.955     5.92     4.179215     20.42087     57.78314        16     1.369     1.004  28.57   0
        31    545.0790    901.7877 300.0563854 +22.8085029     382.8624     72.36252      1.756     7.03     4.251422     20.42087     36.73752        10     1.647     0.842  71.42   0
        32      4.6341   1012.7644 299.8521967 +22.6781786     3430.834     70.92834     16.272    64.94    -31.18556     20.42087     74.43769       729    15.575     7.513 -85.96  26
        33    368.2967    998.5707 299.9698794 +22.7832522     512.8069     72.32562      1.977     4.29     4.374466     20.42087     50.63726         6     0.930     0.647 -81.64   0
        34    179.2969    976.7952 299.9181777 +22.7202957      1879.04     72.28871      4.539    15.35     62.91236     20.42087      68.7692        66     3.162     2.444 -89.04   2
        35    767.2810    901.5040 300.1257069 +22.8750322     1118.117      72.5283      1.889     4.85     4.249121     20.42087     75.76851        19     1.387     0.950  -6.21   0
        36    924.0860    899.4212 300.1752790 +22.9214219     392.8366     72.30717      1.986     5.31     4.110724     20.42087     27.55328         6     1.389     0.573  20.50   0
        37    789.5407    894.9534 300.1347760 +22.8798222     11446.12     72.43624      1.840     4.13     4.326585     20.42087      680.544        54     1.464     1.438  12.94   0
        38    510.5968    976.8225 300.0212456 +22.8196970     363.7803     72.34407      1.654     6.06     3.642212     20.42087     40.13157         8     1.156     0.894 -24.69   0
        39    223.1214    895.7800 299.9581497 +22.7102117      897.796     72.38096      4.830     5.09     8.835417     20.42087     30.74633         6     1.079     0.680 -89.20   1
        40    940.2301    970.7009 300.1571321 +22.9467341     403.3907     72.32562      1.463     6.06     3.772229     20.42087     40.74651         8     1.570     0.659 -58.79   3
        41    833.9629    894.2368 300.1488586 +22.8929287     387.9396     72.45467      1.556     5.25     4.249098     20.42087      36.7837         9     0.909     0.881  -0.17   0
        42    937.6677    970.6788 300.1563400 +22.9459599     431.0869     72.49149      1.680     5.68     3.746027     20.42087     36.71027        11     1.244     0.732 -56.51   3
        43    186.3071    999.3808 299.9130110 +22.7288759      1878.11     72.30717      4.335    13.35     80.86794     20.42087     68.24429        53     4.086     1.213  -8.39  19
        44    101.2827    886.9989 299.9231270 +22.6711338     1175.034     72.27026      9.084     9.71     8.685958     20.42087     56.36176        23     2.004     1.313  30.27   0
        45    559.4269    991.9070 300.0315440 +22.8386700     2431.744     72.32562      1.973     4.90     3.620145     20.42087     161.4781        36     1.522     1.433 -23.19   0
        46    226.7792    883.7916 299.9631849 +22.7078705     668.4558     72.36252      4.033     4.49      7.60306     20.42087     25.77672         5     1.636     0.350 -45.24   0
        47    495.2350    883.3698 300.0468539 +22.7882708     476.0248     72.39939      1.776     3.83     4.175479     20.42087     46.90336         6     0.867     0.523 -41.67   0
        48    175.1742    883.2151 299.9473265 +22.6922217     421.5692     72.39939      5.801     5.47     11.93777     20.42087     25.06178         5     1.161     0.727  12.05   0
        49    157.3471    955.9562 299.9181313 +22.7077328     1658.142     72.41782      7.493    12.97     47.59697     20.42087     44.41851        47     2.911     1.609  24.75   0
        50    798.1442    876.9947 300.1432976 +22.8772429     1509.198     72.34407      1.907     5.08      4.40427     20.42087     109.8329        25     1.468     1.128 -40.38   0
        51    664.3199    954.1666 300.0764934 +22.8592895     6874.576     72.32562      1.920     4.42     4.076514     20.42087     400.4104        47     1.521     1.428   1.43   0
        52    649.6462    874.1646 300.0979378 +22.8319227     570.2547     72.41782      1.970     6.52     4.354659     20.42087      38.5596        11     1.407     0.848  12.49   0
        53    836.3185    870.1650 300.1574203 +22.8867206     889.0179     72.34407      2.232     5.28     4.289773     20.42087     73.66969        20     1.509     1.154  77.39   0
        54    944.5437    868.2073 300.1918104 +22.9185837     452.7174     72.36252      1.556     5.95     4.086438     20.42087     43.26796         9     1.118     0.891 -20.76   0
        55    884.6468    861.8657 300.1751895 +22.8988171     459.5413     72.39939      1.809     4.32      4.15975     20.42087     50.14443         8     1.131     0.631  35.23   0
        56    735.7681    860.9948 300.1290563 +22.8539546     726.5079     72.36252      1.777     5.15     4.182404     20.42087     57.24803        12     1.089     0.950  80.13   0
        57    448.4767    856.9628 300.0408831 +22.7666705     4340.365     72.34407      1.758     3.87     4.356889     20.42087     358.3372        37     1.372     1.329 -39.05   0
        58    747.5087    857.6913 300.1337897 +22.8565245     565.6979     72.54669      1.593     5.01     4.226373     20.42087      53.5411        12     1.065     0.856 -43.69   0
        59    492.5649    845.1740 300.0584406 +22.7765071     322.4782     72.39939      1.541     3.68     4.377638     20.42087     29.67099         5     1.052     0.371   4.49   0
        60    226.6564    845.4095 299.9756246 +22.6968235     406.1647     72.36252      1.759     5.41      5.87076     20.42087     46.84118         7     1.213     0.682  -5.60   0
        61    110.1500    844.9146 299.9395643 +22.6617258     378.3831     72.36252      1.801     6.03     6.571529     20.42087     36.53122         8     1.206     0.847  30.60   0
        62    173.8663    842.4480 299.9601728 +22.6801363     944.0749     72.38096      2.196     5.02     6.880774     20.42087     69.70646        18     1.297     1.148  11.93   0
        63     82.7688    841.4198 299.9321902 +22.6525072     225.2202     72.38096      1.229     4.39     6.017646     20.42087     35.61958         7     0.985     0.558 -53.40   0
        64    150.9445    839.4805 299.9540113 +22.6724078     1634.749     72.41782      1.866     3.86     6.888696     20.42087     161.4252        30     1.452     1.358  36.43   0
        65   1022.3827    828.9567 300.2288582 +22.9306214     1789.689     63.20844      1.782     5.16     4.075866     20.42087      122.195        27     1.447     1.206 -81.71  24
        66    977.1464    827.4573 300.2152304 +22.9166415     2030.141     72.43624      1.919     4.72     4.194455     20.42087     121.0028        29     1.407     1.287 -19.39   0
        67     26.7702    829.4434 299.9186821 +22.6322679     357.1204     72.41782      1.262     2.73     4.752673     20.42087     39.21227         5     0.722     0.440 -23.82   0
        68    682.2408    827.5661 300.1232430 +22.8283123     446.0984     72.43624      1.739     3.54     4.481617     20.42087     47.44804         5     0.843     0.428 -20.16   0
        69    760.3298    821.3805 300.1495905 +22.8499382     593.8824     72.39939      1.612     4.62     4.291941     20.42087     67.90153        15     1.160     1.054 -18.32   0
        70    628.5024    815.1914 300.1105227 +22.8086521     4896.958     72.25179      1.646     3.44     4.493981     20.42087     408.5745        34     1.281     1.244  43.53   0
        71    430.7161    812.2670 300.0498841 +22.7485167     504.7852     72.49149      1.547     4.32     4.623661     20.42087     54.41399        11     1.166     0.704 -26.70   0
        72    178.7320    808.7839 299.9726278 +22.6719396     1422.877     72.38096      1.927     3.97     5.561069     20.42087     126.6421        23     1.343     1.159 -19.34   0
        73    649.2764    807.8027 300.1193963 +22.8127570     642.0536     72.28871      1.478     3.49     4.524674     20.42087     77.56453        15     1.109     0.920  13.27   0
        74    565.2974    798.3917 300.0962959 +22.7848826     263.2851     72.25179      1.353     3.99       4.6274     20.42087     39.15639         7     0.995     0.688  16.41   0
        75   1021.4941    795.5673 300.2394350 +22.9207596     1134.217     67.04018      1.755     5.35     4.163048     20.42087     77.79485        20     1.266     1.213 -29.22  24
        76    804.5704    795.0123 300.1719532 +22.8556204     4274.006     72.38096      1.710     3.71     4.408311     20.42087     306.4787        33     1.334     1.257  -1.73   0
        77    213.2020    789.0894 299.9897466 +22.6766302       375.75     72.28871      1.609     3.48     5.047698     20.42087     64.25825         6     1.090     0.646  -5.10   0
        78    521.9855    787.3307 300.0864030 +22.7687231     656.5099     72.39939      1.705     4.96      4.65572     20.42087     61.54649        13     1.377     0.899 -17.42   0
        79    167.9860    785.2196 299.9769452 +22.6619560     943.3553     72.34407      1.682     4.23     5.111065     20.42087      96.6413        20     1.384     0.950 -22.97   0
        80    583.6160    780.4833 300.1078218 +22.7852318     669.8868     72.34407      1.759     3.27     4.648336     20.42087     68.69975        11     0.988     0.815  75.04   0
        81    317.5890    777.3422 300.0260321 +22.7045691     53743.15     72.34407      1.713     3.56     4.542598     20.42087      4754.74        96     1.467     1.442 -31.29   0
        82    988.4362    775.6562 300.2355914 +22.9051368     837.4089     72.38096      1.796     5.35     4.289655     20.42087     63.44118        19     1.317     1.108  41.27   0
        83    575.5536    776.4055 300.1066360 +22.7816443     1628.757     72.38096      1.634     3.65     4.655737     20.42087     171.5314        21     1.160     1.114 -75.17   0
        84    246.0720    775.6313 300.0043423 +22.6826286     498.8053     72.38096      1.643     5.72     4.766044     20.42087     45.53836        10     1.239     0.742   7.81   0
        85    604.5097    772.6777 300.1168667 +22.7892531     985.9679      72.5283      1.649     3.13     4.672777     20.42087     119.2925        17     1.115     0.954   2.04   0
        86      4.1577    772.0611 299.9303056 +22.6090268     860.3637     69.42614      2.339     5.99     4.238945     20.42087     56.52505        14     1.571     0.937 -52.54  24
        87    615.0959    770.9642 300.1207212 +22.7919340      616.452     72.38096      1.544     4.14     4.669116     20.42087     61.42529        16     1.248     0.914  22.38   0
        88    935.2379    768.7274 300.2212462 +22.8872124     374.2045     72.34407      1.425     3.73     4.628814     20.42087     39.11565         6     1.034     0.387  13.28   0
        89    720.9253    767.2844 300.1548920 +22.8225927      449.328     72.47308      1.419     4.87     4.380136     20.42087     56.64925         9     1.025     0.723  -9.67   0
        90    758.3470    758.0090 300.1695701 +22.8311413     690.5959     72.38096      1.487     3.17     4.419946     20.42087     85.27106        11     1.029     0.696   6.71   0
        91    367.2983    754.6157 300.0488841 +22.7129536      31707.1     72.28871      1.654     3.18      4.40198     20.42087     3563.684        67     1.387     1.330  -1.02   0
        92    381.5714    755.1675 300.0531463 +22.7173918     2087.209     72.38096      1.683     3.37     4.405476     20.42087     183.5758        25     1.229     1.156  22.32   0
        93    890.4496    750.7323 300.2131243 +22.8686261     2979.613     72.38096      1.769     4.18     4.759628     20.42087     206.7004        34     1.360     1.307  72.45   0
        94    378.1045    749.3011 300.0539737 +22.7146684     749.4543     72.56509      2.618     5.72     4.362906     20.42087     48.28327        12     1.256     0.949 -33.89   0
        95    648.4437    746.7783 300.1389702 +22.7949827     942.1704     72.43624      1.525     2.84     4.644163     20.42087     130.3795        15     1.031     0.922  40.88   0
        96    484.5479    746.6958 300.0879522 +22.7458339     366.6028     72.45467      1.455     4.74     4.652432     20.42087     42.60891         7     1.089     0.584  16.56   0
        97    249.9268    746.2564 300.0150868 +22.6753560     995.5424     72.41782      1.941     4.38     4.535855     20.42087     81.70342        17     1.247     1.017  59.25   0
        98    495.5822    741.4926 300.0930784 +22.7476479     812.0884     72.30717      1.518     3.20     4.650017     20.42087     90.96638        13     1.037     0.835  18.78   0
        99     55.3681    741.7565 299.9560644 +22.6157015     565.6164     72.43624      2.058     3.88     4.503496     20.42087     46.71452         6     1.029     0.420  75.40   0
       100    896.6254    738.5518 300.2190089 +22.8669758     426.6971     72.39939      1.402     3.70     4.863397     20.42087     57.85359        10     0.885     0.862  59.91   0
       101    397.9604    737.5195 300.0639813 +22.7172402     404.8915     72.34407      1.274     4.84     4.302511     20.42087     45.39086         9     0.955     0.695  68.88   0
       102    441.2811    736.7646 300.0777101 +22.7300118     522.7784     72.32562      1.971     4.03     4.438323     20.42087     56.62855         7     1.119     0.598   3.92   0
       103    649.5468    735.8903 300.1428520 +22.7921862     467.8893     72.41782      2.793     5.71     4.660518     20.42087     26.73328         8     1.327     0.693 -17.25   0
       104     83.3177    735.5159 299.9667779 +22.6222971     592.0428      72.5099      1.896     4.07     4.513659     20.42087     53.71449        10     1.109     1.009 -24.13   0
       105    874.1005    733.3279 300.2136813 +22.8587279     331.6373     72.54669      1.450     5.23     4.888363     20.42087     38.34057         9     1.028     0.751  50.83   0
       106    247.4271    730.7054 300.0193623 +22.6701439     516.2278     72.30717      1.623     3.84      4.49527     20.42087     68.44173        10     1.053     0.856  17.84   0
       107    570.6003    721.3292 300.1229911 +22.7643445     490.6312     72.27026      1.497     3.11     4.811277     20.42087     56.45465        10     0.954     0.723   4.07   0
       108    540.4763    719.4345 300.1142250 +22.7547716     579.8983     72.36252      1.443     3.13      4.77383     20.42087     54.89682        11     0.994     0.765  20.17   0
       109    956.9356    716.0519 300.2451334 +22.8785727     4512.916     72.41782      1.710     3.59     4.634447     20.42087     325.4254        37     1.381     1.305 -16.66   0
       110    562.3535    717.0334 300.1218184 +22.7606392     1295.752     72.41782      1.406     2.96     4.820634     20.42087     151.1961        17     1.052     0.895  45.10   0
       111    449.8750    718.3018 300.0863843 +22.7272878     381.8087      72.5099      1.540     5.54     4.591857     20.42087     37.23848         9     1.183     0.732 -18.91   0
       112    482.3180    716.3763 300.0971097 +22.7364606      437.101     72.34407      1.637     4.53     4.736262     20.42087     47.20126         7     1.001     0.582 -23.88   0
       113    644.2425    712.5336 300.1487888 +22.7838883     311.1181     72.36252      1.301     3.43     4.795617     20.42087     33.83084         5     0.744     0.456 -20.09   0
       114    945.3376    707.5656 300.2442726 +22.8726603     1591.647     72.38096      1.696     3.84     4.771436     20.42087     129.4722        21     1.197     1.105 -16.10   0
       115    308.2242    701.2543 300.0478422 +22.6799241     1007.337     72.39939      1.709     3.66     4.568457     20.42087     99.09828        17     1.109     1.033  12.79   0
       116    771.7563    698.6149 300.1930499 +22.8180959     2613.122     72.39939      1.661     3.25     4.758727     20.42087     259.1395        29     1.291     1.196  15.90   0
       117    976.6260    697.6353 300.2572608 +22.8791759     1713.596     72.39939      1.753     4.06     4.436875     20.42087     123.9738        21     1.290     1.012 -11.87   0
       118    854.2510    685.0945 300.2231634 +22.8389222      635.878     72.45467      1.789     3.91      4.96819     20.42087     60.06783        13     1.280     0.970  25.45   0
       119    156.9351    684.9913 300.0060755 +22.6298855     747.0499     72.36252      1.697     4.77     4.675414     20.42087     63.30429        15     1.189     1.034 -52.76   0
       120    890.1841    675.6955 300.2374234 +22.8469832     149219.4     72.30717      1.613     3.32      5.00921     20.42087     12989.43       153     1.486     1.451 -27.76   0
       121    652.6339    679.6865 300.1620751 +22.7769681     392.0918     72.34407      1.499     5.24     4.930191     20.42087     38.99895        10     1.175     0.775  -9.74   0
       122    742.3940    675.9323 300.1912667 +22.8027827     883.1586     72.34407      1.641     4.47     4.884006     20.42087     80.93047        15     1.128     1.042 -19.01   0
       123    922.9833    668.5215 300.2499846 +22.8547440     361.7866     72.38096      1.262     3.78     5.024274     20.42087     52.93269         6     0.828     0.496   5.22   0
       124    576.4498    664.4553 300.1432905 +22.7497642     1699.737     72.41782      1.481     2.76      5.10288     20.42087     212.3503        20     1.139     1.018 -47.59   0
       125    757.6281    661.7933 300.2006085 +22.8032841     9456.249     72.38096      1.502     3.04     4.925535     20.42087     1022.723        39     1.235     1.167  23.17   0
       126    259.1727    656.6527 300.0470728 +22.6524142     4955.163     72.39939      1.542     2.83     4.696011     20.42087     603.7391        35     1.309     1.186 -20.97   0
       127    341.1143    654.7154 300.0731932 +22.6764272     1188.785      72.5099      1.512     3.00     4.751998     20.42087     148.1596        19     1.150     0.985  23.56   0
       128    216.8446    652.4183 300.0352840 +22.6385059     572.0886     72.39939      1.840     6.28       4.7071     20.42087     41.15147        12     1.303     0.851 -56.10   0
       129    549.5038    650.4579 300.1394452 +22.7376690     683.7761     72.45467      1.408     2.55     5.109874     20.42087     90.84338        12     0.967     0.751  33.77   0
       130    541.1029    642.4589 300.1394271 +22.7328540     3133.661     72.45467      1.419     2.69     5.104876     20.42087     381.8093        26     1.134     1.072  69.44   0
       131    531.2840    636.3312 300.1383598 +22.7281516     1502.915     72.49149      1.459     2.98     5.093067     20.42087     146.0909        20     1.070     1.017  24.57   0
       132    459.9778    635.8187 300.1163246 +22.7066335     270.0272     72.38096      1.248     3.57     4.998296     20.42087     38.20646         6     0.892     0.477 -34.44   0
       133    726.1454    635.6154 300.1992991 +22.7863316     171.4434     72.38096      1.403     3.48     5.002471     20.42087      26.1904         5     0.790     0.444 -17.78   0
       134    925.0027    634.1200 300.2617898 +22.8454606     454.2788     72.28871      1.452     5.21     5.096475     20.42087     48.96143         9     0.932     0.823  88.45   0
       135    194.3125    632.5452 300.0347321 +22.6260456     690.1959     72.41782      1.595     6.45     4.740138     20.42087     62.63509        14     1.270     0.921 -36.16   0
       136    208.9178    630.5955 300.0399069 +22.6298659     747.2282     72.30717      1.795     3.87     4.736172     20.42087     81.71426        15     1.217     0.980  82.59   0
       137    978.7030    627.8145 300.2805914 +22.8597272     524.9404     72.28871      1.706     4.26     4.776839     20.42087     51.88932        11     1.106     0.904  23.20   0
       138    265.4771    627.6644 300.0584490 +22.6459843     386.4085     72.47308      1.859     5.45     4.720138     20.42087     49.22119         9     1.196     0.919 -75.98   0
       139    234.5914    627.2423 300.0489800 +22.6366021     630.5315     72.39939      1.752     5.95     4.730233     20.42087     59.49438        13     1.380     0.917 -70.42   0
       140    555.4911    626.5793 300.1490658 +22.7326051     512.2495     72.32562      1.620     3.37     5.112049     20.42087      59.6177        11     0.955     0.811  15.83   0
       141    456.1487    625.8836 300.1183594 +22.7026329     1781.508     72.39939      1.433     2.86     5.029945     20.42087      224.267        20     1.097     1.008  17.44   0
       142    110.0506    620.7195 300.0123767 +22.5973814     19908.73     72.39939      1.716     3.16     4.951658     20.42087     2420.083        62     1.471     1.375  32.22   0
       143     31.4794    622.7358 299.9873037 +22.5743925     725.0541     72.49149      1.931     5.35     5.199767     20.42087     82.03608        13     1.407     0.938  -3.67   0
       144    541.0001    621.3268 300.1462589 +22.7267540     1144.439     72.25179      1.549     3.19     5.110683     20.42087     99.40557        18     1.063     1.022  58.82   0
       145    457.9290    618.1992 300.1214094 +22.7009598     202.2178     72.28871      1.303     4.08     5.061166     20.42087     35.51676         5     0.841     0.639 -39.58   0
       146    913.0530    617.5720 300.2634374 +22.8371257      284.347     72.39939      1.356     3.44     5.163111     20.42087     43.09629         5     0.770     0.445 -20.20   0
       147    294.3456    613.3525 300.0720771 +22.6505316     212.4154     72.41782      1.173     3.41     4.725748     20.42087     59.52269         5     1.122     0.299 -51.68   0
       148    959.2072    607.6070 300.2810721 +22.8480807     1034.567     72.23331      1.592     3.88     5.003736     20.42087     102.8647        20     1.213     1.115 -73.16   0
       149     56.1620    604.7369 300.0008187 +22.5766323     1652.546     72.36252      2.116     4.15     5.265457     20.42087      137.982        32     1.742     1.264 -64.06   0
       150    825.8601    605.8138 300.2400637 +22.8076350     513.3111     72.34407      1.437     3.48     5.071605     20.42087     56.73365        11     0.916     0.841  34.69   0
       151    122.4544    605.4727 300.0211836 +22.5967265     389.4306     72.38096      1.364     3.33     4.936575     20.42087     53.99331         8     0.877     0.716 -41.76   0
       152    504.2168    601.8572 300.1411280 +22.7101391     481.1829     72.34407      1.380     2.85     5.163572     20.42087      67.4106        10     0.907     0.761 -50.66   0
       153    899.3347    600.2006 300.2648004 +22.8280245     811.8817     72.38096      1.682     3.74     5.183198     20.42087     80.80583        13     0.994     0.963 -54.48   0
       154    297.2711    601.1837 300.0769390 +22.6479154     349.4732     72.38096      1.493     3.64     4.755377     20.42087     44.40335         7     0.851     0.601 -52.69   0
       155    894.7371    600.0472 300.2634163 +22.8266037     354.1498     72.39939      1.480     5.44     5.194632     20.42087     48.23751         8     1.074     0.776 -75.58   0
       156    643.9836    598.6940 300.1856878 +22.7511098     432.5437     72.30717      1.818     3.20     5.148338     20.42087     35.44127         5     0.868     0.461  -0.24   0
       157    461.2815    594.3062 300.1302126 +22.6951032     707.0131      72.5283      1.369     2.72     5.195703     20.42087     98.58002        10     0.962     0.668   8.98   0
       158    609.2147    592.8594 300.1767508 +22.7390168     529.1299     72.34407      1.466     3.12     5.171824     20.42087     66.98412         8     0.824     0.703  80.09   0
       159    626.9064    591.1931 300.1828034 +22.7438386     708.6489     72.27026      1.532     3.34     5.177213     20.42087     75.74593        13     1.025     0.902  57.83   0
       160    656.3057    591.2968 300.1919294 +22.7526761     490.1899     72.56509      1.426     3.51     5.174321     20.42087     60.20332         7     0.810     0.750  35.77   0
       161    505.4718    589.9226 300.1453945 +22.7070875     954.4297     72.49149      1.530     2.77     5.255284     20.42087     122.4529        15     1.021     0.920  69.77   0
       162    939.2485    585.7580 300.2819415 +22.8358237     3342.304     72.38096      1.572     3.23     4.988407     20.42087     341.6631        29     1.233     1.143 -49.75   0
       163    471.0031    585.4436 300.1361172 +22.6954715     1796.871     72.39939      1.452     2.69     5.259618     20.42087     200.8848        22     1.085     1.045 -34.54   0
       164    835.7245    583.2388 300.2504712 +22.8041008     384.1986     72.34407      1.584     4.18     5.046219     20.42087     32.40243         5     0.748     0.694  19.12   0
       165     32.8919    578.7933 300.0020119 +22.5622088      5132.81     72.28871      1.758     3.70     5.538154     20.42087     525.5106        43     1.469     1.403  20.50   0
       166    499.4345    576.2286 300.1479615 +22.7013452     420.6378     72.39939      1.492     3.11     5.351774     20.42087     45.26938         5     0.725     0.488  80.52   0
       167    978.3741    575.4295 300.2975026 +22.8445680      400.838     72.38096      1.671     4.47     4.728199     20.42087     37.84415         8     1.076     0.657   6.51   0
       168    334.3539    572.1031 300.0979193 +22.6506833     9270.734     72.39939      1.480     2.83     4.905993     20.42087     1081.294        37     1.215     1.184  57.71   0
       169    456.8199    569.2455 300.1369616 +22.6865690     8988.351     72.41782      1.407     2.74     5.361216     20.42087     1000.378        38     1.161     1.132  65.66   0
       170    222.2783    566.5764 300.0648511 +22.6154970     337.0739     72.38096      1.278     3.40     4.787291     20.42087     36.42058         5     0.728     0.460 -18.73   0
       171    101.4073    565.4344 300.0276424 +22.5789247     224.4853     72.38096      1.311     3.49     5.237722     20.42087     30.67544         5     1.076     0.328 -69.07   0
       172    868.5614    563.3321 300.2671757 +22.8082118     1923.726     72.34407      1.527     2.95     5.018152     20.42087     209.4506        21     1.155     1.016 -65.85   0
       173    953.2289    560.7830 300.2944135 +22.8328290     12666.92     72.38096      1.574     3.29     4.792284     20.42087     1200.648        51     1.344     1.273 -26.20   0
       174    517.3926    558.8237 300.1592049 +22.7017272     11730.71     72.38096      1.410     2.59     5.520887     20.42087     1583.272        42     1.192     1.173   3.55   0
       175    686.9652    554.8141 300.2133299 +22.7513781     518.8954     72.38096      1.243     3.43     5.258234     20.42087     67.67001        10     0.917     0.766  64.61   0
       176    244.6590    554.0396 300.0758821 +22.6186083     1425.904     72.38096      1.705     3.43     4.822854     20.42087     142.5681        20     1.251     1.020  34.99   0
       177    491.5908    551.8581 300.1534326 +22.6919950     395.4442     72.34407      1.469     2.98     5.507747     20.42087     55.05003         7     0.876     0.634 -42.04   0
       178    449.1079    546.9943 300.1417857 +22.6778673     4327.153     72.28871      1.396     2.78     5.508427     20.42087     486.8903        29     1.164     1.064  71.66   0
       179    791.7245    547.1473 300.2484721 +22.7805507      818.295     72.38096      1.425     3.53     4.935403     20.42087     92.76772        15     1.070     0.911  48.82   0
       180    427.3285    545.3975 300.1355246 +22.6708817      1289.47     72.32562      1.474     2.59     5.521984     20.42087     155.0481        16     1.007     0.920  52.61   0
       181    181.8519    544.6039 300.0594140 +22.5970689      700.744     72.38096      1.390     3.01     4.878515     20.42087     81.88441        13     0.970     0.851  83.69   0
       182    869.0765    542.5580 300.2740820 +22.8023943     1716.325     72.36252      1.668     3.48       4.8958     20.42087     158.1722        25     1.286     1.115 -15.79   0
       183    565.6996    534.5798 300.1821205 +22.7092368       206951     72.30717      1.404     2.53     5.622386     20.42087     28521.47       205     1.469     1.384 -14.27   0
       184    115.8165    542.1398 300.0396843 +22.5765606     402.3441     72.34407      1.585     3.11     5.254623     20.42087     42.43299         6     0.758     0.549 -53.35   0
       185    749.2967    539.4931 300.2377311 +22.7656445       916.36     72.56509      1.586     3.13     5.122041     20.42087     99.26048        18     1.091     1.023  89.79   0
       186    389.5872    540.5425 300.1253541 +22.6581763     365.3759     72.34407      1.605     5.23     5.348127     20.42087     35.06414         8     0.994     0.778  32.16   0
       187    953.7529    536.4252 300.3024862 +22.8259826     347.8003     72.39939      1.629     3.50      4.72778     20.42087     30.03201         5     0.783     0.451 -18.45   0
       188    251.8502    534.4243 300.0844871 +22.6151330     3631.955     72.39939      1.537     3.09     4.902744     20.42087     365.2021        33     1.236     1.196 -25.85   0
       189    817.4691    530.5106 300.2619006 +22.7834782     528.5652     72.54669      1.675     5.06     4.941059     20.42087      50.5326         9     1.165     0.754  17.05   0
       190    431.2026    530.9500 300.1414211 +22.6678934     228.0934     72.38096      1.395     5.13     5.563506     20.42087     47.59476         6     1.078     0.689  82.34   0
       191    836.4223    529.0233 300.2682934 +22.7887260     296.4671     72.36252      1.080     3.84     4.926623     20.42087     43.21306         5     1.014     0.432 -23.95   0
       192    597.4169    521.7716 300.1961582 +22.7150591     119.7324     72.38096      0.978     3.39     5.498897     20.42087     29.85048         5     0.734     0.453 -70.34   0
       193    456.3234    515.2602 300.1543347 +22.6709149      2828.04     72.43624      1.578     2.92     5.635618     20.42087     344.8362        31     1.642     1.029 -86.01   0
       194    300.4235    517.1709 300.1051977 +22.6247401      370.296     72.38096      1.299     3.21     5.188577     20.42087     67.94768        10     1.058     0.638   6.67   0
       195    867.7198    511.4645 300.2837542 +22.7930493     360.5084     72.49149      1.317     4.27     4.890715     20.42087     54.78173         7     1.147     0.600  69.11   0
       196    687.0410    511.1437 300.2275322 +22.7388515     190.8553     72.36252      1.184     3.42     5.352483     20.42087     35.41527         5     1.296     0.260 -10.67   0
       197    773.7711    503.6292 300.2570041 +22.7626660     418.0974     72.34407      1.272     2.88      5.12125     20.42087     66.25964         7     0.831     0.640 -70.01   0
       198    853.3795    501.1436 300.2826327 +22.7857886     1643.541     72.39939      1.411     2.89     4.925824     20.42087     187.7122        21     1.130     1.001  73.57   0
       199    724.5912    498.7849 300.2432469 +22.7465459      2641.22     72.28871      1.393     2.58     5.240436     20.42087     346.2788        24     1.100     1.043  13.04   0
       200    968.7834    496.2680 300.3202134 +22.8189349     441.8588     72.38096      1.578     4.64     4.805548     20.42087     46.82972         8     0.900     0.680   3.75   0
       201    629.6060    495.4973 300.2147156 +22.7171521     493.7914     72.28871      1.391     2.57     5.512856     20.42087     61.66727         8     0.864     0.628 -85.85   0
       202    511.6427    494.4489 300.1783142 +22.6815122     571.9339     72.41782      1.371     3.19       5.7764     20.42087     94.56681        14     1.192     0.793  41.33   0
       203    981.7898    492.9376 300.3253528 +22.8218703     1212.052     72.30717      1.457     3.17     4.801936     20.42087      124.593        15     1.035     0.897  -6.95   0
       204    967.7303    492.1360 300.3212262 +22.8174315     793.0496     72.41782      1.569     3.40     4.822707     20.42087     64.78652        10     0.922     0.728  -5.66   0
       205    853.6190    491.2152 300.2859304 +22.7830060     2235.516     72.36252      1.719     3.58     4.928457     20.42087     248.0436        27     1.499     1.052  76.79   0
       206    607.0769    489.4999 300.2096439 +22.7086803     593.4633      72.5099      1.529     4.03     5.583112     20.42087     59.29892         7     0.948     0.490  -7.02   2
       207    606.8236    485.4294 300.2108863 +22.7074348     409.1023     72.38096      1.523     4.79     5.599329     20.42087     44.72311         8     1.162     0.560 -76.43   2
       208    393.1169    488.9688 300.1431952 +22.6444228     347.6312     72.38096      1.316     2.82     5.588387     20.42087     47.78545         6     0.761     0.646   2.64   0
       209    891.8246    486.2940 300.2994435 +22.7930293     4489.478     72.30717      1.507     2.86     4.878248     20.42087     489.8236        33     1.274     1.131 -41.51   0
       210    445.3506    487.9388 300.1597879 +22.6597793     363.5618     72.43624      1.442     4.56     5.717275     20.42087     51.64806         8     1.131     0.678  26.94   0
       211    552.2457    482.1740 300.1949431 +22.6901500     278.8961     72.39939      1.226     4.38     5.791326     20.42087     54.06778         8     0.939     0.641  -6.68   0
       212    983.6019    477.0417 300.3310784 +22.8178414     799.1755     72.38096      1.431     2.82     4.870592     20.42087     90.02935        12     0.947     0.813  -0.60   0
       213    123.6997    476.3943 300.0634764 +22.5600540     1117.406     72.27026      1.734     3.75      5.38892     20.42087     104.7294        18     1.259     0.984   9.31   0
       214    784.9196    470.7773 300.2711439 +22.7565611     293.2386     72.34407      1.279     2.85     5.209006     20.42087      48.6277         7     0.754     0.631 -13.71   0
       215    172.0642    468.9465 300.0809298 +22.5724162     165.5294     72.41782      1.195     3.37     5.057407     20.42087     33.39729         5     0.636     0.593   3.73   0
       216    979.8866    465.8487 300.3335525 +22.8135104     377.3576     72.38096      1.345     4.08     4.883893     20.42087     45.97657        12     1.089     0.806 -57.15   0
       217    116.5213    466.2743 300.0645295 +22.5549968     379.6054     72.49149      1.267     4.61      5.46206     20.42087     52.39122         7     1.140     0.529 -50.63   0
       218    723.8823    460.8379 300.2553437 +22.7354268     461.0301     72.34407      1.509     3.82     5.243329     20.42087     53.00303        11     0.957     0.839  28.98   0
       219    332.9785    458.7214 300.1342986 +22.6177132     233.7447     72.38096      1.473     4.59     5.496025     20.42087     32.47283         6     1.084     0.552  48.15   0
       220    665.2960    456.7686 300.2384068 +22.7167121     895.7869     72.32562      1.409     2.75     5.440916     20.42087      104.215        14     0.920     0.908  67.95   0
       221    979.7321    449.0125 300.3389691 +22.8086221     849.9782     72.38096      1.838     5.99     4.904449     20.42087     65.85844        17     1.643     0.952  45.79   0
       222    725.8224    449.0078 300.2597881 +22.7326074     1055.322     72.38096      1.587     3.01     5.224761     20.42087     113.3096        15     1.045     0.880  25.90   0
       223    883.3488    445.4373 300.3100617 +22.7787443     967.0684     72.39939      1.417     3.21      4.91331     20.42087     112.4772        16     1.054     0.973  30.66   0
       224    841.4003    443.1660 300.2977166 +22.7655334     376.2275     72.34407      1.954     4.07     5.076471     20.42087     37.57737         5     0.956     0.681   8.05   0
       225    867.4545    441.6223 300.3063427 +22.7728894     673.5692     72.39939      1.489     3.31     4.917119     20.42087      76.8622        14     1.083     0.912 -25.19   0
       226    847.9815    442.0809 300.3001211 +22.7671917     398.6234     72.36252      1.451     3.33     5.031639     20.42087     42.93038         5     0.798     0.502  59.71   0
       227    611.8170    439.5129 300.2273452 +22.6957359     3340.817     72.32562      1.366     2.41     5.559072     20.42087     481.3282        28     1.107     1.058  78.12   0
       228    972.2714    438.7868 300.3399601 +22.8034483     405.3716     72.38096      1.367     3.65      4.91654     20.42087     60.66426        10     1.015     0.703  50.66   0
       229     88.2191    430.6142 300.0673049 +22.5362749     333.2971     72.34407      1.426     2.58     5.572703     20.42087     42.96473         5     0.698     0.469 -14.70   0
       230    617.3870    427.4781 300.2329862 +22.6939456      291.004     72.39939      1.361     4.24     5.530412     20.42087     29.25834         6     1.088     0.471   9.78   0
       231    451.8741    426.4573 300.1817730 +22.6440725     372.8499     72.43624      1.335     3.00     5.732242     20.42087     52.44691         7     0.799     0.612  22.11   0
       232   1022.8245    418.8312 300.3622118 +22.8128376     1097.585     60.92952      1.376     3.41     4.940722     20.42087     122.9498        16     1.134     0.923  76.72  24
       233    894.9390    418.6138 300.3223822 +22.7745005     587.2798     72.34407      1.376     3.22     4.937907     20.42087     68.45798        10     0.920     0.784 -66.82   0
       234    981.4726    417.4278 300.3497631 +22.8000589     934.4176     72.38096      1.507     3.11     4.943141     20.42087     112.5156        18     1.108     0.979  67.90   0
       235    631.1929    415.8834 300.2410500 +22.6947481     214.2494     72.30717      1.307     3.88     5.472964     20.42087     37.07322         5     0.809     0.534  33.22   0
       236    722.3922    413.5180 300.2702367 +22.7213786     896.6927     72.30717      1.189     2.37     5.206297     20.42087     138.5482        13     0.896     0.814  21.35   0
       237    518.2715    413.8933 300.2065234 +22.6603539     361.0885     72.49149      1.332     3.45     5.720297     20.42087     54.48852         8     0.947     0.676  71.23   0
       238    226.4787    411.3726 300.1165348 +22.5721970     557.4972     72.39939      1.359     3.32     5.354508     20.42087      100.324        12     1.203     0.669  66.85   0
       239    288.6992    407.2155 300.1372371 +22.5896511       3759.5     72.28871      1.412     2.72     5.384017     20.42087     441.6983        27     1.171     1.041  70.03   0
       240   1021.8828    406.0237 300.3660742 +22.8088716     4205.304      65.3876      1.516     3.12     4.996997     20.42087     419.4828        28     1.222     1.142 -85.22  24
       241    235.8737    401.9925 300.1225003 +22.5723193     7625.634     72.34407      1.474     3.11     5.365835     20.42087     820.9626        37     1.251     1.151  50.86   0
       242    614.5508    401.8867 300.2404072 +22.6857413       414.25     72.38096      1.468     3.70     5.477735     20.42087     53.10468         8     0.970     0.725  55.74   0
       243   1001.9233    397.0862 300.3627458 +22.8003280      1747.24      72.5099      1.492     3.17     5.041062     20.42087     190.2712        23     1.176     1.089 -78.21   0
       244    376.7899    396.2791 300.1681951 +22.6129069     4869.132     72.34407      1.385     2.54     5.489588     20.42087     628.3442        28     1.119     1.064  72.59   0
       245    620.9898    393.0815 300.2452704 +22.6851390     18848.92     72.34407      1.355     2.65      5.43692     20.42087      2396.54        55     1.223     1.148  80.85   0
       246    638.7518    393.1332 300.2507874 +22.6904731     1000.034     72.38096      2.148     4.79     5.400275     20.42087     96.53152        17     1.564     0.801 -37.78   0
       247   1021.7558    394.0164 300.3699311 +22.8053796     275.5552     65.97678      1.351     4.51      5.05575     20.42087     31.24635         6     1.074     0.539  -9.87  16
       248    817.9011    383.4862 300.3097562 +22.7413389     -167.188     72.54669      1.363     4.58     5.360769     20.42087     51.41002         8     1.067     0.574  58.77   0
       249    241.3995    380.2637 300.1312690 +22.5677355     269.2461     72.38096      1.247     2.81     5.387371     20.42087     45.76926         5     0.733     0.435  67.61   0
       250    954.5930    375.9536 300.3548348 +22.7800856     789.3967     72.39939      1.611     3.51     5.143878     20.42087     75.10815        16     1.064     1.006   2.08   0
       251    491.8133    374.8643 300.2109487 +22.6412138      389.321     72.34407      1.362     1.83     5.783842     20.42087     61.37455         6     0.677     0.542  37.65   0
       252    175.6095    373.0664 300.1131446 +22.5459505     2021.046     72.38096      1.448     2.74     5.393202     20.42087     247.4321        22     1.085     1.075  65.21   0
       253    189.0191    368.7557 300.1187128 +22.5487319     99.58389     72.39939      1.132     3.78     5.391507     20.42087     30.50724         5     0.820     0.500 -59.06   0
       254    832.6382    366.4417 300.3198819 +22.7408491     295.4692     72.47308      1.940     5.23      5.30102     20.42087     32.25803         7     1.798     0.430  40.56   0
       255    975.3724    363.0021 300.3655205 +22.7825784     1193.765     72.32562      1.512     2.85     5.207527     20.42087     135.4096        21     1.153     1.050  72.99   0
       256    561.5961    362.4618 300.2367040 +22.6585511      6590.14     72.38096      1.309     2.25     5.505236     20.42087     983.8215        33     1.136     1.045 -84.72   0
       257    276.5076    361.9900 300.1481180 +22.5730086     765.5914     72.32562      1.557     3.02     5.432444     20.42087     88.91212        12     1.060     0.729 -43.27   0
       258    133.9862    355.0077 300.1060621 +22.5282891     514.8212     72.27025      1.397     4.42     5.398306     20.42087     64.26424        11     1.219     0.690   3.20   0
       259    821.6682    354.1259 300.3204570 +22.7340239     282.7492     72.45467      1.411     4.83     5.373116     20.42087     47.67994        10     0.987     0.847 -69.02   0
       260    675.5822    353.0525 300.2752679 +22.6899806     502.1879     72.36252      1.233     2.78     5.303399     20.42087      72.9865        11     0.996     0.685 -18.65   0
       261    765.7593    351.5725 300.3038543 +22.7165534     1225.477     72.41782      1.469     2.51     5.314009     20.42087     162.4093        15     1.017     0.931 -75.06   0
       262    468.2709    348.7522 300.2120903 +22.6266587     6183.425     72.36252      1.324     2.36     5.686697     20.42087     846.1454        33     1.121     1.067  75.76   0
       263    957.6379    343.7343 300.3662384 +22.7717290     520.6328     72.36252      1.317     2.58     5.275947     20.42087     82.53425        10     0.841     0.787  18.15   0
       264    860.2147    343.3592 300.3359705 +22.7424652     1396.001     72.39939      1.362     2.53     5.215156     20.42087     178.8684        18     1.002     0.960  70.87   0
       265    452.9521    337.4084 300.2110012 +22.6188105     380.0451     72.39939      1.208     3.25     5.514466     20.42087     53.44518         9     0.806     0.777 -20.69   0
       266    535.5867    335.7039 300.2372842 +22.6430713     364.3891     72.30717      1.140     2.66     5.526472     20.42087     58.85724         8     0.876     0.593  70.45   0
       267    515.8958    333.8424 300.2317560 +22.6366389     252.8191     72.39939      1.132     4.43     5.613883     20.42087     49.76698         9     1.089     0.704 -64.58   0
       268    832.9099    330.7642 300.3315415 +22.7306705     533.2686     72.36252      1.373     4.31     5.324484     20.42087     70.00272        12     1.128     0.911  52.67   0
       269    355.8233    327.9720 300.1838308 +22.5870023     2607.157     72.38096      1.413     2.62     5.428243     20.42087     347.3188        25     1.134     1.024  89.46   0
       270     74.4204    325.1965 300.0972167 +22.5018746     1062.573     72.34407      1.599     3.04     5.407491     20.42087     126.2163        16     1.137     0.905 -17.73   0
       271    325.1574    317.3047 300.1777489 +22.5747502      30220.4     72.39939      1.410     2.63     5.411871     20.42087     3514.207        66     1.320     1.213  74.79   0
       272    859.7298    315.1268 300.3449780 +22.7342003     1211.064     72.45467      1.277     2.83     5.233748     20.42087     152.1254        15     0.903     0.871  75.17   0
       273    815.5378    313.1378 300.3318424 +22.7204018     252.7928     72.41782      1.148     2.77     5.378252     20.42087     57.80283         5     0.922     0.334  -5.79   0
       274     21.3969    304.9352 300.0873104 +22.4801627     5082.976     72.38096      1.751     3.61     5.414401     20.42087     538.5763        44     1.473     1.380  72.67   0
       275    775.2262    303.9760 300.3222459 +22.7057010      633.658     72.34407      1.406     3.12     5.366709     20.42087      71.3285        10     0.896     0.776 -49.79   0
       276    199.3725    303.7413 300.1430217 +22.5331639     463.9632     72.38096      1.300     3.09     5.396638     20.42087     61.88806         5     0.809     0.455 -42.32   0
       277    423.7968    302.7075 300.2131812 +22.6001061     506.6928     72.28871      1.402     2.39     5.221981     20.42087     76.71007         7     0.861     0.593 -17.22   0
       278    735.6440    297.2290 300.3120954 +22.6919124     1790.849     72.41782      1.296     2.56     5.306321     20.42087     247.4471        19     1.065     0.927 -54.26   0
       279    544.0530    291.9449 300.2541150 +22.6330299     373.5405     72.41782      1.273     3.34     5.334579     20.42087     58.71346         8     0.928     0.633 -87.13   0
       280    951.0193    290.3376 300.3814949 +22.7543879     671.9883     72.36252      1.475     3.68     5.355447     20.42087     68.87959        10     0.953     0.775  36.45   0
       281    397.3579    281.7242 300.2117574 +22.5861571     2310.863     72.36252      1.632     3.04     5.249472     20.42087      271.961        23     1.314     0.960  66.51   0
       282    609.6028    280.6152 300.2782074 +22.6494012     285.0174     72.23331      1.347     3.73     5.319126     20.42087      38.9131         5     0.941     0.440  14.41   0
       283    836.7780    274.6719 300.3509422 +22.7156957      788.385     72.39939      1.418     2.67     5.291154     20.42087     105.9124        14     1.053     0.844  80.11   0
       284    828.7227    275.5540 300.3481442 +22.7135387     310.2975     72.36252      1.529     4.10     5.308098     20.42087     44.27744         5     0.965     0.497   1.45   0
       285    719.0942    272.5655 300.3149363 +22.6798662      394.894     72.36252      1.291     2.73     5.306827     20.42087     65.39201         8     0.878     0.614 -54.38   0
       286    736.0953    272.5044 300.3202552 +22.6849378     294.0662     72.54669      1.167     3.51      5.30966     20.42087     36.35043         6     0.783     0.499  -2.86   0
       287    686.9537    272.0253 300.3050946 +22.6700896     208.1615     72.39939      1.246     3.60     5.300822     20.42087     41.79509         5     0.817     0.487 -27.63   0
       288    187.5798    262.6865 300.1526689 +22.5178385     335.5366     72.30717      1.585     3.68     5.517445     20.42087     36.47791         5     0.929     0.487  84.04   0
       289    473.2366    261.1957 300.2420355 +22.6029844     1212.346     72.39939      1.273     2.72     5.481296     20.42087     140.1754        17     1.074     0.872  45.15   0
       290    280.8441    261.5648 300.1820401 +22.5454608     238.7152     72.43624      1.087     1.82     5.624979     20.42087     57.90388         5     0.645     0.479  17.16   0
       291     45.6378    261.5700 300.1089065 +22.4749784     405.5845     72.41782      1.415     3.50     5.571782     20.42087     32.10767         5     1.057     0.334 -21.37   0
       292    984.4214    257.6505 300.4025185 +22.7549772     311.9489     72.38096      1.320     3.86     5.558043     20.42087     44.22276         5     0.976     0.437 -12.66   0
       293    856.3812    254.8008 300.3635001 +22.7158465     307.1558     72.30717      1.261     2.39     5.246245     20.42087     39.99688         5     0.706     0.454 -71.33   0
       294    718.1681    253.0077 300.3209904 +22.6739650     2229.881     72.38096      1.383     3.02     5.291063     20.42087     253.3697        25     1.180     1.024 -61.45   0
       295    979.5125    247.5513 300.4042619 +22.7506027     3165.147     72.38096      1.530     2.87     5.557005     20.42087     381.6473        28     1.259     1.087 -72.58   0
       296    426.3170    236.7313 300.2353619 +22.5819014     682.7097     72.49149      1.487     2.82     5.256049     20.42087     98.24706        12     1.059     0.753 -39.89   0
       297    101.2386    230.8821 300.1361381 +22.4828302     1427.065     72.34407      1.851     3.75     5.488861     20.42087     132.6212        26     1.452     1.130 -13.46   0
       298    131.9850    231.1113 300.1456217 +22.4921099      646.304     72.32562      1.512     3.20     5.488091     20.42087     82.63658        12     1.080     0.710 -11.62   0
       299    995.5522    228.1368 300.4155629 +22.7498148     438.7724     72.39939      1.555     5.40     5.585474     20.42087     53.17895         8     1.143     0.720 -32.56   0
       300    838.8464    224.7631 300.3677724 +22.7019589     386.4496     72.41782      1.541     3.97     5.223145     20.42087     48.81997         7     0.965     0.751  73.45   0
       301    185.3990    222.8537 300.1649067 +22.5057436     525.6576     72.32562      1.408     2.95     5.668263     20.42087     77.73636        11     1.042     0.737 -58.11   0
       302    980.2711    221.1011 300.4130759 +22.7432189     356.3287      72.5283      1.607     4.02     5.576327     20.42087     44.32797         7     0.969     0.883  20.04   0
       303     41.1794    220.3105 300.1208990 +22.4617945     260.9767     72.30717      1.322     2.80     5.828444     20.42087     45.24089         5     0.754     0.424  17.28   0
       304    861.1940    217.1415 300.3772131 +22.7064535     285.8886     72.34407      1.281     2.57     5.236067     20.42087     46.87328         6     0.731     0.551  29.64   0
       305    789.6527    214.7057 300.3556945 +22.6843446     685.7417     72.45467      1.373     2.54      5.22099     20.42087     102.0045        10     0.839     0.765  48.67   0
       306    380.0451    214.1807 300.2282714 +22.5615621     433.7235     72.41782      1.333     3.47       5.6714     20.42087     62.08335         9     1.001     0.740 -39.45   0
       307    887.9895    203.6619 300.3899411 +22.7105930      2068.88     72.30717      1.490     2.98     5.318239     20.42087     258.3631        25     1.214     1.063 -86.70   0
       308    306.3072    200.6640 300.2097084 +22.5355914     2195.045     72.49149      1.472     2.63     5.969138     20.42087     291.4792        23     1.204     1.007  25.59   0
       309    193.4354    201.0668 300.1744693 +22.5018930     312.4216     72.38096      1.396     3.72     5.669293     20.42087     32.19765         6     1.227     0.324 -38.16   0
       310    786.4692    195.4186 300.3609554 +22.6778442     559.9135     72.39939      1.238     2.66     5.243688     20.42087     83.17731        10     0.917     0.721  27.35   0
       311    542.7737    195.5769 300.2849661 +22.6049449     209.5961     72.34407      1.391     4.31     5.330068     20.42087     27.01221         5     0.920     0.576 -49.45   0
       312    384.2178    195.6086 300.2355914 +22.5574745     1102.867     72.32562      1.528     3.75     5.640309     20.42087     113.7305        19     1.197     1.045  48.54   0
       313    893.5129    192.7154 300.3952131 +22.7090961     473.8944      72.5099      1.682     3.07     5.313294     20.42087     50.68105         5     0.880     0.490  82.33   0
       314    201.2216    187.8878 300.1811631 +22.5004398     793.3482     72.30717      1.428     3.22     5.670961     20.42087     98.23041        13     1.019     0.938  46.18   0
       315    319.5396    187.2180 300.2181845 +22.5356913     178.5262     72.32562      1.408     5.11     5.969138     20.42087      36.7773         6     1.066     0.691 -44.49   0
       316    739.1442    185.0141 300.3495754 +22.6606888     1705.827     72.36252      1.367     2.74     5.340901     20.42087      217.191        19     1.021     0.956 -71.57   0
       317    804.0654    184.9811 300.3698256 +22.6801074     604.0966     72.34407      1.307     2.41     5.224939     20.42087     92.21743        10     0.872     0.695   6.73   0
       318    222.7482    181.2050 300.1900242 +22.5049691     604.1908     72.36252      1.591     2.84     5.732165     20.42087     60.06067         9     0.869     0.689  32.75   0
       319   1010.6291    177.8181 300.4365831 +22.7398441     805.2495     72.36252      1.381     3.05     5.643413     20.42087     104.1421        14     1.022     0.955  -1.39   0
       320    743.0275    176.5126 300.3535420 +22.6594057     833.9672     72.38096      1.473     2.55     5.347482     20.42087     100.3112        13     0.921     0.831  57.19   0
       321    512.2317    177.5125 300.2813109 +22.5906071     368.6023     72.34407      1.399     2.22     5.340387     20.42087     50.78309         5     0.687     0.463 -21.66   0
       322    663.5991    175.8177 300.3290124 +22.6354335     1079.802     72.28871      1.213     2.16     5.315381     20.42087     199.2092        16     0.998     0.810  40.14   0
       323    484.8323    172.1711 300.2745107 +22.5808678      272.338     72.38096      1.114     2.98     5.343348     20.42087     45.71832         6     0.752     0.544 -31.01   0
       324    859.1675    167.2918 300.3927432 +22.6915057     1544.482     72.32562      1.528     2.67     5.237754     20.42087     196.2649        20     1.176     1.003 -69.76   0
       325    589.6524    167.4655 300.3086812 +22.6108969     929.4243     72.41782      1.305     3.03     5.363478     20.42087      141.629        13     0.985     0.840  83.41   0
       326    871.1396    166.4391 300.3967536 +22.6948423     866.9439     72.38096      1.482     3.35     5.240508     20.42087     105.2756        16     1.054     0.980 -67.77   0
       327    917.7532    165.6835 300.4115383 +22.7085702     259.3409     72.36252      1.264     3.39     5.259556     20.42087     42.66961         5     0.769     0.433  15.47   0
       328    987.5890    156.6763 300.4362471 +22.7268682     1063.001     72.38096      1.453     3.83      5.53825     20.42087     139.8858        15     1.231     0.823  66.85   0
       329     11.6147    153.2649 300.1334459 +22.4336804     438.0424     72.36252      1.616     3.37     6.003397     20.42087     45.42487         5     0.771     0.428 -68.77   0
       330    221.9037    149.4888 300.2000423 +22.4956038     663.6877     72.56509      1.444     3.00     5.630144     20.42087     78.86179        11     0.895     0.832 -57.20   0
       331     83.7331    144.1122 300.1588251 +22.4526630     2218.051     72.47308      1.624     3.36      5.83209     20.42087     223.9714        27     1.233     1.164  88.70   0
       332    906.8873    141.7077 300.4159209 +22.6984207     864.3255     72.54669      1.489     3.53     5.301748     20.42087     89.18512        15     1.092     0.958  75.41   0
       333     33.2009    141.0156 300.1441238 +22.4366314     504.0564     72.23331      1.526     4.34     5.940559     20.42087     47.24997        10     1.225     0.622 -13.91   0
       334    241.0855    137.5055 300.2098924 +22.4979067     5626.206     72.56509      1.485     2.80     5.685999     20.42087     676.8111        38     1.277     1.178  70.93   0
       335     25.1216    131.9867 300.1445394 +22.4316172     1350.207     72.38096      1.771     3.76     5.945156     20.42087     139.6799        23     1.293     1.076  28.32   0
       336    224.6094    128.6564 300.2076360 +22.4904286     597.4673     72.36252      1.405     3.14     5.637688     20.42087     75.94023        12     1.081     0.759 -51.31   0
       337    989.0154    118.0698 300.4492064 +22.7161835     2792.428     72.39939      1.541     3.31     5.483311     20.42087     341.4726        30     1.293     1.173  88.86   0
       338    885.2949    119.3780 300.4164235 +22.6855359     3496.122     72.28871      1.422     2.66     5.423171     20.42087     484.7153        27     1.171     1.074  89.61   0
       339    434.6273    114.3509 300.2776215 +22.5492138     602.0279     72.39939      1.255     2.82     5.346042     20.42087     94.00844        12     0.993     0.759 -48.16   0
       340    187.7478    114.9832 300.2006036 +22.4754579     391.9427     72.38096      1.408     4.20     5.511888     20.42087     40.58316         8     0.960     0.622 -25.24   0
       341    549.2039    112.8014 300.3138006 +22.5830703     162.0785     72.15938      1.091     2.75     5.345313     20.42087     36.11929         6     0.729     0.564 -49.23   0
       342    359.2313    106.0116 300.2568570 +22.5242404      792.499     72.38096      2.070     5.17     5.455551     20.42087     65.03905        16     1.480     0.915 -24.33   2
       343    125.1210    103.6024 300.1848195 +22.4534267     611.2798     72.28871      1.543     3.58     5.548323     20.42087     67.88737         8     1.006     0.609 -33.28   0
       344    486.1076    101.6177 300.2977759 +22.5609660     1738.195     72.30717      1.378     2.67      5.34253     20.42087     246.7037        18     1.072     0.931  70.34   0
       345    547.9533    101.4427 300.3170922 +22.5794297     405.0775     72.41782      1.413     1.91     5.344718     20.42087      52.2913         6     0.728     0.497  -0.89   0
       346    229.5447     97.0807 300.2194039 +22.4828338     332.7702     72.41782      1.368     5.10     5.633538     20.42087     57.47807         8     1.073     0.731 -32.48   0
       347    774.4512     91.1823 300.3909964 +22.6442620      264.919     72.38096      1.124     3.62     5.676602     20.42087     36.79627         7     0.828     0.635  20.39   0
       348    919.9954     85.9697 300.4380753 +22.6863015     378.9577     72.36252      1.383     3.99     5.424984     20.42087     40.44806         7     0.885     0.641  31.07   0
       349    260.1290     81.4297 300.2339887 +22.4874966     6002.912     72.38096      1.490     2.81     5.537719     20.42087      718.635        38     1.309     1.162  73.88   0
       350    766.8104     82.5476 300.3914126 +22.6394917     271.0293     72.38096      1.029     2.17     5.729382     20.42087      58.1851         5     0.699     0.436  26.13   0
       351    111.0585     80.8500 300.1878206 +22.4426772     641.0106     72.43624      1.642     3.87     5.535165     20.42087     76.86375        14     1.149     0.937 -43.21   0
       352    232.1577     75.3800 300.2272486 +22.4773805     316.7484     72.41782      1.380     3.36     5.526374     20.42087     34.86909         6     0.723     0.645 -64.39   0
       353    735.9438     73.0129 300.3848802 +22.6275132     155.8466     72.38096      1.164     3.68     5.783636     20.42087     32.14587         5     0.663     0.587   0.44   0
       354    275.3054     73.0207 300.2414346 +22.4896251     457.1534     72.30717      1.806     2.21     5.494478     20.42087     45.68275         5     0.828     0.614  51.56   0
       355     22.2397     71.7912 300.1631504 +22.4134641     420.5078     72.38096      1.650     2.55     5.659463     20.42087     52.76175         5     0.710     0.652  17.26   0
       356    506.2552     66.8340 300.3153213 +22.5569960      6407.31     72.39939      1.421     2.85     5.300956     20.42087     756.5156        36     1.311     1.088  86.54   0
       357    391.2830     66.7056 300.2795693 +22.5225390     690.7418     72.56509      1.473     2.83      5.37331     20.42087     85.92273        10     0.836     0.822   6.15   0
       358    563.4277     61.9904 300.3346967 +22.5727162     349.7415     72.38096      1.385     2.32     5.420389     20.42087     48.95189         6     0.768     0.494  87.84   0
       359    700.6132     58.7425 300.3784922 +22.6128365     351.2297     72.34407      1.178     3.68     5.817337     20.42087     52.08012         5     0.853     0.457  42.46   0
       360    758.7589     56.7487 300.3972625 +22.6296601     855.1853     72.38096      1.630     2.43     5.898354     20.42087     109.9789        13     0.942     0.843  13.49   0
       361    851.2833     56.0439 300.4263405 +22.6571365     426.0961     72.34407      1.185     2.41     5.913666     20.42087     58.55569         7     0.691     0.665 -88.35   0
       362    199.1797     50.8165 300.2249510 +22.4604444     494.6868     72.36252      1.330     2.24     5.403639     20.42087     63.73617         7     0.813     0.547  21.31   0
       363    634.6429     47.0428 300.3617254 +22.5897302     6295.384     72.49149      1.403     2.61     5.894763     20.42087     760.3315        33     1.241     1.064  77.48   0
       364    557.9265     49.4137 300.3370582 +22.5674527     526.2629     72.39939      1.377     3.65     5.397594     20.42087     63.14151         8     0.940     0.648  -9.71   0
       365    409.5277     45.8706 300.2919989 +22.5220116     1448.894     72.45467      1.415     2.78     5.378051     20.42087     193.5357        20     1.197     0.949  64.92   0
       366    675.8008     44.4591 300.3753876 +22.6013030     922.0242     72.34407      1.422     2.51     5.927036     20.42087     126.8068        17     1.243     0.890 -75.44   0
       367    745.6884     42.1663 300.3979129 +22.6215541     466.6357     72.34407      1.257     3.06      5.98676     20.42087      48.3667         5     0.896     0.353  46.20   0
       368    691.9121     40.4269 300.3817150 +22.6049639      680.058     72.36252      1.701     3.10     5.973431     20.42087     67.89333        11     0.974     0.772  -6.66   0
       369    158.2193     38.2407 300.2162882 +22.4445621     629.1041     72.39939      1.429     4.15     5.390993     20.42087     82.84774        14     1.193     1.000  61.79   0
       370      5.3578     38.6535 300.1686408 +22.3988872     458.7571     72.27026      1.692     5.25     5.323144     20.42087     35.53081         8     1.133     0.686  30.93  16
       371   1000.9191     37.9968 300.4788700 +22.6966943     275.7763     72.28871      1.295     1.90     5.266667     20.42087     54.68515         5     0.592     0.560  -0.41   0
       372    961.2209     38.2507 300.4664001 +22.6848962     459.4656     72.38096      1.411     3.32     5.332391     20.42087     58.05283         8     0.928     0.694 -11.73   0
       373    729.8954     35.9456 300.3950055 +22.6150393     410.6778     72.45467      1.229     3.10     6.016101     20.42087     67.26119         9     0.949     0.650  55.53   0
       374    678.8042     31.8357 300.3804134 +22.5985703     2754.211     72.39939      1.468     2.85     6.045855     20.42087      318.419        27     1.238     1.054  86.71   0
       375    319.8307     32.8480 300.2683033 +22.4914118     430.6809     72.41782      1.144     2.67     5.353762     20.42087     62.86013         7     0.890     0.524 -12.32   0
       376    693.7192     30.7709 300.3854067 +22.6027267     874.6328     72.39939      1.670     4.82     6.053789     20.42087     86.11127        16     1.340     0.850  44.27   0
       377    765.3380     23.6048 300.4100523 +22.6220920     1527.856     72.36252      1.418     2.59     6.120917     20.42087     204.9607        20     1.140     0.989  89.72   0
       378    703.4312     16.7878 300.3929638 +22.6016096     702.4052     72.38096      1.226     2.62     6.168831     20.42087     118.1132        12     1.047     0.815 -31.14   0
       379     81.8577     16.2732 300.1996654 +22.4153763     524.5195     72.41782      1.437     2.86     5.282856     20.42087     75.40359        11     1.029     0.723 -20.69   0
       380    168.2933   1016.7319 299.9017665 +22.7284444     708.0787      72.5283      2.538     7.59     98.42017     20.42087      36.4287        13     1.385     1.164  38.62  18
       381    761.8482   1016.9811 300.0864533 +22.9065604     2150.942     72.41782      0.456     2.04     3.654359     20.42087     1545.659         7     0.388     0.333   2.00   0
       382    745.2733   1014.6009 300.0820615 +22.9009082     483.6935     72.27026      2.112     6.97     3.869722     20.42087     32.79661         9     1.459     0.934 -20.43  16
       383    307.5946   1012.6364 299.9464185 +22.7690740     1694.307     72.39939      4.558     6.14     6.582152     20.42087     93.42933        33     1.719     1.446 -21.84   0
       384    143.1948   1008.6198 299.8966031 +22.7185854     1628.083     72.36252      3.094    15.26     90.37805     20.42087     51.53788        47     3.499     1.851  -9.78  18
       385    231.9927    984.6543 299.9320066 +22.7383632     5713.744     72.38096     10.067    40.86     56.67353     20.42087     100.4781       547     8.787     5.893 -75.37  19
       386    251.6593    974.7825 299.9413334 +22.7414335     8913.037     72.32562     12.022    39.86     33.85268     20.42087     182.6574      1089    13.583     6.050  72.10  27
