#   1 NUMBER                 Running object number                                     
#   2 X_IMAGE                Object position along x                                    [pixel]
#   3 Y_IMAGE                Object position along y                                    [pixel]
#   4 ALPHA_J2000            Right ascension of barycenter (J2000)                      [deg]
#   5 DELTA_J2000            Declination of barycenter (J2000)                          [deg]
#   6 FLUX_APER              Flux vector within fixed circular aperture(s)              [count]
#   7 FLUXERR_APER           RMS error vector for aperture flux(es)                     [count]
#   8 FLUX_RADIUS            Fraction-of-light radii                                    [pixel]
#   9 FWHM_IMAGE             FWHM assuming a gaussian core                              [pixel]
#  10 BACKGROUND             Background at centroid position                            [count]
#  11 THRESHOLD              Detection threshold above background                       [count]
#  12 FLUX_MAX               Peak flux above background                                 [count]
#  13 ISOAREA_IMAGE          Isophotal area above Analysis threshold                    [pixel**2]
#  14 A_IMAGE                Profile RMS along major axis                               [pixel]
#  15 B_IMAGE                Profile RMS along minor axis                               [pixel]
#  16 THETA_IMAGE            Position angle (CCW/x)                                     [deg]
#  17 FLAGS                  Extraction flags                                          
         1    515.4547     15.9836 300.3326587 +22.5431781     1066.318      72.4785      1.382     2.97     5.870019      20.4536     124.7341        15     1.005     0.902 -54.57   0
         2    419.0598     14.1015 300.3032557 +22.5137714     709.1949     72.57079      1.320     2.98     6.136923      20.4536     100.5623        13     0.980     0.889  58.71   0
         3    190.5563      3.8967 300.2354673 +22.4423909     3797.604     68.62662      1.619     3.05     5.962518      20.4536     437.0198        38     1.455     1.242  35.27  24
         4    758.4144      5.0100 300.4119165 +22.6127499      594.879     71.81048      1.391     3.23     6.538117      20.4536     80.46652         9     0.962     0.807  21.58  16
         5    321.1796      5.2130 300.2756734 +22.4819000     291.4851     72.21944      1.371     3.38     6.143121      20.4536     31.32694         5     0.963     0.344 -43.06  16
         6    612.8682      1.5423 300.3676809 +22.5681884     344.0134     57.61964      1.140     2.21      5.87113      20.4536     58.01969         5     0.699     0.454  22.77  24
         7    516.3373      1.4239 300.3376514 +22.5392546     199.4515     57.01236      1.118     3.28     5.869672      20.4536     43.22263         5     0.717     0.480  12.89  24
         8    167.9080   1007.5991 299.9025307 +22.7237556     691.0439     72.38609      1.783     6.54     90.30185      20.4536     43.90251        10     1.544     0.777 -55.10   2
         9    267.3389   1016.0630 299.9306949 +22.7560346     2877.658     72.53389      7.848    40.81     36.01987      20.4536     73.58716       273     8.525     5.420  67.36  27
        10    220.0999    986.0735 299.9257617 +22.7332521     4239.931     72.62611      9.253    39.50     64.72007      20.4536     93.44963       423     9.248     4.682 -89.95  19
        11    240.4957    985.1400 299.9324079 +22.7391072     6079.869     72.57079     11.340    45.39     49.84781      20.4536      110.265       672     9.371     7.071 -80.28  19
        12    257.8392    974.7220 299.9411911 +22.7413253     9335.952      72.4785     14.182    40.44     29.53093      20.4536     182.3129      1091    13.787     5.757  67.05  19
        13    517.2629    976.2365 300.0214278 +22.8196133     446.5661     72.49696      1.783     5.05     4.047864      20.4536     38.62152         8     0.989     0.729 -68.63   0
        14    672.3062    972.9792 300.0707792 +22.8651876     286.3732     72.42307      1.882     5.03     4.134837      20.4536     28.82898         5     1.202     0.596  -9.39   0
        15    946.5753    971.0343 300.1569199 +22.9468666     774.4389     72.51543      2.246     5.06     4.374726      20.4536     46.53659         8     0.955     0.794  17.36   2
        16    182.6000    967.0770 299.9202820 +22.7165459     990.7308     72.36759      2.703     7.86     54.48983      20.4536     56.84599        16     1.653     1.137 -82.49   1
        17    190.8663    998.1830 299.9127321 +22.7279484      2759.48      72.4785      5.383    24.15     79.31235      20.4536     71.18917       140     5.375     3.014  35.77  18
        18    165.0535    954.7264 299.9188446 +22.7077360     1624.772     72.51543      5.128    11.58     48.31034      20.4536     53.55714        26     2.549     1.465   9.88   2
        19    192.5681    992.4540 299.9151252 +22.7268164      1817.94     72.51543      8.153    12.83     73.93561      20.4536       59.937        37     2.664     1.721 -87.92   3
        20    670.9089    954.2323 300.0764431 +22.8593863     6909.967     72.44154      1.965     4.33     4.242846      20.4536     444.4007        49     1.540     1.467  50.05   0
        21    107.7397   1012.6863 299.8821726 +22.7071474     4220.639     72.58923     14.817   107.19     89.78611      20.4536     140.5864      2019    23.011    13.853  52.03  27
        22    823.2612    947.7311 300.1260436 +22.9032050     306.2748     72.53389      1.748     5.23     4.404584      20.4536     30.95504         5     1.416     0.546  48.30   0
        23    579.5033    944.8900 300.0510081 +22.8292879      1589.91     72.68139      1.905     4.55     4.222878      20.4536     117.0864        27     1.433     1.279  51.06   0
        24    375.1790    998.8916 299.9698306 +22.7834784     460.5233     72.42307      1.595     3.17     4.321834      20.4536     43.70815         7     0.882     0.611  70.63   0
        25    403.7822    939.3106 299.9981154 +22.7749671     6661.713     72.42307      1.864     4.11     4.485257      20.4536     515.6105        44     1.488     1.401 -21.54   0
        26    473.0141    941.3657 300.0189960 +22.7963298     1059.546      72.4785      1.978     5.86     4.286815      20.4536     60.76585        18     1.299     1.046  56.08   0
        27    436.1303    925.8876 300.0125496 +22.7808214     571.0988     72.66296      1.767     4.97     4.388875      20.4536     47.98662        11     1.214     0.971 -85.44   0
        28     81.5691    956.3613 299.8923637 +22.6831390     4467.605     72.49696      5.841    10.47     29.48259      20.4536     1339.868       162     5.515     2.401 -74.07   3
        29    876.7855    922.0312 300.1510944 +22.9118695     323.7156     72.49696      1.600     5.02     4.823915      20.4536     28.85925         5     1.523     0.467 -65.79   0
        30    951.6212    919.2937 300.1753271 +22.9335147       1131.2     72.42307      1.497     3.91     4.889555      20.4536     104.5622        14     1.058     0.894 -34.45   3
        31    949.3408    917.3246 300.1752563 +22.9322655     1360.109     72.55235      1.834     6.81     4.901051      20.4536     89.36292        20     1.695     0.887 -49.33   3
        32    130.7097    914.5067 299.9212507 +22.6858907     1001.502     72.66297      3.963     4.38     17.84968      20.4536     33.76701         5     1.172     0.466 -56.15   1
        33    739.0535    906.8524 300.1130915 +22.8662167     929.2147     72.53389      2.327     6.79     4.517621      20.4536      59.8043        15     1.632     1.007  72.58   0
        34    551.6042    901.9839 300.0562760 +22.8086025     265.7633     72.40458      1.677     5.78     4.495254      20.4536     35.14477         7     1.250     0.859 -31.49   0
        35    773.6571    901.5370 300.1256063 +22.8750654     1070.469     72.55235      1.871     4.98     4.530481      20.4536      71.5266        22     1.411     1.104 -13.81   0
        36     93.9779    918.2837 299.9086055 +22.6759460     4375.225     72.46002     22.991    73.06     10.62591      20.4536      89.6328      1420    17.367     8.529 -30.86  19
        37     98.4394    949.3036 299.8999024 +22.6861808     5815.907      72.4785     23.107    76.12       30.284      20.4536     302.1773      2525    15.821    14.217  -3.21  19
        38    796.0520    894.9949 300.1347155 +22.8799007     11641.79     72.47849      1.876     4.25     4.579226      20.4536     766.6669        58     1.549     1.458 -17.97   0
        39    566.1523    991.8514 300.0315713 +22.8387624     2399.425     72.53389      2.032     4.63     3.839288      20.4536     141.0308        33     1.500     1.324  25.23   0
        40    987.2261    895.2643 300.1942519 +22.9372814     330.2007      72.4785      1.619     5.95     5.051557      20.4536     32.00286         8     1.341     0.743 -19.01   0
        41      2.2307    973.4069 299.8621672 +22.6642008     1282.949     61.33351      6.203    10.22    -15.24395      20.4536     61.73405        28     2.917     0.998  79.29  27
        42    840.7103    895.3529 300.1485228 +22.8933916      325.287     72.46002      1.942     5.50     4.758008      20.4536     33.34059         7     1.237     0.690 -46.65   0
        43    652.6163    987.1976 300.0600183 +22.8633637     8654.799     72.38609      1.961     4.58     4.002864      20.4536     503.9066        49     1.544     1.487  23.29   3
        44    107.1304    886.3773 299.9230699 +22.6707444     1134.846     72.51543      5.844     7.71     9.332066      20.4536     52.72282        24     1.617     1.335 -53.95   0
        45    847.7718    883.1743 300.1546859 +22.8920100     381.5352     72.47849      1.631     4.46     4.828339      20.4536     33.42857         7     1.102     0.514  25.17   0
        46    500.9543    883.1150 300.0466414 +22.7879928     482.2271     72.47849      1.425     3.88     4.525384      20.4536     39.06023         5     1.317     0.328 -30.90   0
        47    804.5067    876.9786 300.1432111 +22.8772605     1494.499     72.42307      1.892     4.69     4.724629      20.4536     97.20612        25     1.335     1.214  23.17   0
        48    658.0794    984.8361 300.0624888 +22.8643244     9507.767     72.44154      2.000     4.52     4.029225      20.4536      570.857        48     1.527     1.463  65.92   3
        49    986.7682    876.0916 300.2003451 +22.9316349     363.4695     72.44154      1.787     3.72     5.175699      20.4536     36.68365         5     0.729     0.693  72.44   0
        50    656.6627    874.2114 300.0980334 +22.8321375      443.009     72.46002      1.576     6.09      4.47297      20.4536     37.81194        12     1.144     0.913  60.11   0
        51    842.6752    870.3448 300.1572693 +22.8867967     936.8986     72.53389      2.137     8.01      4.85979      20.4536     56.75761        21     1.669     1.183  87.81   0
        52    752.5823    987.9730 300.0909174 +22.8935680     581.8599     72.51543      1.977     7.33      4.30528      20.4536     43.00163        14     1.407     1.068  12.68   0
        53    950.7499    868.5742 300.1915528 +22.9186807      388.877     72.51543      1.774     5.42     5.189404      20.4536     31.70904         7     1.687     0.491 -19.37   0
        54    890.8858    863.0000 300.1746925 +22.8991374     379.7727     72.36758      1.282     3.81     5.036072      20.4536      51.4829         5     1.323     0.315   9.85   3
        55    890.3881    860.2343 300.1754368 +22.8981936      368.734      72.4785      1.927     5.05     5.040825      20.4536     30.62965         8     1.257     0.575  67.60   2
        56    741.9493    860.5457 300.1290549 +22.8537857     758.0084     72.53389      1.880     6.96     4.640349      20.4536     58.14088        16     1.271     1.067 -66.41   0
        57    345.4130    860.6099 300.0055489 +22.7348688     263.7643     72.38609      1.412     5.30     5.073692      20.4536     28.73098         5     1.201     0.660  45.58   0
        58    754.0516    858.1640 300.1336016 +22.8567300     669.6843     72.51543      2.017     5.74     4.683645      20.4536     47.13252        13     1.244     0.867  21.56   0
        59    455.0470    856.9745 300.0408506 +22.7667180     4260.305     72.51543      1.692     3.47     4.666896      20.4536     389.4443        37     1.362     1.303 -49.79   0
        60      2.5390    858.8675 299.8995150 +22.6314533     350.1779      62.9067      1.527     4.08     4.258939      20.4536     49.61481         7     1.047     0.455  77.49  16
        61    233.9852    845.3950 299.9758354 +22.6970655     463.2134     72.36759      1.810     4.40      6.05096      20.4536     46.46452         7     0.989     0.556  55.75   0
        62    180.2948    842.8400 299.9599711 +22.6802186     901.0038     72.51543      2.992     6.29     7.225395      20.4536     61.32348        19     1.351     1.198  37.96   0
        63    157.3865    839.7078 299.9538674 +22.6724441     1638.678     72.42307      1.838     4.43     7.465692      20.4536     139.2737        27     1.412     1.305  78.01   0
        64      7.3970   1007.5599 299.8526610 +22.6755429     2940.117     72.51543     14.544    52.05    -24.52829      20.4536     82.03486       714    13.307     5.650  88.02  26
        65    983.4242    827.5695 300.2150817 +22.9166889     2128.074     72.49696      1.904     4.19     5.249261      20.4536     153.5174        30     1.399     1.292   3.27   0
        66    688.7731    827.6619 300.1231761 +22.8283979     513.7424     72.49696      1.628     5.10      4.69214      20.4536     42.49026        10     1.101     0.893  82.96   0
        67     33.1870    828.8868 299.9187849 +22.6320574     523.3916     72.44154      1.974     5.08     4.887081      20.4536     36.44572         8     1.022     0.713  76.17   0
        68    767.2797    821.6031 300.1496139 +22.8501940     684.8452     72.40458      1.730     4.91     4.818882      20.4536     50.99271        14     1.089     0.956  54.68   0
        69    189.8224    821.1237 299.9699942 +22.6768480     440.2896      72.4785      1.576     4.04     6.348063      20.4536     45.48445         7     0.730     0.701  66.21   0
        70    635.0795    815.1841 300.1105038 +22.8087149     4876.614     72.51543      1.637     3.41     4.764598      20.4536     425.7584        38     1.363     1.240  34.68   0
        71    125.2727    815.7518 299.9516732 +22.6559330       368.97     72.49696      1.507     3.65     5.858181      20.4536     47.75448         7     0.978     0.648  71.48   0
        72    437.3486    812.3920 300.0498378 +22.7486116     587.0042     72.49696      1.456     3.96     4.896558      20.4536     78.07293        13     1.138     1.020  51.21   0
        73    185.2040    808.8528 299.9725476 +22.6719415     1307.475     72.49696      1.757     3.81     6.035321      20.4536     140.3533        21     1.297     1.129 -33.59   0
        74    655.6406    807.9869 300.1192497 +22.8128130     732.4952     72.51543      1.602     4.88     4.794166      20.4536      71.2291        13     1.082     0.986   6.11   0
        75    185.7530    975.5074 299.9185196 +22.7199103     1665.236     72.51543      5.211    14.78     61.47997      20.4536     62.45244        44     3.313     1.834  73.86   3
        76    571.7982    798.6960 300.0961528 +22.7850042     254.5331     72.40458      1.447     4.70     4.851206      20.4536     38.47697         6     1.059     0.591  49.16   0
        77    811.1328    794.9987 300.1719352 +22.8556962     4156.744     72.47849      1.674     3.47     4.981378      20.4536      323.587        38     1.403     1.272  35.56   0
        78    542.0490    791.3040 300.0892911 +22.7739602     423.7406     72.55234      1.669     3.76     4.863684      20.4536     35.81068         5     1.238     0.328 -48.91   0
        79    219.7694    789.1620 299.9896969 +22.6766649     444.2176     72.49696      1.697     5.96     5.722665      20.4536     42.67867        12     1.158     0.862 -63.95   0
        80    528.2330    787.2649 300.0863019 +22.7686571     606.5416     72.49696      1.498     3.23     4.872393      20.4536     60.79491         9     0.918     0.709   1.28   0
        81    174.6031    785.4697 299.9768532 +22.6620512     914.1495     72.44154      1.649     3.66      5.76205      20.4536     86.92513        17     1.125     1.012  -7.04   0
        82    589.5577    781.0765 300.1074124 +22.7852701      521.125      72.4785      1.676     4.73     4.979809      20.4536     58.45194        13     1.224     1.019  22.82   0
        83    324.1200    777.3952 300.0259794 +22.7045986     53638.94     72.42307      1.690     3.30     5.197291      20.4536     5409.134        94     1.495     1.436   4.14   0
        84    581.9623    776.5256 300.1065261 +22.7816857     1681.214     72.44154      1.748     3.36      4.98748      20.4536     144.1636        25     1.350     1.099 -49.65   0
        85    994.9589    775.5484 300.2355951 +22.9051937     963.7166     72.49696      1.866     5.33     5.051308      20.4536     71.80769        19     1.317     1.159 -80.07   0
        86    252.2844    774.8145 300.0044728 +22.6823047     410.7742     72.46002      1.855     4.61     5.636868      20.4536     48.28745         6     1.043     0.578  63.09   0
        87    611.0198    772.6882 300.1168246 +22.7892965     755.6122     72.44154      1.560     3.42     5.085117      20.4536     90.88633        15     1.117     0.922  33.16   0
        88    622.0123    771.1978 300.1207334 +22.7921644     459.7823     72.31207      1.418     4.51     5.065176      20.4536     52.33375        11     1.081     0.768  33.43   0
        89     10.6618    771.7614 299.9303566 +22.6089114     886.0114     72.49696      1.926     4.00     4.798218      20.4536     79.29947        13     1.221     1.016  26.52   0
        90    727.6492    767.7516 300.1547696 +22.8228444     368.9392     72.53389      1.431     5.30     4.883692      20.4536     50.48714        10     1.256     0.632  15.95   0
        91    764.9457    757.6892 300.1696657 +22.8311333     735.6525     72.53389      1.521     4.20     4.953741      20.4536     58.22708        15     1.127     0.968  76.53   0
        92    373.8815    754.6794 300.0488466 +22.7130066     31475.36     72.62611      1.629     3.34     4.867278      20.4536     3118.828        74     1.399     1.394  52.73   0
        93    388.0790    755.2527 300.0530785 +22.7174299     2024.615     72.51543      1.627     3.40     4.892622      20.4536     202.2107        27     1.332     1.139 -76.71   0
        94    897.1163    750.7523 300.2131326 +22.8687507     2856.595     72.49696      1.675     3.70     5.157031      20.4536      210.985        28     1.252     1.225   9.92   0
        95    654.8633    746.5427 300.1389825 +22.7949323     971.0927     72.55234      1.639     4.50     5.049408      20.4536     76.90115        19     1.277     1.050 -89.40   0
        96    491.2620    746.7505 300.0879602 +22.7459366     357.0917     72.55235      1.483     5.90     4.959484      20.4536     48.82137         9     1.144     0.856   6.34   0
        97    256.3886    746.4282 300.0149760 +22.6753899     832.7019     72.49696      1.752     4.54     5.618757      20.4536      81.3856        17     1.325     0.954  40.22   0
        98     61.4486    742.0845 299.9557828 +22.6156436     593.5507      72.4785      1.761     5.75     4.930169      20.4536     48.61591        10     1.280     0.726 -51.39   0
        99    502.0131    741.4796 300.0930209 +22.7476473     821.4404      72.4785      1.483     3.54     4.972548      20.4536     88.57278        15     1.056     0.963 -62.00   0
       100    902.5380    738.8292 300.2186994 +22.8669488     532.3596     72.51543      1.863     3.88     5.151198      20.4536      54.8829         7     1.032     0.562 -13.40   0
       101    447.8630    736.4828 300.0777868 +22.7299729     450.7198     72.58923      1.615     4.50     4.959622      20.4536     52.57275        10     1.077     0.907   0.41   0
       102     89.8056    736.2831 299.9664810 +22.6224903     599.5344     72.42307      2.024     5.44     5.003303      20.4536     38.20752        11     1.082     0.771 -46.38   0
       103    655.8562    735.8112 300.1427801 +22.7921474     424.5114     72.47849      1.613     3.72     5.088068      20.4536     35.33013         5     0.948     0.420  46.19   0
       104    935.6703    735.2097 300.2302108 +22.8758359     1937.078      72.4785      0.686     1.01     5.151302      20.4536     908.6008         7     0.521     0.432   5.30   0
       105    384.6767    748.9703 300.0540617 +22.7146059     769.4917      72.4785      1.878     5.95      4.87494      20.4536     63.79686        13     1.131     0.880  15.88   0
       106    253.8565    730.5247 300.0193573 +22.6700661     637.1144     72.53389      1.809     6.08     5.617299      20.4536     57.41154        15     1.272     0.961 -59.98   0
       107    577.4251    721.0533 300.1231441 +22.7643942     349.2628     72.51543      1.347     4.17     5.268226      20.4536     56.10928         7     0.889     0.559  57.88   0
       108    568.8058    717.0008 300.1217766 +22.7606460     1438.659     72.31207      1.473     3.50     5.248509      20.4536     135.2582        22     1.291     1.048 -80.82   0
       109    546.9481    719.6657 300.1141032 +22.7548576     514.3918     72.53389      1.338     4.19     5.123355      20.4536     59.13717        10     1.098     0.719  29.65   0
       110    455.8263    718.7674 300.0860234 +22.7272747     320.4622     72.49696      1.358     4.27     5.058781      20.4536     38.24109         6     1.188     0.437 -30.04   0
       111    963.4183    716.1263 300.2450703 +22.8786640     4623.938     72.49696      1.748     3.75     4.997099      20.4536     365.2432        38     1.400     1.351  83.01   0
       112    489.0040    716.7273 300.0970153 +22.7366385     268.7563     72.44154      1.252     4.76      5.15571      20.4536     38.59595         7     1.022     0.630  16.18   0
       113    696.9398    712.5638 300.1631376 +22.7977849      223.944     72.51543      1.223     5.02     5.056622      20.4536      28.2208         6     1.062     0.672  57.76   0
       114    651.1220    712.1151 300.1490067 +22.7839215     287.0147     72.60767      1.533     3.09     5.242509      20.4536     49.04411         5     0.902     0.403  44.77   0
       115    951.8599    707.5499 300.2442517 +22.8727360     1607.387     72.55234      1.697     3.63     5.108303      20.4536     114.0926        24     1.234     1.136 -87.84   0
       116    314.8668    700.8366 300.0479836 +22.6798480     963.7191     72.49696      1.673     3.83     5.252985      20.4536     85.11819        15     1.137     0.948  32.60   0
       117    983.0199    697.8695 300.2571197 +22.8792881      1820.42     72.47849      1.833     4.19     4.843741      20.4536     150.2775        25     1.342     1.175  34.26   0
       118    778.3852    698.7278 300.1930195 +22.8182205     2690.517     72.49696      1.730     3.29     4.967794      20.4536     234.9135        34     1.598     1.173   4.56   0
       119      1.4072    688.7120 299.9544711 +22.5823115     465.9156      56.8242      1.339     4.67      4.58376      20.4536     63.51755         9     1.265     0.489  87.49  24
       120    860.4276    684.6561 300.2231730 +22.8387615     672.1825     72.49696      1.955     4.47     5.343096      20.4536     45.92181        10     1.233     0.701  36.46   0
       121    163.5155    685.1010 300.0060261 +22.6299243     493.3177     72.66296      1.606     4.24     5.668437      20.4536     70.68359        11     1.252     0.872 -13.65   0
       122    896.7123    675.6789 300.2374068 +22.8470529     149104.1     72.64454      1.661     3.43     5.432114      20.4536     13371.75       157     1.513     1.484 -24.57   0
       123    659.4474    679.1592 300.1623107 +22.7769499     298.8433     72.55234      1.330     5.18     5.394378      20.4536     41.39216        10     1.163     0.653 -11.87   0
       124    748.9992    676.1718 300.1911894 +22.8029323     820.8225     72.46002      1.679     4.11     4.932084      20.4536     71.43515        13     1.113     0.871  57.39   0
       125    501.2072    676.5643 300.1138666 +22.7287642     150.4275     72.51543      1.342     3.51     5.492412      20.4536     30.84922         5     1.262     0.282  53.78   0
       126    929.7626    669.3956 300.2497578 +22.8551484     427.4939     72.53389      1.227     3.63     5.448339      20.4536     57.07165         7     0.966     0.473   8.40   0
       127    582.8134    664.4261 300.1432246 +22.7497449     1590.693     72.49696      1.404     2.97     5.474152      20.4536     169.7194        21     1.111     1.048 -38.33   0
       128    764.1750    661.7545 300.2006048 +22.8033375     9424.598     72.51543      1.527     3.04     4.940194      20.4536     917.1918        41     1.259     1.210  51.04   0
       129    265.6747    656.6525 300.0470381 +22.6524085      4834.26     72.51543      1.588     3.04     5.592885      20.4536      554.331        34     1.239     1.214  -1.03   0
       130    347.7442    654.7200 300.0731977 +22.6764704     1170.033     72.53389      1.595     3.34     4.811556      20.4536     136.8771        17     1.135     0.999  52.22   0
       131    223.4259    652.6711 300.0351917 +22.6385916     531.7308     72.49696      1.497     2.64     5.639183      20.4536     59.05716        10     0.844     0.770  -2.37   0
       132    555.9883    650.2260 300.1394836 +22.7376241     803.0323     72.49696      1.442     3.30     5.475349      20.4536     80.60355        12     1.049     0.749  -1.94   0
       133    547.6241    642.4602 300.1394019 +22.7328859     3329.334      72.4785      1.469     2.91     5.477503      20.4536     401.8443        26     1.157     1.067 -53.57   0
       134    537.8049    636.3469 300.1383301 +22.7281862     1455.788      72.4785      1.442     3.13     5.481959      20.4536     145.1597        21     1.127     1.015 -23.82   0
       135    466.7679    635.3154 300.1165467 +22.7065916     327.5832      72.4785      1.596     4.11     5.380965      20.4536     35.10724         5     0.925     0.521  53.91   0
       136    931.6525    634.0103 300.2618453 +22.8455422     450.2026     72.49696      1.537     6.10     5.519748      20.4536     51.37632        13     1.169     0.896 -40.29   0
       137    201.2085    632.2491 300.0349175 +22.6260648     501.7733     72.49696      1.412     4.89     5.648444      20.4536     62.01442        10     1.104     0.729 -16.41   0
       138    101.6358    630.9831 300.0043728 +22.5958271     334.1207     72.49696      1.469     5.65     5.592799      20.4536     35.58786         8     1.363     0.659  55.74   0
       139    215.5798    630.7512 300.0398731 +22.6299461     589.9719     72.51543      1.515     3.05     5.642039      20.4536     94.71244        13     1.004     0.978 -19.88   0
       140    985.0071    627.5806 300.2805804 +22.8596754     549.9925     72.46002      1.628     5.09     5.363396      20.4536     52.68302        11     1.179     0.944 -37.31   0
       141    241.0895    627.9075 300.0487302 +22.6367823      524.524     72.66296      1.410     3.72     5.609393      20.4536      55.7484         9     0.864     0.698 -27.71   0
       142    561.7905    626.5306 300.1489893 +22.7325571     439.4533      72.4785      1.533     4.99     5.468229      20.4536     42.95977         9     0.971     0.724 -25.76   0
       143    462.6490    625.9032 300.1183223 +22.7026535     1863.668     72.55234      1.499     2.93     5.337948      20.4536      204.777        25     1.155     1.121 -71.03   0
       144    116.6342    620.7552 300.0123573 +22.5973922     19844.86     72.55235      1.719     3.67     5.610755      20.4536     1916.969        63     1.485     1.374  40.47   0
       145     37.4594    622.5695 299.9871614 +22.5741553      687.576     72.51543      1.944     3.87     4.914846      20.4536     66.61227        11     1.184     0.749 -17.82   0
       146    547.4269    621.4160 300.1461775 +22.7267820     1116.511     72.51543      1.486     2.66     5.477355      20.4536     129.5465        14     0.935     0.873 -23.78   0
       147    583.2185    620.5665 300.1576009 +22.7372672     304.8188      72.4785      1.295     4.36     5.452157      20.4536     29.75611         5     1.141     0.473 -58.10   0
       148    301.0361    612.9102 300.0722487 +22.6504577     308.1068     72.47849      1.319     3.98     5.358814      20.4536      47.3405         7     1.088     0.622  31.87   0
       149    965.7452    607.8261 300.2809885 +22.8482262     1022.102     72.51543      1.640     3.73     5.585985      20.4536     97.58811        19     1.244     1.008  18.18   0
       150     62.5551    605.1070 300.0006323 +22.5766751     1605.187     72.51543      2.084     4.96     5.185947      20.4536     92.41113        29     1.558     1.263  82.61   0
       151    832.2790    605.5601 300.2400953 +22.8075938      486.869      72.4785      1.437     4.67     5.262803      20.4536     53.61415        11     1.117     0.807  57.46   0
       152    128.9347    605.2625 300.0212135 +22.5966364     469.4132     72.53389      1.647     4.85     5.583769      20.4536     39.19226         8     1.025     0.649  -8.35   0
       153    510.8759    602.1720 300.1410469 +22.7102966     489.6507     72.49696      1.512     3.70     5.495543      20.4536     49.33833         8     0.805     0.699  27.18   0
       154    906.1871    600.4691 300.2647989 +22.8282713     826.6129     72.51543      1.992     4.08     5.538677      20.4536     60.48033        14     1.157     0.943 -29.66   2
       155    303.5457    600.8600 300.0769437 +22.6477507     315.8689     72.55234      1.336     4.40      5.28519      20.4536     44.41795         6     0.964     0.572 -17.39   0
       156    650.5673    598.4258 300.1857744 +22.7510929     252.5491     72.49696      1.155     4.01     5.416975      20.4536     47.89326         6     1.067     0.431  36.38   0
       157    467.5428    594.0876 300.1301812 +22.6949831     726.7476     72.57079      1.485     4.13     5.417936      20.4536     87.36649        15     1.206     0.953  26.30   0
       158    615.8073    593.0577 300.1766887 +22.7391324     494.0781     72.49696      1.226     2.26     5.438118      20.4536     76.83336         8     0.793     0.632  44.39   0
       159    662.9417    591.3232 300.1919372 +22.7527607     436.7533     72.53389      1.468     3.06     5.408307      20.4536     57.88683         7     0.841     0.586  32.40   0
       160    633.4393    590.9515 300.1828659 +22.7438119       519.47     72.53389      1.387     3.46     5.428569      20.4536     59.68147        11     1.058     0.809  41.18   0
       161    512.1758    589.8396 300.1454577 +22.7071439     1019.308     72.53389      1.537     3.07     5.524323      20.4536     100.5438        15     1.004     0.943  31.55   0
       162    945.7310    585.7063 300.2819302 +22.8358717     3279.435     72.62611      1.576     3.05     5.596424      20.4536     324.8738        27     1.226     1.115  76.55   0
       163    477.5094    585.4785 300.1360805 +22.6954984     1826.757     72.64454      1.431     2.75     5.515981      20.4536      220.479        19     1.118     0.948  49.65   0
       164    815.1093    582.0941 300.2423646 +22.7957046     281.0382     72.66296      1.249     3.93      5.21623      20.4536      45.6245         6     1.076     0.545  19.18   0
       165     39.3934    578.9180 300.0019409 +22.5622100     5111.917     72.42307      1.836     3.47     4.896385      20.4536     543.3185        43     1.483     1.327  45.96   0
       166    453.2847    580.5979 300.1301242 +22.6868338     239.7125     72.42307      1.223     3.52     5.364447      20.4536       44.539         5     0.738     0.484  -8.40   0
       167    984.9609    575.6591 300.2974337 +22.8447321     284.1775     72.49696      1.264     3.42     5.607759      20.4536     39.55109         5     0.809     0.419  18.69   0
       168    340.8653    572.1819 300.0978698 +22.6507083     9246.462      72.4785      1.483     2.90     5.029591      20.4536     966.0217        40     1.222     1.197  14.65   0
       169    463.3488    569.2390 300.1369467 +22.6865885         9119     72.51543      1.425     2.69     5.474066      20.4536     1048.179        41     1.195     1.172  86.29   0
       170    959.6923    560.8065 300.2943741 +22.8328935     12949.05     72.40458      1.607     3.28     5.611818      20.4536     1134.187        53     1.377     1.295 -62.12   2
       171    709.9763    565.5197 300.2149758 +22.7594406     447.1012     72.46002      1.503     3.70     5.091374      20.4536     43.20187         6     0.822     0.478 -12.65   0
       172    875.0457    563.3165 300.2671544 +22.8082618     1888.807      72.4785      1.498     3.01     5.494441      20.4536     190.1586        22     1.150     1.053  69.25   0
       173    523.9215    558.8801 300.1591711 +22.7017713     11786.37     72.62611      1.401     2.65      5.59867      20.4536     1500.795        42     1.175     1.164 -14.85   0
       174    693.6323    554.7965 300.2133651 +22.7514613      630.999     72.49696      1.446     3.17     5.209191      20.4536     60.01173        10     0.898     0.756 -32.71   0
       175    251.3056    554.1834 300.0758541 +22.6186816     1436.842     72.42307      1.489     2.95     5.094922      20.4536     154.8637        22     1.151     1.030  28.90   0
       176    409.2662    553.5850 300.1251959 +22.6658777     321.6811      72.4785      1.231     3.47     5.296422      20.4536     40.20986         5     0.731     0.476 -13.14   0
       177    498.3535    551.6827 300.1535472 +22.6920393     358.1698      72.4785      1.256     2.67     5.615458      20.4536     59.05927         8     0.816     0.733  58.73   0
       178    455.6140    547.0386 300.1417490 +22.6778928     4368.589     72.51543      1.378     2.66     5.528522      20.4536     591.1004        25     1.096     1.020  56.34   0
       179    798.5216    547.2045 300.2485253 +22.7807060     690.1819     72.40458      1.324     3.21     5.217774      20.4536     82.85513        11     0.968     0.714  21.05   0
       180    433.8858    545.3646 300.1355288 +22.6708979     1203.319      72.4785      1.371     2.70     5.453238      20.4536     151.8635        18     1.102     0.961 -80.41   0
       181    188.2425    544.9164 300.0592519 +22.5971063     685.8727     72.46002      1.346     2.97     5.015626      20.4536     114.8757        12     0.964     0.889 -38.08   0
       182    875.4003    542.5928 300.2739960 +22.8024099     1623.911     72.31207      1.621     3.38     5.494215      20.4536     150.4225        23     1.200     1.132 -40.63   0
       183    122.8376    541.4921 300.0400295 +22.5765040     324.8506     72.49696      1.845     5.12      4.96375      20.4536     34.09156         6     1.135     0.654 -82.79   0
       184    755.9011    539.7872 300.2376475 +22.7658051     791.5627     72.40458      1.379     2.49     4.978079      20.4536     115.1093        13     1.025     0.754  55.07   0
       185    572.2233    534.5978 300.1821001 +22.7092728     206881.6     72.44154      1.423     2.53     5.575967      20.4536     25554.41       194     1.473     1.379 -12.77   0
       186    395.8590    540.4752 300.1252807 +22.6580926     388.2577     72.55234      1.469     2.70     5.321481      20.4536     55.83133         6     0.916     0.603  33.75   0
       187    849.7009    537.8389 300.2675253 +22.7933452     262.4394     72.51543      1.551     4.17     5.385704      20.4536     33.96494         6     1.220     0.407  57.93   0
       188    258.2929    534.4263 300.0844436 +22.6151045     3558.408     72.44154      1.545     2.84     5.030788      20.4536     412.6198        28     1.229     1.084  10.98   0
       189    824.3464    530.8188 300.2618990 +22.7837320     660.3358      72.4785      1.568     3.00     5.263943      20.4536      70.1637         8     0.999     0.555 -33.50   0
       190    603.8420    521.3470 300.1962522 +22.7149415     301.6863     72.49696      1.273     2.70     5.509266      20.4536     41.00838         6     0.722     0.611  74.34   0
       191    462.8648    514.8551 300.1544577 +22.6708216       2708.5     72.55234      1.481     2.60     5.662918      20.4536      336.576        28     1.156     1.081 -83.64   2
       192    307.2043    517.5027 300.1051542 +22.6249126      502.429     72.40458      1.355     3.35     5.157901      20.4536     71.95171         7     0.776     0.746  52.97   0
       193    874.3313    511.3707 300.2838024 +22.7931128     256.5909      72.4785      1.379     4.36     5.302174      20.4536     39.04559         8     0.988     0.612 -16.26   0
       194    780.1465    504.1185 300.2567890 +22.7628155     348.9188     72.53389      1.281     3.15     5.070345      20.4536     69.36395        10     0.986     0.808 -83.20   0
       195    859.9109    501.2722 300.2825844 +22.7858901     1673.367     72.66296      1.367     2.85     5.178248      20.4536     184.8752        20     1.120     0.980  21.16   0
       196    746.8818    501.1043 300.2473982 +22.7519836     297.1472     72.64454      1.447     5.13     5.007355      20.4536     47.39962         8     1.185     0.628 -21.64   0
       197    731.1389    498.7723 300.2432484 +22.7465969     2515.502     72.49696      1.374     2.73      5.02991      20.4536     320.5459        26     1.127     1.054  88.21   0
       198     91.2689    499.3899 300.0438878 +22.5549488      300.082      72.4785      1.363     3.45     4.880072      20.4536     31.55073         5     0.785     0.438  19.15   0
       199    975.4009    496.2890 300.3202285 +22.8190441     559.1205     72.42307      1.664     4.56     5.622146      20.4536     51.14997         9     1.007     0.684 -37.28   2
       200    973.9259    492.2056 300.3210942 +22.8174280     712.0904     72.44154      1.572     4.35     5.621345      20.4536     66.43324        10     1.147     0.652  37.63   3
       201    940.6125    496.0026 300.3094677 +22.8085442     237.3968     72.33058      1.399     4.30     5.604739      20.4536      48.0196         7     1.128     0.508  29.31   0
       202    636.0707    495.3943 300.2147199 +22.7171413     516.9623     72.46002      1.597     4.70     5.443472      20.4536     54.08312        11     1.182     0.915 -23.42   0
       203    518.3115    494.5190 300.1783249 +22.6815990     596.5013     72.62611      1.475     3.66     5.724381      20.4536      79.1622        14     1.216     0.747  58.23   0
       204    988.2473    492.9623 300.3253172 +22.8219340     1264.057     72.53389      1.556     3.51     5.628745      20.4536     134.7084        19     1.185     1.030  -4.48   0
       205    860.2421    491.2995 300.2859260 +22.7831218     2331.466      72.4785      1.694     3.50     5.112677      20.4536     222.2489        28     1.561     1.013  69.74   0
       206    613.5637    489.2550 300.2097015 +22.7086326     896.1623     72.51543      2.023     3.16      5.48859      20.4536     96.06179        10     0.996     0.714  78.00   2
       207    452.3381    488.6302 300.1596959 +22.6601323     431.3821     72.51543      1.389     5.44     5.670732      20.4536      57.6166         9     1.318     0.634  49.07   0
       208    399.3114    489.0683 300.1430480 +22.6443622     386.7416     72.66296      1.302     3.60     5.404534      20.4536     47.19766         6     0.901     0.482  52.06   0
       209    898.2684    486.4687 300.2993545 +22.7931215     4324.446     72.55234      1.438     2.56     5.346838      20.4536     484.1798        28     1.137     1.101 -19.97   0
       210    636.0140    483.4393 300.2185841 +22.7136885     311.9034     72.51543      1.253     4.12     5.443472      20.4536     38.17602         6     0.960     0.506  77.07   0
       211    558.9366    482.1607 300.1949892 +22.6902236     421.4262     72.49696      1.313     2.69     5.603065      20.4536     56.63235         8     0.822     0.628  48.37   0
       212    990.0186    476.9659 300.3310641 +22.8178635     783.3909     72.49696      1.428     3.61     5.627963      20.4536     87.56384        13     1.001     0.949 -24.55   0
       213    130.2253    476.3704 300.0634707 +22.5600261     1175.843     72.49696      1.811     3.81     4.928648      20.4536     98.59302        18     1.165     1.043  56.61   0
       214    791.0666    470.3894 300.2711454 +22.7563899     319.7079     72.49696      1.461     3.50     5.076171      20.4536     39.45913         7     0.747     0.670   0.57   0
       215    178.0509    468.5585 300.0808759 +22.5721274     318.1755     72.49696      1.503     5.14     4.976831      20.4536     36.76084         8     1.358     0.549  31.13   0
       216    122.5952    466.6096 300.0642675 +22.5549354     424.4662     72.34909      1.488     4.76     4.977067      20.4536     42.54864         9     1.051     0.614  -8.75   0
       217    730.4339    460.8668 300.2553362 +22.7354894     363.5701     72.49696      1.250     2.44     5.131577      20.4536     68.22105         7     0.794     0.629  12.92   0
       218    619.2933    458.5304 300.2214620 +22.7015195     324.1387     72.62611      1.360     4.31     5.474032      20.4536     34.12798         6     1.072     0.494   4.12   0
       219    671.5563    456.7976 300.2383082 +22.7166806     717.6018     72.49696      1.294     3.04     5.340062      20.4536     97.36694        12     1.028     0.748 -21.09   0
       220    650.8494    455.0981 300.2324079 +22.7099880     217.2016     72.55234      1.059     3.02     5.391346      20.4536     35.07264         6     0.750     0.561 -47.14   0
       221    986.4519    449.4534 300.3388839 +22.8088821     381.8284     72.53389      1.288     3.05     5.611102      20.4536     64.61044         9     0.876     0.814  40.33   0
       222    732.3842    448.8133 300.2598573 +22.7326085     819.5229     72.44154      1.407     3.72     5.155393      20.4536     110.4913        13     1.104     0.895  69.23   0
       223    889.7076    445.3832 300.3100240 +22.7787428     1034.744     72.42307      1.464     3.22     5.293589      20.4536     128.6069        18     1.246     0.867  63.08   0
       224    874.0612    441.5835 300.3063775 +22.7729645      585.406     72.44154      1.382     2.81     5.201444      20.4536      76.9204        10     0.906     0.745  58.00   0
       225    854.6143    442.1330 300.3001342 +22.7672986     265.4526     72.47849      1.075     2.17      5.14809      20.4536     45.74284         5     0.686     0.461 -72.20   0
       226    618.3455    439.5826 300.2273180 +22.6957897     3223.558      72.4785      1.328     2.37     5.473167      20.4536     418.7599        24     1.096     0.973  52.24   0
       227    978.7501    438.5457 300.3400219 +22.8034386     515.9553     72.53389      1.604     4.39     5.595735      20.4536      52.5112        11     1.055     0.916  24.34   0
       228     94.1991    430.9300 300.0670229 +22.5361751     407.3933     72.44154      1.483     5.34     5.252335      20.4536     41.41214         8     1.005     0.802  81.95   0
       229    623.5453    427.7457 300.2327804 +22.6939455      193.689     72.53389      1.302     3.42     5.452528      20.4536     29.19679         5     0.743     0.456  70.04   0
       230    389.9624    427.2642 300.1602025 +22.6238055      311.676      72.4785      1.479     3.57     5.644313      20.4536     42.19632         5     0.980     0.559 -70.87   0
       231    458.3257    426.2552 300.1818096 +22.6440066     330.8187     72.53389      1.162     3.38     5.790474      20.4536     52.14324         7     0.822     0.616 -57.38   0
       232    901.5373    418.4176 300.3224677 +22.7745300     437.5452      72.4785      1.230     3.97     5.369657      20.4536     79.16665        11     1.194     0.728  37.76   0
       233    988.0293    417.4370 300.3497698 +22.8001448     988.7434     72.51543      1.521     3.42     5.598704      20.4536     124.2275        18     1.201     1.076  75.58   0
       234    637.6428    415.2126 300.2412409 +22.6945668     201.6013      72.4785      1.190     3.40     5.398929      20.4536     33.13554         5     1.140     0.293  34.98   0
       235    729.0015    413.6427 300.2702201 +22.7214840     999.0945     72.49696      1.338     2.65      5.24002      20.4536     152.3792        14     0.984     0.827  11.32   0
       236    524.9098    414.1689 300.2064648 +22.6604882     272.3098     72.44154      1.084     2.85     5.630863      20.4536     50.74053         7     0.848     0.531 -42.10   0
       237    233.0727    411.5777 300.1164826 +22.5722646      730.321     72.51543      1.530     3.28     5.215837      20.4536      81.9607        12     1.054     0.787 -87.02   0
       238    295.2432    407.2773 300.1372168 +22.5896694     3758.093      72.4785      1.414     2.66     5.469643      20.4536     435.1203        27     1.198     1.024  50.16   0
       239    242.4604    402.0699 300.1224882 +22.5723487     7597.714     72.53389      1.506     2.88     5.313432      20.4536     875.8538        41     1.260     1.214  44.04   0
       240    621.1746    401.5934 300.2405308 +22.6857182     217.6623     72.49696      1.160     2.83     5.417347      20.4536     38.72295         5     0.727     0.448 -20.62   0
       241   1008.4133    397.1726 300.3627086 +22.8004177     1907.141     72.49696      1.519     2.92     5.636594      20.4536     199.7736        24     1.178     1.083  53.06   0
       242    383.2667    396.2828 300.1681745 +22.6128979     4681.398     72.60767      1.360     2.61       5.7298      20.4536     521.6171        29     1.122     1.094  23.74   0
       243    627.4700    393.0736 300.2452573 +22.6851553     18586.73     72.57079      1.364     2.52     5.378559      20.4536     2178.217        58     1.281     1.212  29.89   0
       244    474.6138    394.9369 300.1970460 +22.6398891     311.8986     72.46002      1.248     3.47     5.813324      20.4536     37.90644         6     0.872     0.555  -3.09   0
       245    644.8823    393.3264 300.2506003 +22.6904444     876.7682     72.60767      1.950     6.45     5.337544      20.4536     75.92412        17     1.529     0.764 -33.69   0
       246    132.9490    390.5012 300.0921899 +22.5361888     186.0716     72.58923      1.121     4.94     5.349545      20.4536     32.48953         5     1.236     0.558 -50.14   0
       247    824.4995    383.3129 300.3098364 +22.7413649    -285.6891     72.66297      0.000     4.53     5.264646      20.4536     42.89861         6     0.940     0.621  26.22   0
       248    247.2870    379.9909 300.1311549 +22.5674545     380.1361     72.42307      1.650     3.13     5.471119      20.4536     53.21816         6     1.011     0.509 -10.35   0
       249    961.1872    375.5974 300.3549751 +22.7800729     809.2391     72.33058      1.664     5.50      5.54983      20.4536     74.03602        14     1.326     0.866 -78.02   0
       250    498.0535    375.3250 300.2107091 +22.6412775     235.9035     72.51543      1.118     3.38     5.734468      20.4536     45.37634         7     0.749     0.661  17.73   0
       251    182.1336    373.1544 300.1131114 +22.5459562     1992.016     72.49696      1.438     2.94     5.372582      20.4536     244.2399        22     1.122     1.060  -6.00   0
       252    568.1754    362.5407 300.2366956 +22.6586141     6646.889     72.49696      1.350     2.43     5.433303      20.4536     896.4666        35     1.181     1.056  62.40   0
       253    981.8250    363.1488 300.3654547 +22.7826699     1275.481     72.51543      1.452     3.13     5.588525      20.4536     127.5453        20     1.155     0.994   4.55   0
       254    283.1153    361.8104 300.1481995 +22.5729735      688.739     72.46002      1.403     3.05     5.697438      20.4536     87.07976        12     0.945     0.857  60.10   0
       255    140.8055    355.2309 300.1060779 +22.5284167     569.9395     72.49696      1.331     3.04     5.471927      20.4536     63.25041         8     0.863     0.652 -23.43   0
       256    828.3267    354.2540 300.3204607 +22.7341539     293.2908      72.4785      1.162     3.54     5.325548      20.4536     56.59108         7     1.000     0.519  45.11   0
       257    681.9077    352.6203 300.2753482 +22.6898332      612.162     72.42307      1.506     3.26     5.245533      20.4536     69.18307        10     0.954     0.759 -67.57   0
       258    772.3198    351.5048 300.3038906 +22.7165914     1216.552     72.60767      1.478     2.56     5.215671      20.4536     156.2845        19     1.070     1.025 -45.67   0
       259    474.7847    348.7295 300.2120948 +22.6266617     6086.661     72.51543      1.374     2.46     5.811658      20.4536     875.5521        33     1.144     1.082  68.29   0
       260    963.8398    343.6875 300.3661587 +22.7716871     634.8669      72.4785      1.392     2.74     5.564117      20.4536     78.44456         9     0.797     0.763  41.43   0
       261    866.7300    343.2195 300.3360177 +22.7424793     1394.764     72.51543      1.459     2.82     5.503558      20.4536     155.8156        20     1.112     0.991  67.40   0
       262    459.2826    337.4660 300.2109233 +22.6187795     491.5082     72.60767      1.309     3.17     5.802943      20.4536     67.48075         9     0.936     0.719   6.27   0
       263    541.8729    335.5968 300.2372469 +22.6429890     525.5528     72.42307      1.391     4.07     5.517107      20.4536     50.89458         7     0.986     0.480  -6.65   0
       264    522.4525    333.3059 300.2319423 +22.6365120     336.2793     72.57079      1.202     3.12      5.60864      20.4536     36.29586         5     0.713     0.465  70.84   0
       265    839.6685    331.1208 300.3315044 +22.7308966     551.2302     72.60767      1.400     3.27     5.440153      20.4536     70.45087         9     0.954     0.686  23.35   0
       266    343.4470    330.7032 300.1770641 +22.5821213     247.8318     72.53389      1.027     3.42     5.890665      20.4536     35.77725         5     0.782     0.434 -68.06   0
       267    362.3508    327.8527 300.1838716 +22.5869681     2467.568     72.53389      1.385     2.60     5.885819      20.4536     346.4148        25     1.114     1.062 -27.98   0
       268     80.7231    325.2817 300.0971187 +22.5017997     1062.257     72.60767      1.655     3.32     5.682898      20.4536     118.0409        20     1.238     1.023   6.82   0
       269    709.8591    322.7180 300.2937623 +22.6896072     326.2183     72.57079      1.976     4.52     5.256339      20.4536     31.45353         6     0.947     0.614  58.98   0
       270    331.6910    317.3737 300.1777310 +22.5747681     29780.75     72.44154      1.452     2.56      5.90158      20.4536      3833.48        66     1.310     1.225  63.11   0
       271    309.2711    321.0548 300.1695610 +22.5691058     215.7532     72.51543      1.239     4.23     5.895535      20.4536     41.94455         6     1.162     0.439  61.97   0
       272    866.3447    315.0944 300.3450239 +22.7342739     1296.258     72.55234      1.349     2.55     5.556535      20.4536     166.5849        18     1.057     0.962  53.95   0
       273    821.7032    312.2910 300.3320121 +22.7201014     266.3084     72.68139      1.430     4.59     5.444284      20.4536     45.46159         7     1.254     0.665  62.92   0
       274     27.9666    305.0641 300.0872824 +22.4801736     4905.517     72.49696      1.651     3.22     5.955698      20.4536     490.6342        37     1.357     1.284  55.15   0
       275    781.6907    303.8719 300.3222682 +22.7056989     480.0612     72.66296      1.264     3.38     5.375912      20.4536     76.08942         8     0.903     0.657  67.39   0
       276    430.0517    302.5510 300.2131519 +22.5999862     511.0239     72.53389      1.342     3.68     5.803379      20.4536     65.54377         7     0.813     0.784  55.56   0
       277    206.1958    303.5075 300.1431920 +22.5331668     450.2197     72.38609      1.697     3.46     5.767992      20.4536     53.99805         6     0.862     0.503 -39.12   0
       278    742.1622    297.2729 300.3120866 +22.6919642     1976.656     72.46002      1.399     2.46     5.291582      20.4536      250.346        22     1.151     1.009  48.20   0
       279    550.7097    292.1075 300.2541094 +22.6331354     288.9596     72.66297      1.105     3.92     5.531666      20.4536     54.74712         9     1.037     0.642  17.46   0
       280    957.4933    290.3377 300.3814893 +22.7544380     615.4255     72.58923      1.495     4.28     5.605906      20.4536      70.9949        12     1.160     0.779 -18.93   0
       281    404.0278    281.7826 300.2117891 +22.5862195     2178.127     72.49696      1.554     3.50     5.838247      20.4536     198.2912        24     1.311     0.970  59.87   0
       282    616.3533    280.2969 300.2783887 +22.6494036     276.2307     72.53389      1.174     4.11     5.417364      20.4536     61.51686         6     1.192     0.525  54.75   0
       283    843.1468    274.7049 300.3508933 +22.7157103     559.3171     72.57079      1.256     2.78     5.646713      20.4536     82.66313        10     0.941     0.653  64.07   0
       284    742.3463    272.0114 300.3203395 +22.6847542     413.3688     72.49696      1.290     3.90     5.481756      20.4536     44.60192         6     1.049     0.416  76.08   0
       285    725.5809    272.2172 300.3150469 +22.6797930      464.803      72.4785      1.321     4.10     5.445801      20.4536      49.1088         7     1.040     0.477 -41.82   0
       286    693.2930    271.3911 300.3052518 +22.6698863      319.242     72.42307      1.746     4.47     5.369078      20.4536     45.18938         6     1.146     0.515  32.89   0
       287    479.7871    261.0887 300.2420863 +22.6029714     1210.595     72.44154      1.297     2.62     5.781765      20.4536     157.8994        13     0.900     0.779  60.97   0
       288    287.5851    261.1990 300.1822320 +22.5454087     297.5416     72.34909      1.244     3.55     5.975483      20.4536     37.13186         5     0.799     0.454 -73.08   0
       289    991.5725    257.6448 300.4027292 +22.7552308     237.5293     72.51543      1.260     2.20     5.745892      20.4536     61.55994         5     0.696     0.471   9.55   0
       290    862.9741    254.9722 300.3634781 +22.7159694     288.3588     72.46002      1.158     2.23     5.801087      20.4536     54.71678         5     0.649     0.519  -0.27   0
       291    724.6439    253.0513 300.3209721 +22.6740004     2268.127     72.53389      1.381     2.68     5.617559      20.4536     259.4243        22     1.124     0.961  76.48   0
       292    985.9321    247.5217 300.4042529 +22.7506296     3111.302     72.60767      1.527     2.75     5.788801      20.4536     392.2981        28     1.202     1.158 -83.98   0
       293    432.8712    236.8691 300.2353360 +22.5819535     696.8746     72.55234      1.482     3.31     5.855979      20.4536      95.1255        10     0.928     0.753  63.72   0
       294    138.5888    231.3514 300.1455756 +22.4921727     786.7953     72.51543      1.832     4.16      5.92063      20.4536     71.72335        12     1.258     0.739   9.79   0
       295    108.0464    230.9463 300.1362121 +22.4829001     1484.785     72.53389      1.858     3.95     5.957319      20.4536     123.5257        27     1.417     1.184 -16.69   0
       296   1001.4824    228.5166 300.4152702 +22.7498140     507.4072     72.62611      1.400     3.16     5.877955      20.4536     54.23531         6     0.874     0.452  16.63   0
       297    845.4229    225.1497 300.3676779 +22.7021356     197.3668     72.49696      1.066     3.93     5.945367      20.4536     50.92273         6     0.943     0.556  26.20   0
       298    192.0687    223.1159 300.1648751 +22.5058383     487.6848     72.60767      1.412     3.60     5.924166      20.4536     56.69656        10     0.919     0.847  46.57   0
       299    986.8077    221.0073 300.4131265 +22.7432613     370.5894     72.34909      1.377     2.30     5.899337      20.4536     50.04035         5     0.759     0.464  24.84   0
       300    868.0555    216.6819 300.3774828 +22.7064743     328.1882     72.53389      1.378     3.32     5.976246      20.4536     43.39774         5     0.778     0.410 -19.54   0
       301    796.1985    214.6924 300.3557204 +22.6843911     716.4222     72.40458      1.254     2.50     5.894729      20.4536     99.51487        13     0.902     0.826  85.48   0
       302    386.8379    213.9846 300.2284295 +22.5615836     343.5438     72.49696      1.217     2.62     5.889801      20.4536     62.53793         6     0.732     0.558  48.92   0
       303    886.8383    207.5499 300.3863029 +22.7094689     335.8218     72.49696      1.457     5.06     5.952993      20.4536     38.58653         8     1.079     0.764  31.80   0
       304    894.4516    203.6270 300.3899499 +22.7106189     2105.078     72.51543      1.430     2.57     5.947228      20.4536     283.2369        20     1.124     0.955  69.59   0
       305    390.8823    196.0426 300.2355068 +22.5576385     1085.202     72.46002      1.507     3.03     5.890991      20.4536     117.3641        18     1.213     0.917 -22.13   0
       306    143.1412    196.2633 300.1583698 +22.4834580     484.0209     72.53389      1.634     5.45     5.999054      20.4536     46.85786         9     1.088     0.770  34.98   0
       307    792.9001    195.5729 300.3608928 +22.6779034     494.1473     72.44154      1.216     2.53     5.929677      20.4536     75.35562         8     0.787     0.668 -82.28   0
       308    549.6331    195.2203 300.2852002 +22.6049578     341.9773     72.49696      1.426     3.68     5.752619      20.4536     29.27135         5     0.966     0.404   6.07   0
       309    312.9797    200.7637 300.2097335 +22.5356530     2248.494     72.51543      1.436     2.60      5.91398      20.4536     274.9056        23     1.113     1.018  48.49   0
       310    207.7332    187.9987 300.1811346 +22.5004440     805.1592      72.4785      1.430     2.85     6.008448      20.4536     90.84752        15     1.029     0.885 -20.03   0
       311    325.6714    187.4959 300.2179849 +22.5356431      331.868     72.60767      1.475     3.90     5.913969      20.4536     31.19385         6     0.930     0.470  89.13   0
       312    745.5782    184.9232 300.3495936 +22.6606726      1634.55      72.4785      1.415     2.77      5.97939      20.4536      205.629        22     1.172     0.994 -87.52   0
       313    810.6404    184.6501 300.3699663 +22.6800717     554.7271     72.51543      1.438     3.16     5.948289      20.4536     86.68282        11     1.001     0.866 -27.52   0
       314    229.0817    181.1969 300.1899796 +22.5048879     379.8621     72.40458      1.204     3.49     6.021156      20.4536     62.02121        10     1.046     0.675  18.87   0
       315   1016.9843    177.8376 300.4365443 +22.7398666     788.6218     72.49696      1.395     2.55       6.0146      20.4536     119.1314        16     1.085     0.898  24.15  16
       316    749.6524    176.6312 300.3535526 +22.6595071     856.1003     72.51543      1.510     2.99     5.979618      20.4536     112.9672        15     1.067     0.861 -31.20   0
       317    669.9504    175.6172 300.3290405 +22.6353522     1221.262     72.53389      1.416     2.62     5.831064      20.4536     182.6536        21     1.128     1.026  16.83   0
       318    491.3887    172.0184 300.2745857 +22.5808412     407.9538     72.46002      1.413     2.86      5.88201      20.4536     53.63327         7     0.727     0.669 -55.87   0
       319    368.0769    171.3906 300.2364030 +22.5437200     266.9955     72.46002      1.372     4.27     5.907314      20.4536     32.66367         5     0.827     0.629  80.50   0
       320    865.5505    167.3456 300.3927014 +22.6915288     1510.852     72.53389      1.399     2.60     5.984804      20.4536      177.127        19     1.070     0.929  76.54   0
       321    596.3563    167.4127 300.3087712 +22.6109549      906.887     72.49696      1.335     2.40     5.872342      20.4536     144.2458        18     1.110     0.928  61.92   0
       322    877.6257    166.5873 300.3967134 +22.6949248     830.7867     72.49696      1.430     2.61     5.981933      20.4536     105.4169        14     0.924     0.886  49.08   0
       323    923.9313    165.1283 300.4116307 +22.7083633      352.386     72.57079      1.632     3.95      5.97415      20.4536     39.01037         5     0.808     0.554  33.36   0
       324    994.3400    156.7605 300.4363124 +22.7270243     1114.686     72.49696      1.467     3.42     6.035698      20.4536     142.1722        17     1.117     0.946  71.27   0
       325     18.4098    153.3376 300.1335189 +22.4337358     407.3542     72.42307      1.585     4.94     6.693931      20.4536     49.21978         8     1.099     0.680 -86.34   0
       326    228.3285    149.2876 300.2000915 +22.4954932     733.5632     72.64454      1.496     3.69     6.054947      20.4536     91.63412        15     1.187     0.859  52.25   0
       327     90.1546    144.1330 300.1588004 +22.4525993     2322.852     72.49696      1.673     3.31     6.131912      20.4536     211.9102        27     1.347     1.102  60.91   0
       328    913.3815    141.7340 300.4159253 +22.6984735     643.2321      72.4785      1.277     2.44     5.982936      20.4536      98.9257        11     0.857     0.785  42.74   0
       329     39.8519    141.2492 300.1441011 +22.4366918     522.7255     72.53389      1.703     4.19     6.522203      20.4536     44.59787         7     1.134     0.441 -30.78   0
       330    247.6616    137.5970 300.2098949 +22.4979272     5635.328      72.4785      1.537     2.84     6.002594      20.4536     689.8035        33     1.238     1.153  69.36   0
       331    229.6638    139.0307 300.2038321 +22.4929459     354.4735     72.51543      1.265     3.32     6.038606      20.4536     38.84284         5     0.769     0.417 -69.83   0
       332     31.8262    131.9616 300.1446179 +22.4316180     1337.594     72.51543      1.825     4.29      6.58465      20.4536     127.0977        23     1.465     1.125   3.60   0
       333    231.0634    128.8465 300.2075691 +22.4904387     602.5186     72.53389      1.399     2.97     6.024923      20.4536     70.69142         9     0.883     0.676   1.29   0
       334    995.5195    118.2284 300.4491738 +22.7162859     2710.589     72.51543      1.541     2.75     6.037407      20.4536     307.1366        30     1.277     1.157  65.72   0
       335    891.8391    119.3676 300.4164570 +22.6855899     3606.796     72.53389      1.462     2.68     5.990534      20.4536     453.2225        28     1.187     1.114  88.85   0
       336    441.2716    114.4706 300.2776400 +22.5492839      568.655     72.57079      1.294     3.27     5.897036      20.4536     84.48698        10     0.978     0.770  72.66   0
       337    194.6418    115.1828 300.2006713 +22.4755978     353.7176     72.51543      1.259     2.93     6.008115      20.4536     49.37151         5     0.747     0.433 -70.18   0
       338    365.3497    106.2107 300.2566860 +22.5241669     684.0383     72.51543      1.582     3.53     5.966006      20.4536     77.29101        11     1.012     0.789 -52.25   2
       339    369.2538    104.9441 300.2583116 +22.5249724     374.9852     72.53389      1.365     1.86     5.961325      20.4536     65.57358         5     0.585     0.575  35.41   2
       340    492.5350    101.8195 300.2977018 +22.5610001     1603.558      72.4785      1.313     2.39     5.894187      20.4536     239.8356        17     1.079     0.894  69.45   0
       341    420.4376    102.6028 300.2750015 +22.5396313     405.9689     72.53389      1.118     3.32     5.894405      20.4536      68.6091         5     0.787     0.461 -44.53   0
       342    131.4998    103.2864 300.1848944 +22.4532565     688.3804     72.66297      1.758     2.95     6.026319      20.4536     64.49707         8     0.850     0.663 -43.01   0
       343    236.3732     97.1429 300.2194977 +22.4829187     390.2417     72.49696      1.347     3.46     5.982517      20.4536     54.32965         9     0.962     0.730 -42.33   0
       344    780.8512     91.7534 300.3907978 +22.6444265     420.6161     72.53389      1.445     3.26      6.11495      20.4536     52.24089         9     0.971     0.645  30.44   0
       345    926.6213     85.8644 300.4381683 +22.6863552     525.7283     72.46002      1.616     3.78     5.982321      20.4536     47.61202         8     0.963     0.725  42.23   0
       346    266.6021     81.4477 300.2339879 +22.4874650     6261.397      72.4785      1.578     2.78     5.975514      20.4536     764.6413        40     1.335     1.216  61.31   0
       347    773.0624     82.1878 300.3914702 +22.6393428     345.4359     72.46002      1.289     3.80     6.181762      20.4536     48.23159         6     0.923     0.448 -38.76   0
       348    117.5962     81.0187 300.1877896 +22.4426914     846.3224     72.44154      1.947     4.18     6.025521      20.4536     69.09107        16     1.297     0.981 -23.48   0
       349    896.3696     79.0060 300.4309544 +22.6753292     244.6161     72.49696      1.138     4.03     6.089592      20.4536     32.42344         5     0.795     0.584   0.75   0
       350    238.4639     75.7780 300.2270730 +22.4774048     467.2259      72.4785      1.374     2.89     5.983384      20.4536     56.85949         6     0.845     0.544  24.39   0
       351     28.4268     71.6552 300.1631091 +22.4132753     377.6598     72.49696      1.720     3.29     6.422154      20.4536     40.03261         5     0.908     0.490 -84.81   0
       352    512.7341     66.8557 300.3153248 +22.5569946     6406.361     72.55234      1.478     2.84     5.872206      20.4536      763.189        39     1.280     1.160  69.64   0
       353    398.1970     66.5407 300.2797675 +22.5226013     649.8053     72.46002      1.481     3.68      6.00105      20.4536     76.31201        12     1.086     0.747  71.92   0
       354    569.2698     61.8283 300.3345623 +22.5724776     211.5041     72.49696      0.996     1.89     5.866236      20.4536     59.62098         6     0.702     0.516 -37.72   0
       355    764.7900     57.5741 300.3968692 +22.6297843     970.3251     72.49696      2.061     5.90     6.308871      20.4536     98.65721        16     1.647     0.997 -65.96   0
       356    706.8270     58.3423 300.3785524 +22.6126561     357.3236     72.49696      1.214     4.00     6.061615      20.4536     43.15841         7     0.852     0.612  37.96   0
       357    857.7327     55.8684 300.4264031 +22.6571082      701.404     72.55234      0.731     0.65     6.442717      20.4536     270.5553         8     0.747     0.435  16.51   0
       358    205.7015     50.6378 300.2250310 +22.4603628      535.885     72.49696      1.330     3.01     5.972427      20.4536     64.74155         9     0.934     0.707 -73.98   0
       359    641.1471     47.0659 300.3617393 +22.5897506      6307.76     72.53389      1.401     2.65     5.885211      20.4536     741.0801        37     1.275     1.090  67.97   0
       360    564.0015     49.3482 300.3369661 +22.5673105     320.6743     72.46002      1.191     2.51      5.86377      20.4536      65.7329         7     0.697     0.681  77.41   0
       361    415.9546     45.8333 300.2920061 +22.5219659     1446.597     72.55234      1.457     2.77     6.049152      20.4536     180.1003        23     1.206     1.021  66.50   0
       362    682.2886     44.4190 300.3754174 +22.6013049     783.2144     72.44154      1.291     2.38     5.926237      20.4536     117.9481        14     0.978     0.870  84.94   0
       363    698.5635     40.4063 300.3817900 +22.6050220      562.563     72.51543      1.447     3.56     6.022933      20.4536     73.13815         9     1.037     0.673 -43.69   0
       364    164.7381     38.3238 300.2162832 +22.4445497     752.7826     72.55235      1.601     3.42     5.972536      20.4536     83.45939        15     1.083     0.985 -11.43   0
       365     12.2860     38.7695 300.1687507 +22.3989897     221.5002     72.49696      1.133     3.43     6.209044      20.4536     47.85074         5     0.910     0.444  83.98   0
       366    967.9454     38.3678 300.4664562 +22.6850462     514.6665     72.51543      1.336     3.45     5.970197      20.4536     61.73969         7     0.867     0.553  33.37   0
       367    736.8172     36.2389 300.3950639 +22.6152728     386.2265     72.51543      1.231     2.30     6.258611      20.4536     64.62729         8     0.751     0.654  26.17   0
       368    701.8745     32.7463 300.3853044 +22.6038091     450.8078     72.51543      1.547     3.36     6.042001      20.4536     39.20652         5     0.793     0.498 -46.46   3
       369    699.8666     30.2616 300.3854838 +22.6024931     748.0331     72.53389      1.477     2.98     6.029349      20.4536     76.39888        11     0.940     0.787  38.45   2
       370    685.4060     31.8212 300.3804716 +22.5986135     2819.675      72.4785      1.509     2.82      5.93236      20.4536     299.7692        31     1.339     1.128 -79.90   0
       371    325.9317     32.3184 300.2683689 +22.4911163     419.8356     72.60767      1.703     5.74      6.08989      20.4536     42.32523         9     1.118     0.829 -82.70   0
       372    771.8008     23.6800 300.4100397 +22.6221289     1396.917     72.38609      1.340     2.46     6.552735      20.4536     203.6984        19     1.126     0.895  50.05   0
       373    709.6836     16.9336 300.3928626 +22.6015966     714.3558     72.60767      1.428     2.63      6.10415      20.4536     110.9843        12     0.950     0.812  -4.16   0
       374     22.9473   1018.7861 299.8538394 +22.6834315     987.7755     72.53389      4.178     5.09    -6.735705      20.4536     33.65409         5     1.214     0.604 -76.54  17
       375     87.9934     15.6111 300.1997839 +22.4150255     502.8925     72.36759      1.598     5.45     5.950851      20.4536     54.89286        11     1.250     0.688   8.82   0
       376    173.1912   1017.6155 299.9009141 +22.7282142     380.9019     72.42307      1.687     3.38       97.901      20.4536     32.85427         5     0.748     0.443 -19.57   0
       377    801.4338     13.2405 300.4226618 +22.6279924     433.0449     72.55234      1.270     2.93     6.879422      20.4536     51.50501         6     0.697     0.645 -21.97   0
       378    752.5919   1014.2299 300.0823763 +22.9011099     358.5222     72.49696      1.736     4.10     4.247938      20.4536     26.26722         5     1.201     0.400  75.39   0
       379    314.7188   1012.5143 299.9465872 +22.7692394      1939.32     72.64454      6.730     6.24     5.846505      20.4536     88.93687        39     1.824     1.571  78.76  16
       380    150.8202   1006.8642 299.8974577 +22.7184141     1555.533      72.4785      3.363    12.80     89.16626      20.4536     58.99784        35     2.883     1.581 -53.91  18
       381    307.6056   1007.3674 299.9460492 +22.7656279     854.8094     72.49696      3.529     4.41     6.128761      20.4536     39.59022         5     1.318     0.419 -45.88   0
