#   1 NUMBER                 Running object number                                     
#   2 X_IMAGE                Object position along x                                    [pixel]
#   3 Y_IMAGE                Object position along y                                    [pixel]
#   4 ALPHA_J2000            Right ascension of barycenter (J2000)                      [deg]
#   5 DELTA_J2000            Declination of barycenter (J2000)                          [deg]
#   6 FLUX_APER              Flux vector within fixed circular aperture(s)              [count]
#   7 FLUXERR_APER           RMS error vector for aperture flux(es)                     [count]
#   8 FLUX_RADIUS            Fraction-of-light radii                                    [pixel]
#   9 FWHM_IMAGE             FWHM assuming a gaussian core                              [pixel]
#  10 BACKGROUND             Background at centroid position                            [count]
#  11 THRESHOLD              Detection threshold above background                       [count]
#  12 FLUX_MAX               Peak flux above background                                 [count]
#  13 ISOAREA_IMAGE          Isophotal area above Analysis threshold                    [pixel**2]
#  14 A_IMAGE                Profile RMS along major axis                               [pixel]
#  15 B_IMAGE                Profile RMS along minor axis                               [pixel]
#  16 THETA_IMAGE            Position angle (CCW/x)                                     [deg]
#  17 FLAGS                  Extraction flags                                          
         1    675.5660     16.7138 300.3929536 +22.6015190     692.3665     72.58939      1.522     3.78      7.52073     20.49011     77.36239        14     1.166     0.870 -53.91   0
         2    481.1451     15.8065 300.3326593 +22.5431095     1119.831     72.60789      1.627     3.57     6.874401     20.49011     94.78623        20     1.177     1.079 -37.67   0
         3    384.9841     14.0388 300.3032838 +22.5138324      773.728     72.64489      1.458     4.25     6.793832     20.49011     93.42829        14     1.212     0.884  48.16   0
         4    156.2776      3.8351 300.2354111 +22.4424544     3773.948     68.57304      1.767     3.32     7.666161     20.49011     344.9039        40     1.547     1.256  37.55  24
         5    724.1779      4.9303 300.4119277 +22.6126625     594.8859     71.78912      1.500     3.45     7.970148     20.49011     79.92927        10     1.068     0.864  -6.34  16
         6    579.0395      1.4025 300.3678259 +22.5682460     231.7638     56.94925      1.271     4.19     7.295627     20.49011     47.91951         6     1.248     0.401  13.83  24
         7    482.2681      1.4176 300.3376699 +22.5393056     275.0789     57.09062      1.177     4.21     6.872682     20.49011     37.46182         7     1.041     0.486  -5.27  24
         8    214.9423   1000.9860 299.9300132 +22.7464217     898.1887     72.58939      2.245     7.54     76.69491     20.49011     56.79862        19     1.534     1.427 -73.30   0
         9     70.3003   1010.8997 299.8818078 +22.7058776     5894.769     72.86649     16.657    75.33     70.65839     20.49011     159.9301      2101    17.280    11.142  39.80  27
        10     63.9654    952.8734 299.8987092 +22.6873341     5886.561     72.60789     29.197   126.12     32.85532     20.49011     1227.218      4715    22.458    19.652 -53.63  19
        11    531.6337    991.6822 300.0316251 +22.8387033     2397.072     72.58939      2.173     5.87      5.06375     20.49011       123.44        34     1.545     1.453  16.28   0
        12    137.5544    960.7211 299.9190381 +22.7116592     835.6624      72.6264      3.129     3.46     48.20106     20.49011     29.46211         5     0.751     0.462  71.88   1
        13    636.5134    954.1525 300.0765105 +22.8593574     6780.167     72.60789      2.133     4.99     5.240204     20.49011     336.4176        52     1.701     1.521  20.57   0
        14    152.8127    977.6852 299.9182665 +22.7211024     2045.411     72.57088      7.627    21.09     63.47777     20.49011     64.46249        86     4.227     2.923  48.56   3
        15    147.9725    967.5819 299.9200469 +22.7167522     1361.446      72.6264     12.369    13.07     54.49147     20.49011     51.21374        35     3.000     1.584  47.79   3
        16    157.5144    997.5721 299.9132611 +22.7282176     3266.642      72.6264      6.648    29.77     81.45037     20.49011     71.96937       244     5.786     4.453  64.11  19
        17    149.1878    945.5590 299.9275864 +22.7107986     1112.741      72.6264      4.925     6.59     34.72161     20.49011     36.61402         8     2.161     0.565  47.61   2
        18    619.2495    987.1667 300.0603928 +22.8636651     10401.83     72.66338      2.588     7.29     5.244127     20.49011     428.5927        58     2.015     1.706   9.82   3
        19    545.0912    944.7051 300.0510956 +22.8292484     1699.489     72.81115      2.179     5.96     5.023486     20.49011      101.569        29     1.577     1.338  18.37   0
        20    439.7603    941.6964 300.0192670 +22.7968149     973.6788     72.60789      1.954     5.96     5.070261     20.49011     63.24395        17     1.510     0.933  78.47   2
        21    369.3783    939.1933 299.9981678 +22.7749979     6676.976     72.60789      2.136     4.97      5.36805     20.49011     369.8025        49     1.626     1.562  21.56   0
        22    115.2612    924.4702 299.9238932 +22.6945728     1601.768     72.66338     12.693    13.67     18.79085     20.49011     39.44378        30     2.919     1.781  88.41   3
        23    917.0157    918.8476 300.1754680 +22.9332366     1626.079     72.66338      2.013     6.65     5.260465     20.49011     88.02939        26     1.548     1.224  82.31   3
        24    914.0000    918.5220 300.1746329 +22.9322400     812.1207     72.49679      1.449     5.21      5.25962     20.49011     104.7444        13     1.799     0.558 -86.59   3
        25    402.2254    926.3029 300.0125854 +22.7811445     566.3365     72.57088      1.858     4.83     5.099161     20.49011     43.97281         9     1.177     0.837 -22.19   0
        26    624.4888    984.7999 300.0627955 +22.8645555     7005.005     72.53384      1.891     4.91     5.240262     20.49011     471.4213        36     1.685     1.082  78.82   3
        27    704.6624    906.9366 300.1131072 +22.8662131     807.8366     72.66338      2.060     7.18     5.326338     20.49011     45.24701        15     1.377     1.049  36.63   0
        28    739.1459    901.1976 300.1257246 +22.8748942      1066.67     72.58939      2.075     6.91     5.371681     20.49011     59.04964        24     1.531     1.213  40.87   0
        29    191.2160    896.3065 299.9566720 +22.7092711     2226.995     72.55236      1.097     1.71     11.97301     20.49011     988.5781        17     1.639     0.654  63.40   0
        30     99.6262    899.6084 299.9271147 +22.6827508     1227.542      72.6264     10.891    11.32      15.6819     20.49011     40.31532        23     2.979     1.198 -11.92   3
        31    129.0056   1005.8055 299.9017175 +22.7220277     245.7697     72.47826      4.555     3.71     88.63941     20.49011     41.19587         5     1.132     0.350   9.86   1
        32    761.6675    894.9958 300.1347638 +22.8798584     11426.19     72.60789      2.033     4.84     5.403386     20.49011     640.1093        60     1.622     1.556   9.57   0
        33    952.3573    894.7014 300.1943488 +22.9368789     478.7791      72.6264      1.925     4.20     5.370939     20.49011     36.17941         5     1.056     0.476 -86.85   0
        34    622.0000    985.0337 300.0619438 +22.8638768     3170.281     72.57088      1.402     4.14     5.241869     20.49011     362.6731        14     1.637     0.522  79.57   3
        35    812.9359    883.0258 300.1546449 +22.8917742     492.0881     72.60789      2.144     6.20     5.465843     20.49011      36.9568         9     1.177     0.919  61.29   0
        36    465.4362    882.9002 300.0463801 +22.7876298     498.9003     72.60789      2.281     6.56     5.067179     20.49011     41.30131         7     1.449     0.832 -78.57   2
        37    770.1714    877.0358 300.1432551 +22.8772452     1306.584     72.64489      1.946     4.88     5.513345     20.49011     74.51861        25     1.397     1.213  36.05   0
        38    952.5191    876.9297 300.2001776 +22.9318191     417.0935      72.7373      1.683     4.26     5.448578     20.49011     36.66048         6     0.949     0.546  18.82   0
        39    621.6476    873.9310 300.0979622 +22.8318624     531.3148     72.60789      1.954     5.78     5.284167     20.49011     43.19687         7     1.240     0.759 -11.50   0
        40    809.3418    871.6229 300.1572313 +22.8874211      798.642      72.6264      2.675     6.35     5.533072     20.49011      46.2187        13     1.522     1.057 -75.31   2
        41    717.8665    987.8601 300.0909067 +22.8934138      552.921     72.66338      2.010     6.88     5.195326     20.49011     37.25675        10     1.378     0.964  33.90   0
        42    856.5016    861.5531 300.1752159 +22.8986500     515.1361     72.66338      2.262     6.95     5.584714     20.49011      33.9324         9     1.234     1.098  11.06   0
        43    707.9431    860.6523 300.1291780 +22.8538991     728.9554     72.68187      2.033     7.62     5.543222     20.49011      46.1038        15     1.384     1.172 -32.16   0
        44    719.4429    858.1285 300.1335839 +22.8566186     606.9256     72.58939      1.829     6.45     5.575933     20.49011     39.28938        13     1.402     0.833  19.71   0
        45    420.5131    856.8671 300.0408539 +22.7666913     4226.094      72.7373      1.970     4.41      5.31234     20.49011     256.6187        40     1.572     1.392  41.51   0
        46    464.2611    845.2478 300.0582542 +22.7764659     451.9917     72.68187      1.930     3.40     5.186711     20.49011     39.18908         5     0.737     0.678 -15.45   0
        47    146.5019    842.8895 299.9601288 +22.6805344     634.4765     72.81115      2.194     3.80     9.376111     20.49011     89.49622        11     1.248     0.830 -54.79   0
        48    122.9170    839.2551 299.9539756 +22.6724191     1507.226     72.68187      2.049     5.44     9.157498     20.49011     113.9218        29     1.514     1.417  -0.45   0
        49    911.0675    970.8600 300.1566966 +22.9464023     612.0074     72.66338      2.033     8.08       5.1916     20.49011     35.43504        14     1.459     1.251  24.99   0
        50    994.7109    829.1276 300.2288871 +22.9307082     2172.569     72.79269      2.110     5.39     5.376528     20.49011     109.0833        39     1.624     1.567  69.02   0
        51    949.2888    827.3752 300.2152792 +22.9166072     2121.041     72.58939      2.202     5.90     5.535854     20.49011     103.9033        36     1.612     1.554 -32.01   0
        52    654.4310    827.7959 300.1231772 +22.8284305     573.6454     72.60789      2.021     5.27     5.530348     20.49011     36.49817         6     1.353     0.579 -68.00   0
        53    155.5654    821.2823 299.9699703 +22.6770515      367.249     72.58939      1.917     7.79     7.809899     20.49011     36.60054        10     1.807     0.940 -65.67   0
        54    600.6887    815.1653 300.1105333 +22.8087029     4891.396     72.60789      1.851     4.11     5.562502     20.49011     331.0546        42     1.445     1.406  79.31   0
        55    116.6588   1007.7509 299.8972454 +22.7188819     1362.749     72.68187      3.384    12.32     90.43668     20.49011     47.13846        27     2.471     1.710 -31.17   2
        56    403.6602    812.4402 300.0500470 +22.7488841     563.4911      72.6264      1.867     4.03      5.59833     20.49011     51.47102         7     1.176     0.447  63.86   2
        57    401.0000    812.4216 300.0492247 +22.7480815     372.0731     72.53384      1.616     3.67     5.601897     20.49011     33.76439         5     0.996     0.389 -85.47   2
        58    150.7382    808.5320 299.9726128 +22.6719449     1422.227     72.68187      2.012     4.83      6.97284     20.49011     107.1041        28     1.503     1.407 -11.57   0
        59    621.0203    807.7695 300.1192731 +22.8126690      767.056      72.6264      1.845     4.76     5.640326     20.49011     75.92677        17     1.286     1.024  44.61   0
        60    732.3991    821.3940 300.1495645 +22.8499444      659.905     72.44117      1.651     5.14     5.694222     20.49011     50.43197        14     1.115     0.971   3.55   0
        61    776.7408    795.0109 300.1719669 +22.8556420      4292.97     72.57088      1.924     4.35     5.690525     20.49011     266.6436        43     1.506     1.431  38.26   0
        62    539.0000    798.1104 300.0968552 +22.7853227     408.9066     72.53384      1.973     3.36     5.306733     20.49011     34.42642         4     0.867     0.377 -72.36   2
        63    995.0000    795.9841 300.2397504 +22.9212656     696.2856     72.45972      1.519     4.97      5.37564     20.49011     55.07769        11     1.361     0.593 -78.97   3
        64    992.5457    795.2277 300.2392301 +22.9203135     830.1569      72.6264      1.765     4.25     5.383403     20.49011     64.02374        14     1.320     0.724 -62.17   3
        65    185.7305    788.7342 299.9899302 +22.6767544     503.2852     72.68187      1.714     5.26     6.299369     20.49011     44.86202         9     0.953     0.839  52.46   0
        66    493.5515    787.4755 300.0861538 +22.7686512     606.6149      72.6264      1.915     5.39     5.390543     20.49011     38.21933        10     1.086     0.756 -30.57   0
        67    139.9922    785.4189 299.9767818 +22.6620897     948.3301     72.58939      2.002     4.83     6.308313     20.49011     79.64722        15     1.317     1.078  -0.55   0
        68    555.2145    780.9216 300.1074930 +22.7852430     527.4692     72.64489      1.855     5.55     5.483993     20.49011     37.12643        12     1.173     0.941  64.12   0
        69    289.6585    777.2109 300.0260097 +22.7046012      53858.8     72.58939      1.917     4.14     5.804287     20.49011      4158.85       102     1.650     1.578  27.69   0
        70    960.7312    776.5857 300.2353583 +22.9054307     779.7978     72.64489      1.689     5.50     5.514975     20.49011     51.68211        17     1.370     1.019  35.25   0
        71    547.5971    776.4487 300.1065733 +22.7816761     1592.057      72.6264      1.764     3.96     5.489762     20.49011     123.8519        25     1.297     1.150  34.42   0
        72    217.7441    775.6901 300.0041276 +22.6826077     415.7477     72.68187      1.579     5.87      6.18256     20.49011      43.6472         9     1.520     0.638  -4.58   0
        73    576.6263    772.7169 300.1168307 +22.7893004     1006.164     72.60789      1.913     5.06     5.618946     20.49011     72.48067        18     1.397     1.010 -84.42   0
        74    587.5690    770.4927 300.1209632 +22.7919394     613.5865     72.55236      1.746     6.13     5.669554     20.49011     56.79036        10     1.191     0.888  45.12   0
        75    693.8855    767.2104 300.1551666 +22.8228403     374.8362     72.57088      1.409     4.63     5.721284     20.49011     58.68934         7     1.251     0.489 -30.95   0
        76    339.3958    754.5161 300.0488640 +22.7129921     31524.77     72.55236      1.863     3.88     5.759253     20.49011      2709.28        76     1.563     1.494  41.69   0
        77    730.4522    757.4335 300.1697443 +22.8309814     753.1732     72.64489      1.744     4.81     5.894175     20.49011     63.20185        17     1.260     1.103  20.86   0
        78    353.8135    754.8854 300.0532319 +22.7174190     2112.235     72.57088      1.870     3.75     5.735421     20.49011     169.4509        29     1.328     1.257 -77.57   0
        79    862.5353    750.8284 300.2130866 +22.8686307     2861.377      72.6264      1.903     4.28     5.953258     20.49011     170.8704        37     1.503     1.355   1.28   0
        80    350.4806    749.1128 300.0540701 +22.7147626     735.1601     72.75578      2.475     5.70     5.750226     20.49011     42.11546        13     1.186     0.981   1.87   1
        81    620.5189    746.7679 300.1389407 +22.7949929     800.5426      72.6264      1.703     5.04     5.748986     20.49011     70.76242        15     1.151     0.955  -7.45   0
        82    456.7819    746.0206 300.0881725 +22.7457278     556.8135      72.6264      2.057     6.17      5.72424     20.49011     35.08472        12     1.281     0.836  44.00   0
        83    222.2228    746.0479 300.0151525 +22.6754411     864.3893     72.64489      1.974     6.18     6.012615     20.49011     67.83037        18     1.469     1.075  39.30   0
        84    467.3993    741.5121 300.0929440 +22.7476139     809.5755     72.51532      1.668     4.67     5.744457     20.49011      62.5392        15     1.241     0.901  18.79   0
        85    341.1125    998.7446 299.9700024 +22.7836150     518.0737     72.66338      2.407     3.99     6.125334     20.49011     36.73436         6     1.143     0.398  61.39   0
        86    868.7098    738.7253 300.2189458 +22.8669998     555.1177     72.79269      1.843     6.11     5.974551     20.49011     40.82065        12     1.271     0.825  -2.95   0
        87    326.4490    737.2339 300.0504493 +22.7041496     327.9752     72.66338      1.823     4.56     5.811142     20.49011     33.20145         5     0.805     0.733 -28.05   0
        88    413.5756    736.1777 300.0779161 +22.7299550     377.5061     72.58939      1.577     3.78     5.767025     20.49011     44.94252         7     0.941     0.653  40.34   0
        89     56.3395    735.7224 299.9669181 +22.6227451     549.9618     72.68187      2.212     5.41     5.987777     20.49011     39.56873         9     1.237     0.753  83.39   0
        90    219.8593    731.1459 300.0192587 +22.6704546     442.8637     72.68187      1.629     5.33     5.962323     20.49011     57.15336         9     1.142     0.701 -15.06   0
        91    542.3516    721.5413 300.1227800 +22.7643313      491.449     72.68187      1.607     4.39     5.832235     20.49011     52.03608         6     1.154     0.475   8.29   0
        92    512.6346    719.4490 300.1142021 +22.7548282     693.4744     72.66338      1.691     3.69     5.842571     20.49011     66.80509        10     1.021     0.759 -31.88   0
        93    929.1011    716.1207 300.2451346 +22.8785780     4510.197     72.75578      1.924     4.33     5.723982     20.49011     310.1268        42     1.485     1.449  19.12   0
        94    534.3603    717.1173 300.1217277 +22.7606665     1405.218     72.58939      1.703     3.93     5.849461     20.49011     114.5605        24     1.230     1.173  15.28   0
        95    453.4137    717.1543 300.0965022 +22.7364274     260.6684     72.64489      1.330     3.62     5.836444     20.49011     32.54643         5     1.064     0.356  -3.65   0
        96    616.0575    711.7994 300.1489117 +22.7836091      384.679     72.57088      1.543     5.31     5.848173     20.49011     38.99745         9     1.023     0.779  67.66   0
        97    917.5320    707.3837 300.2443629 +22.8726031     1853.209      72.6264      1.927     4.83     5.788072     20.49011     108.1981        27     1.386     1.264  67.99   0
        98    280.3109    701.1124 300.0478251 +22.6799504     854.2977     72.79269      1.830     4.43     5.916892     20.49011     91.55326        20     1.410     1.239  20.27   0
        99    743.8678    698.7040 300.1930094 +22.8181193     2595.713     72.75578      1.795     3.84     5.948399     20.49011     174.8739        29     1.318     1.256  29.63   0
       100    948.6707    697.7909 300.2571974 +22.8791645     1671.204     72.60789      1.865     3.92     5.614985     20.49011     104.2803        26     1.292     1.197 -36.89   0
       101    129.4216    685.4821 300.0059623 +22.6302363     569.8278     72.58939      2.074     4.43     6.047803     20.49011     54.83939        10     1.213     0.804 -29.15   0
       102    826.3891    684.7780 300.2232704 +22.8388216      576.853     72.60789      1.795     3.95     5.988778     20.49011     61.32565         9     0.995     0.710  44.45   0
       103    862.3785    675.6895 300.2374502 +22.8469816     149097.7     72.55236      1.805     3.85     5.999991     20.49011     10319.07       161     1.621     1.609  89.91   0
       104   1009.4643    677.5697 300.2827431 +22.8915423     1359.719     72.64489      2.067     5.20     5.096368     20.49011     84.77473        26     1.431     1.326 -39.77   0
       105    624.6516    679.3001 300.1621479 +22.7768440     405.7206     72.71883      1.741     5.60     5.941489     20.49011     33.97649         9     1.173     0.754  -6.32   0
       106    714.7878    675.8669 300.1913609 +22.8028482     842.1345     72.60789      1.714     4.43     5.903794     20.49011     67.80844        14     1.079     0.965  64.54   0
       107    466.4400    676.8697 300.1136457 +22.7287580     268.0609     72.60789      1.316     3.49     5.973964     20.49011     30.86287         5     1.248     0.282  35.18   0
       108    895.5520    669.0706 300.2499508 +22.8550078      422.641     72.60789      1.649     5.73     5.912068     20.49011     32.24748        11     1.060     0.873  60.97   0
       109    548.4551    664.3325 300.1432660 +22.7497227      1620.97     72.66338      1.652     3.60     6.001592     20.49011     159.1701        25     1.336     1.053  38.21   0
       110    729.8849    661.7582 300.2006510 +22.8033130     9420.546     72.58939      1.673     3.61     5.916884     20.49011     782.2095        51     1.384     1.368 -44.25   0
       111    231.2591    656.4924 300.0470554 +22.6524377     4946.993     72.70036      1.851     3.70     5.925038     20.49011     486.3926        42     1.511     1.346  30.80   0
       112    313.2574    654.6474 300.0731711 +22.6764804     1131.931     72.68187      1.930     4.35     5.911359     20.49011     104.9602        23     1.376     1.167  11.56   0
       113    189.4452    652.4249 300.0353682 +22.6387379     422.9852     72.64489      1.783     4.19     6.003959     20.49011     37.83907         6     1.099     0.455 -56.02   0
       114    521.4974    650.0464 300.1395077 +22.7375438     798.0845     72.66338      1.741     5.10     6.004457     20.49011     68.62279        16     1.273     1.035  47.82   0
       115    513.2057    642.2762 300.1394484 +22.7328277     3319.137     72.53384      1.637     3.49     6.005555     20.49011     331.7484        30     1.368     1.159  66.57   0
       116    503.4484    636.2024 300.1383815 +22.7281600     1542.088      72.6264      1.705     3.94     6.006295     20.49011      141.123        24     1.267     1.136  31.74   0
       117    896.8092    634.8248 300.2614667 +22.8455364     381.8815      72.6264      1.622     4.58     5.902635     20.49011     39.39177         7     1.038     0.575  20.61   0
       118    415.0420    632.8825 300.1119264 +22.7007244     372.4138     72.58939      1.625     4.66     5.975955     20.49011     28.08949         5     1.225     0.502  67.79   0
       119    167.0595    632.1243 300.0349978 +22.6261999     710.4167     72.68187      1.995     4.21     6.033421     20.49011     50.29621        10     0.987     0.809 -51.86   0
       120    181.2512    630.6052 300.0399055 +22.6300172     660.7459     72.60789      1.771     7.77     6.004766     20.49011      53.1762        14     1.433     1.178  39.05   0
       121    950.3929    627.9882 300.2804092 +22.8596058     403.5525     72.49679      1.580     4.88      5.62452     20.49011     47.35383         6     0.950     0.710   3.16   0
       122    527.6503    626.8547 300.1489567 +22.7327228     543.0245     72.66338      1.605     5.57     6.007987     20.49011     46.13313        10     1.254     0.853 -39.98   0
       123    428.2482    625.9666 300.1182847 +22.7026938      1727.35     72.66338      1.716     3.31      5.98905     20.49011      173.595        25     1.304     1.175 -31.05   0
       124    207.6414    627.2957 300.0491896 +22.6369761     484.4742     72.64489      1.510     2.32     5.949491     20.49011     53.31388         5     0.704     0.448 -71.56   0
       125   1004.1797    623.5023 300.2986555 +22.8744097     923.3961     72.55236      1.893     5.59     5.124568     20.49011     62.90808        18     1.231     1.161  -1.90   0
       126     82.1787    620.5448 300.0123615 +22.5974334     20060.31     72.64489      1.986     4.10     6.052709     20.49011     1788.841        68     1.648     1.523  26.78   0
       127    513.3471    621.2722 300.1463139 +22.7268349     1140.419      72.6264      1.813     4.10     6.008612     20.49011     109.6593        21     1.302     1.072 -31.76   0
       128      3.5223    621.7964 299.9875030 +22.5742127     742.7447     67.22756      2.107     4.77     6.207412     20.49011      67.9693        11     1.321     0.871  44.43  24
       129    548.7264    620.7751 300.1574973 +22.7372880     258.2531     72.66338      1.216     3.66     6.008959     20.49011     40.35097         5     0.939     0.411  -4.96   0
       130    266.5600    613.3397 300.0720535 +22.6506245     286.2505      72.6264      1.641     4.22     5.904678     20.49011     30.94405         5     1.075     0.473  -1.12   0
       131    931.3767    607.7943 300.2810326 +22.8481074     1058.755     72.60789      1.803     4.96     5.801408     20.49011     79.18951        17     1.252     1.037  41.61   0
       132     28.4271    604.6299 300.0008184 +22.5767517     1517.235      72.6264      2.343     6.00     6.197328     20.49011     86.80281        30     1.659     1.313  75.27   0
       133    797.8092    605.3859 300.2401425 +22.8074405     555.0685     72.53384      1.819     6.08     5.976211     20.49011     46.28811        11     1.518     0.686  62.23   0
       134     95.1117    605.8860 300.0211428 +22.5971019     398.6379     72.77424      2.356     4.72     6.033307     20.49011     42.17948         7     1.249     0.506 -18.70   0
       135    476.1364    601.5390 300.1411312 +22.7100199     417.2207     72.66338      1.408     5.53     6.034544     20.49011     42.27078        10     1.076     0.957 -18.11   0
       136    871.0957    600.5741 300.2645671 +22.8279914     1017.802     72.57088      2.477     6.11     5.969682     20.49011     68.14834        17     1.569     0.962  -2.91   0
       137    269.4919    600.9082 300.0770025 +22.6479328     304.6505     72.79269      1.439     4.22     5.901586     20.49011     34.12254         5     0.926     0.549  45.52   0
       138    433.6860    593.9637 300.1303704 +22.6951284     610.5375     72.60789      1.526     3.31     6.020555     20.49011     85.79788        11     0.981     0.845  41.00   0
       139    581.1269    593.0874 300.1765841 +22.7390339     425.1706     72.77424      1.418     2.91      6.16091     20.49011     47.75302         8     0.818     0.653 -26.72   0
       140    628.4937    591.4232 300.1918860 +22.7527387     467.4544     72.55236      1.385     5.24     6.124261     20.49011     45.18594         9     1.072     0.724  15.68   0
       141    599.0275    591.1493 300.1827917 +22.7438371     607.2719     72.64489      1.582     4.88     6.180899     20.49011     48.60838         9     0.965     0.700  16.26   0
       142    477.6335    589.9366 300.1453650 +22.7071346     975.4929      72.6264      1.662     3.13     6.080954     20.49011     106.8496        15     1.094     0.868  39.14   0
       143    911.4608    585.7080 300.2819898 +22.8357955     3134.857     72.70036      1.743     3.85     5.887768     20.49011     266.5246        34     1.362     1.274  42.53   0
       144    443.0302    585.3011 300.1360932 +22.6954384      1713.04     72.57088      1.604     3.48     6.044995     20.49011     154.8419        24     1.186     1.121  16.16   0
       145   1009.4234    583.6683 300.3132288 +22.8645200     786.6451      72.6264      2.105     4.77      4.99585     20.49011     49.97181        15     1.277     1.017  81.72   0
       146      4.9981    578.6787 300.0019617 +22.5622790     5130.591     71.86395      2.036     4.29     6.266801     20.49011     460.2681        45     1.595     1.491  31.67  24
       147    951.2007    575.9550 300.2975591 +22.8448814     360.2223      72.6264      1.532     4.24     5.611377     20.49011     36.06718         6     0.889     0.576   1.13   0
       148    306.5002    572.0131 300.0979019 +22.6507219     9348.963     72.53384      1.711     3.46     5.892062     20.49011     824.5883        46     1.399     1.329  73.06   0
       149    428.8943    569.1149 300.1369465 +22.6865538     9010.633     72.81115      1.610     3.24     6.036667     20.49011     766.7993        43     1.347     1.256  42.32   0
       150    840.7720    563.3101 300.2672069 +22.8082000     2048.913     72.60789      1.706     3.51      6.00555     20.49011     187.5052        25     1.239     1.152  89.40   0
       151    925.4189    560.8143 300.2944289 +22.8328121     12549.96     72.58939      1.760     3.71     5.880806     20.49011     919.3838        57     1.462     1.425  41.79   0
       152    489.5110    558.7933 300.1591764 +22.7017428     11567.37     72.53384      1.626     3.25     6.244603     20.49011     1175.883        49     1.364     1.279  46.96   0
       153    408.5745    561.1561 300.1332032 +22.6781808     7130.694     72.64489      0.980     2.89     5.993741     20.49011     1853.517        17     1.136     0.449  21.67   0
       154    659.0635    554.7361 300.2133265 +22.7513454      571.752     72.66338      1.619     4.80     6.119145     20.49011     56.63921        11     1.084     0.841   9.36   0
       155    216.9753    554.1062 300.0758576 +22.6187554      1387.81     72.57088      1.629     3.82     5.941587     20.49011     136.7352        22     1.307     1.109  54.56   0
       156    374.7961    553.0424 300.1253204 +22.6657318     282.6538     72.64489      1.721     4.36     5.935728     20.49011     25.74548         5     1.038     0.521 -54.02   0
       157    463.9056    551.2961 300.1536352 +22.6919199     506.0341     72.81115      1.772     4.84     6.177848     20.49011     45.76866         9     1.136     0.784  28.03   0
       158    763.9069    547.3304 300.2484199 +22.7806001     811.1296     72.75578      1.689     3.76     5.976211     20.49011     71.57274        15     1.074     0.987  41.66   0
       159    421.1243    546.8512 300.1417552 +22.6778296     4585.377      72.6264      1.663     3.22     6.024695     20.49011     455.8452        36     1.402     1.230  44.78   0
       160    399.7172    545.5982 300.1354962 +22.6710578      1640.54     72.53384      2.119     3.32     5.979763     20.49011      166.629        16     1.048     0.975  67.80   2
       161    153.6515    544.5844 300.0592505 +22.5970456     701.7237     72.64489      1.755     5.55     6.064282     20.49011     64.43865        13     1.205     1.112  61.68   0
       162    841.1547    542.6886 300.2740216 +22.8023841     1579.225     72.64489      1.702     3.86     6.027086     20.49011     112.7298        23     1.245     1.148 -32.46   0
       163     87.1610    542.6227 300.0392098 +22.5765557     264.1624     72.66338      1.797     4.39     6.193994     20.49011     26.01092         5     1.150     0.476  -4.97   0
       164    537.8680    534.5083 300.1821248 +22.7092445     207422.8     72.75578      1.589     3.09     6.583168     20.49011     20923.98       201     1.566     1.520  -4.38   0
       165    361.4362    540.8467 300.1251204 +22.6582261     299.6366     72.66338      1.586     5.21     5.915521     20.49011     34.69705         8     1.315     0.583  36.74   0
       166    721.6390    539.6387 300.2377367 +22.7657370     748.7802     72.70036      1.590     3.70     6.022489     20.49011     75.95555        14     1.114     0.892  12.16   0
       167    223.8616    534.2609 300.0844425 +22.6151191     3548.541     72.66338      1.722     3.65     5.960595     20.49011     350.1741        34     1.371     1.253  27.57   0
       168    790.0854    530.6721 300.2619927 +22.7836449     572.0806      72.7373      1.804     4.86     6.052249     20.49011     51.07832        10     1.016     0.775  65.79   0
       169    273.5876    517.4077 300.1053859 +22.6251763      315.635     72.51532      1.270     2.89     5.917098     20.49011     54.53776         5     0.729     0.474 -13.44   0
       170    428.4044    514.6558 300.1544736 +22.6707589     2692.645     72.58939      1.704     3.40      6.18392     20.49011      276.645        26     1.254     1.145  77.15   0
       171    840.0691    511.5431 300.2837941 +22.7931016     356.2636     72.64489      1.218     4.01     6.181812     20.49011      42.9814         8     0.939     0.655  39.05   0
       172    746.0872    503.5221 300.2570846 +22.7626695     348.1838     72.77424      1.432     4.39     6.287132     20.49011     40.79108         9     1.084     0.611  62.54   0
       173    825.5830    501.2636 300.2826119 +22.7858103      1646.21     72.60789      1.654     3.18     6.220724     20.49011     171.6842        20     1.147     1.033  49.53   0
       174    712.1094    501.4053 300.2471770 +22.7518913     265.7105     72.53384      1.313     3.45     6.313314     20.49011     35.43565         5     0.817     0.421  21.12   0
       175    696.7559    498.8273 300.2432268 +22.7465545     2573.748     72.64489      1.564     2.96     6.317649     20.49011     282.5988        29     1.285     1.083  57.78   0
       176     55.8950    499.3736 300.0435269 +22.5547672     227.9532     72.57088      1.324     3.45     6.246011     20.49011     37.57353         5     0.833     0.413 -20.41   0
       177    601.4869    495.9890 300.2144521 +22.7172201     461.3382     72.57088      1.437     3.37     6.730901     20.49011     49.27905         8     0.853     0.780 -76.76   0
       178    940.9797    496.5950 300.3201340 +22.8189943     399.1079     72.60789      1.394     4.22     5.975388     20.49011     41.66483         6     1.071     0.474 -10.02   2
       179    939.7612    492.4043 300.3211141 +22.8174241     769.5397     72.64489      1.728     4.35     6.001625     20.49011     58.15926        15     1.167     1.042   9.94   2
       180    483.7154    494.8555 300.1781269 +22.6816326     701.1027     72.71883      1.365     3.04     6.595971     20.49011     92.24055        13     1.045     0.781  14.28   0
       181    954.1411    493.0392 300.3253961 +22.8219087     1181.479      72.6264      1.551     3.50     5.976472     20.49011      107.918        20     1.247     0.967  50.91   0
       182    825.9324    491.3065 300.2859530 +22.7830510     2242.289     72.77424      1.928     4.06     6.270496     20.49011      172.088        31     1.624     1.116  71.99   0
       183    578.9262    489.2206 300.2096185 +22.7085203     659.9186      72.6264      1.649     7.21     6.718729     20.49011     76.99203        15     1.741     0.836  54.77   2
       184    579.3607    485.3322 300.2110160 +22.7075326     251.7836     72.58939      1.191     2.80     6.726506     20.49011     40.91854         5     0.699     0.485  12.56   3
       185    365.2028    489.0727 300.1430988 +22.6444789      402.412     72.55236      1.613     5.43     5.985312     20.49011     37.64055         7     1.067     0.779 -68.82   0
       186    864.0180    486.4169 300.2994218 +22.7930405     4222.159     72.60789      1.606     3.17     6.341692     20.49011     402.6376        33     1.290     1.206  57.96   0
       187    417.3792    487.9098 300.1597217 +22.6597713     446.4064     72.57088      1.542     3.69      6.23169     20.49011      57.7923         7     0.905     0.582  50.71   0
       188    955.4363    476.9804 300.3310129 +22.8176760     651.8868     72.64489      1.447     3.87     6.087215     20.49011     72.75646        13     1.022     0.880  46.90   0
       189    896.4512    474.6468 300.3133620 +22.7993586     259.1207     72.66338      1.240     4.25     6.231215     20.49011     31.69058         5     1.077     0.477  -1.85   0
       190     95.9964    476.1591 300.0635296 +22.5601188     893.4985     72.64489      1.723     4.43     6.266409     20.49011     91.41712        20     1.311     1.153  51.05   0
       191    920.3091    475.3667 300.3205734 +22.8067033     238.4193     72.60789      1.560     4.18     6.115547     20.49011     31.24411         5     1.045     0.478   3.87   0
       192    696.3107    461.0004 300.2553655 +22.7355443     564.2316     72.53384      1.498     3.73     6.434538     20.49011      58.9544         8     1.016     0.615  45.21   0
       193    585.6805    458.0688 300.2218338 +22.7015868     345.9687      72.7373      1.569     3.35     6.756129     20.49011     43.93956         6     0.813     0.638 -60.40   0
       194    637.6247    456.6545 300.2384816 +22.7167293     825.5472     72.64489      1.535     3.02     6.613829     20.49011     100.9108        14     1.038     0.882  18.05   0
       195    952.2846    449.1568 300.3390596 +22.8087278     599.2421     72.58939      1.603     4.66      6.19774     20.49011     51.40827        11     1.092     0.899   5.94   0
       196    698.3369    449.0142 300.2598872 +22.7327039     842.3059     72.58939      1.474     3.01     6.431507     20.49011     94.68855        13     0.967     0.843  -8.92   0
       197    855.5255    445.2374 300.3101374 +22.7786540     1082.741     72.57088      1.729     3.69     6.430332     20.49011     88.17345        17     1.088     1.062 -64.63   0
       198    839.9157    441.9924 300.3063205 +22.7730503     719.7436     72.55236      1.638     3.85      6.41664     20.49011     73.64786        12     0.982     0.938  49.09   0
       199    820.6579    442.4084 300.3001780 +22.7674080      419.195     72.60789      1.820     4.12     6.393157     20.49011     29.75107         7     1.033     0.470   9.07   0
       200    584.0058    439.5484 300.2273222 +22.6957610     3210.482     72.60789      1.503     2.79     6.764215     20.49011     343.2922        31     1.229     1.115  42.37   0
       201    944.2153    438.1935 300.3400990 +22.8031596     576.7366     72.53384      2.068     5.33     6.248869     20.49011      50.2055         8     1.047     0.767  -9.71   0
       202     59.8908    430.8047 300.0670208 +22.5362749      376.982     72.53384      1.372     5.26     6.324853     20.49011     41.10986         9     1.311     0.597 -32.61   0
       203    424.2766    426.6279 300.1817571 +22.6442252      362.974      72.6264      1.610     4.93     6.699179     20.49011     36.29762         7     1.074     0.740  35.29   0
       204    356.1847    427.1874 300.1603745 +22.6239954     231.8604     72.57088      1.244     4.17      6.64349     20.49011     27.41566         6     1.161     0.427 -29.43   0
       205    995.6476    418.9272 300.3624055 +22.8129994     1287.647      72.6264      1.625     3.91     6.244761     20.49011     112.7625        20     1.181     1.106 -68.11   0
       206    867.2422    419.1759 300.3222503 +22.7746620     463.7794     72.68187      1.364     3.32     6.489931     20.49011     56.70741         7     0.953     0.542  23.46   0
       207    953.7397    417.5295 300.3497774 +22.8000627     971.2165     72.66338      1.756     3.92     6.319853     20.49011     96.26825        18     1.285     0.991  24.96   0
       208    694.6411    413.5776 300.2702343 +22.7214071     1088.746     72.66338      1.566     3.04     6.418974     20.49011     130.6906        17     1.139     0.935  78.16   0
       209    490.1982    414.1372 300.2063413 +22.6603727     471.1012     72.60789      1.490     3.91     6.772758     20.49011     44.45498         8     1.006     0.642 -82.03   0
       210    198.8373    411.6909 300.1164353 +22.5724143     664.7148     72.60789      1.785     3.45     6.411035     20.49011     63.17592        10     0.978     0.815 -58.85   0
       211    994.1500    406.0657 300.3661115 +22.8088502     4358.682      72.6264      1.693     3.24     6.252042     20.49011     378.4262        36     1.361     1.326 -50.57   0
       212    260.9402    407.0656 300.1372587 +22.5896879      3868.04     72.66338      1.635     3.34     6.377028     20.49011     345.6163        34     1.341     1.249  50.79   0
       213    208.1120    401.8373 300.1225176 +22.5723618     7751.825     72.60789      1.683     3.31     6.470638     20.49011      784.981        45     1.422     1.316  48.02   0
       214    713.1306    401.9884 300.2797594 +22.7236071     287.0396     72.64489      1.534     5.20     6.418712     20.49011     29.26543         7     0.929     0.821 -88.63   0
       215    974.0772    397.0674 300.3627652 +22.8002574     1917.552     72.71883      1.667     3.49     6.300142     20.49011      160.176        28     1.376     1.111  82.18   0
       216    348.9620    396.1710 300.1681896 +22.6129191     4701.841     72.64489      1.566     3.12     6.757761     20.49011      460.568        38     1.322     1.240  43.77   0
       217    593.1796    393.0276 300.2452760 +22.6851313     18609.54      72.6264      1.501     2.94     6.772305     20.49011      1688.49        50     1.328     1.228  61.73   0
       218    610.7425    393.1792 300.2507002 +22.6904316     794.1506      72.6264      1.958     6.92     6.759722     20.49011     55.76909        17     1.421     0.943 -36.07   0
       219    837.3281    389.8683 300.3224270 +22.7572812     272.9647     72.68187      1.243     3.49      6.52078     20.49011     34.65036         6     0.749     0.622  17.08   0
       220    790.0090    384.2841 300.3094783 +22.7415181     355.6176     72.57088      1.468     4.95     6.452899     20.49011     35.65862         9     1.007     0.690 -53.98   0
       221    213.9828    380.1445 300.1313817 +22.5678880     277.7932     72.60789      1.477     4.06     6.663177     20.49011     30.37693         6     0.961     0.489 -35.61   0
       222    926.9984    375.7607 300.3549839 +22.7800452     832.4802     72.64489      1.685     4.46     6.456642     20.49011      72.6292        15     1.217     1.048  58.26   0
       223    463.8039    375.3475 300.2107051 +22.6413200     293.9874      72.6264      1.278     4.10     6.780865     20.49011     50.07811         8     0.941     0.652 -13.77   0
       224    636.5060    374.6378 300.2647457 +22.6928106     301.1418     72.60789      1.180     3.87        6.613     20.49011     34.49014         6     0.892     0.480  -1.41   0
       225    147.7637    372.8633 300.1131446 +22.5459604     2048.765      72.6264      1.753     3.36     6.664062     20.49011     192.5545        29     1.429     1.142  32.52   0
       226    947.6066    362.8918 300.3655909 +22.7825056      1212.73     72.53384      1.622     4.05     6.411521     20.49011     122.5952        19     1.190     1.081  87.32   0
       227    533.8004    362.4236 300.2367023 +22.6585583     6540.728     72.55236      1.528     2.86     6.776093     20.49011     756.5712        38     1.258     1.171  69.73   0
       228    248.7102    361.6478 300.1481873 +22.5729749     630.3511     72.58939      1.581     3.68     6.832776     20.49011     74.06247        14     1.079     0.985  46.72   0
       229    106.2959    355.0879 300.1060139 +22.5284315      453.051     72.81115      1.515     4.62     6.595435     20.49011      40.9734         9     1.015     0.737 -15.52   0
       230    737.9849    351.7716 300.3038013 +22.7166002     1254.899     72.64489      1.643     3.14     6.420354     20.49011     129.6992        17     1.079     0.970  69.58   0
       231    647.8069    352.6647 300.2753964 +22.6898733     442.8393     72.58939      1.230     3.85     6.549668     20.49011      49.2284        10     1.023     0.689 -41.31   0
       232    440.4919    348.6472 300.2121062 +22.6266654     6243.579     72.64489      1.572     2.84     6.806122     20.49011      724.817        38     1.276     1.229  70.06   0
       233    929.6697    343.5758 300.3662589 +22.7715823     589.9177      72.6264      1.631     2.73      6.49545     20.49011     66.46077        10     0.946     0.824  34.18   0
       234    832.4595    343.2112 300.3360448 +22.7424012     1434.833     72.58939      1.628     3.92     6.588662     20.49011     146.7096        23     1.377     1.050  46.88   0
       235    425.1675    337.5982 300.2109178 +22.6189013     488.5674     72.58939      1.578     3.14     6.819963     20.49011     58.00052         7     0.856     0.624 -45.35   0
       236    508.0029    335.7454 300.2373193 +22.6431658     429.1759     72.58939      1.271     2.92     6.808017     20.49011       48.551         6     0.850     0.485  33.24   0
       237    488.1586    333.0667 300.2320064 +22.6364555     131.2029     72.60789      1.331     4.67     6.796876     20.49011     29.49231         7     0.886     0.697  38.10   0
       238    805.0827    331.2216 300.3313939 +22.7307621     526.9195     72.58939      1.469     3.01     6.513562     20.49011      52.7619        10     0.908     0.737  62.76   0
       239    328.0280    327.7183 300.1838784 +22.5869773     2498.371     72.64489      1.565     3.14     6.834595     20.49011     257.2737        25     1.252     1.077  50.95   0
       240     46.3844    325.2114 300.0970755 +22.5019009     1072.049     72.57088      1.990     4.92     6.500353     20.49011     86.75533        19     1.364     1.040  29.28   0
       241    675.8182    322.4466 300.2939305 +22.6895641     438.6452     72.66338      1.787     4.07     6.383135     20.49011     42.67881         8     0.949     0.855 -70.30   0
       242    297.3132    317.1962 300.1777309 +22.5747560     30166.03     72.55236      1.636     3.09     6.903574     20.49011     3277.023        78     1.508     1.341  62.18   0
       243    832.2156    315.1435 300.3450730 +22.7342523     1417.646     72.60789      1.505     2.95     6.598637     20.49011      135.863        20     1.148     1.015  -7.13   0
       244    787.8442    313.3087 300.3318272 +22.7204516     224.8366     72.60789      1.280     3.84     6.487334     20.49011      45.0943         5     0.899     0.471 -49.02   0
       245    747.5012    304.1284 300.3222227 +22.7057416      428.682     72.77424      1.224     3.27      6.43408     20.49011     57.60349        10     0.984     0.667  24.10   0
       246    171.4328    303.2682 300.1430798 +22.5330555     432.4903      72.6264      1.594     5.11     6.925887     20.49011     54.81806        12     1.297     0.773  37.40   0
       247    396.0235    302.3559 300.2132730 +22.6000452     475.9604     72.66338      1.665     4.08     6.815432     20.49011     61.31469         9     1.009     0.845 -38.54   0
       248    707.8683    297.3304 300.3120690 +22.6919288     1886.202     72.68187      1.560     2.94     6.389893     20.49011     212.9008        27     1.253     1.110  46.21   0
       249    516.0638    292.1466 300.2539711 +22.6330422     188.4495     72.66338      1.165     3.91     6.915393     20.49011     53.51755         6     0.923     0.475 -30.14   0
       250    922.7303    290.5067 300.3813066 +22.7542339     620.1529     72.75578      1.618     3.97     6.524841     20.49011     59.28475        11     1.082     0.757  51.74   0
       251    369.6572    281.6084 300.2117921 +22.5861874     2121.811     72.60789      1.758     3.78     6.819517     20.49011     192.5977        31     1.490     1.162  67.25   0
       252    808.8915    275.0899 300.3507874 +22.7157507     666.0123     72.79269      1.512     3.02     6.572383     20.49011     75.99121        10     0.934     0.761  85.94   0
       253    690.8663    272.4000 300.3148530 +22.6796703     530.8027     72.57088      1.560     4.70     6.388188     20.49011     50.64733         9     1.010     0.718  53.77   0
       254    445.3345    261.0921 300.2420101 +22.6029429      1197.83     72.75578      1.527     3.12     6.904301     20.49011      124.973        18     1.140     0.991  59.10   0
       255    252.8842    261.2439 300.1820488 +22.5453713      389.186     72.58939      1.768     4.05     6.971523     20.49011     30.71324         5     0.733     0.703  26.22   0
       256    530.8989    258.4608 300.2695166 +22.6277951      237.952     72.70036      1.512     4.09     6.956639     20.49011     41.98245         5     0.930     0.515  48.45   0
       257    956.9296    257.4744 300.4026930 +22.7549526     496.2836     72.70036      2.009     4.71     6.399221     20.49011     40.59306         7     0.995     0.631 -21.65   0
       258    690.3771    252.9617 300.3210038 +22.6739319     2205.333     72.64489      1.565     3.04     6.408621     20.49011     218.4626        28     1.316     1.119  80.68   0
       259    951.6348    247.5825 300.4042480 +22.7505220     3144.505      72.6264      1.668     3.30     6.419394     20.49011     305.1708        33     1.371     1.167  75.21   0
       260   1012.7841    242.9158 300.4248502 +22.7674612     333.6516     72.58939      1.356     4.04     6.186794     20.49011     44.75304         5     0.837     0.559   9.94   0
       261   1021.2072    235.5718 300.4298613 +22.7678649     1557.578     68.37683      1.727     3.48     6.158061     20.49011     135.4741        23     1.310     1.165 -83.13  24
       262    398.9378    236.7259 300.2354621 +22.5820493     549.0912     72.66338      1.401     3.79     6.963949     20.49011     64.56042        11     1.000     0.827  47.17   0
       263    104.5926    231.4486 300.1455784 +22.4924004     539.0422      72.6264      1.556     2.91     6.962582     20.49011     66.35143         9     0.990     0.613 -30.95   0
       264     73.4729    230.8546 300.1360940 +22.4829090     1576.275      72.6264      2.058     3.88     7.007425     20.49011      127.185        24     1.351     1.140 -12.69   0
       265    967.3486    228.3951 300.4153744 +22.7496969     445.4514     72.60789      1.587     3.65     6.364607     20.49011     54.05482         8     1.067     0.637  13.51   0
       266    811.0873    224.9776 300.3677218 +22.7019867     338.4477     72.55236      1.178     4.25     6.708797     20.49011     40.00154         7     0.992     0.571  35.88   0
       267    762.0134    214.7353 300.3557361 +22.6843619     669.6243     72.58939      1.571     3.48     6.725692     20.49011     72.43698        12     1.053     0.794  34.85   0
       268    352.6696    213.4125 300.2286149 +22.5614967     453.8369      72.6264      2.004     5.71     7.000071     20.49011     42.39291         8     1.179     0.778 -64.52   0
       269    852.8434    207.9066 300.3862831 +22.7095611     385.8159      72.6264      1.300     2.46     6.742279     20.49011     54.56951         5     0.744     0.495 -29.35   0
       270    860.2826    203.7507 300.3899515 +22.7105895     2071.469      72.6264      1.622     3.04     6.749822     20.49011     197.5471        24     1.257     1.086  49.25   0
       271    278.6370    200.5529 300.2097396 +22.5356371     2222.648     72.66338      1.636     2.94     6.936695     20.49011     266.1212        23     1.193     1.103  39.81   0
       272    356.5040    195.5771 300.2355904 +22.5575166     1116.369     72.53384      1.650     4.13     7.001838     20.49011      103.046        17     1.132     1.048  78.63   0
       273    108.9510    196.4288 300.1582864 +22.4836429     448.0996     72.64489      1.362     4.11     7.057147     20.49011     49.39464         6     0.787     0.675   4.82   0
       274    758.9241    195.3527 300.3610565 +22.6778603      411.676      72.6264      1.333     3.98     6.761254     20.49011     62.61938        10     1.179     0.618 -18.97   0
       275    173.4441    187.5038 300.1812390 +22.5003908      765.467     72.64489      1.707     5.40     7.047013     20.49011     75.78738        18     1.318     1.088  83.99   0
       276    711.3472    184.9694 300.3495861 +22.6606422     1685.304     72.66338      1.578     3.36      6.72391     20.49011      157.222        22     1.218     1.055  72.09   0
       277    291.3913    187.1954 300.2180391 +22.5356155      311.731     72.47826      1.453     4.22     6.929655     20.49011     30.18016         6     0.750     0.678 -37.12   0
       278    776.2423    184.8310 300.3698686 +22.6800119     627.5281     72.66338      1.528     2.84     6.779035     20.49011     74.08573        10     0.877     0.820 -17.38   0
       279    195.0218    181.4579 300.1899113 +22.5051141     431.3402      72.6264      1.320     3.62     7.048623     20.49011     50.24562         8     0.814     0.698 -81.28   0
       280    983.0372    178.1032 300.4365766 +22.7399081     694.2531      72.6264      1.359     3.10     6.553406     20.49011     87.91305        12     1.081     0.667   9.02   0
       281    715.2110    176.3324 300.3535907 +22.6593126      746.718      72.6264      1.672     4.40     6.765885     20.49011     74.56306        13     1.209     0.875  59.93   0
       282    484.6462    177.4218 300.2813807 +22.5906472     171.2609     72.66338      1.170     3.68     6.999601     20.49011     36.56015         6     0.987     0.395 -19.13   0
       283    636.0191    175.8157 300.3290695 +22.6354755     1296.908     72.60789      1.462     2.83     6.803545     20.49011     157.0981        16     1.134     0.871   8.38   0
       284    457.0146    172.1777 300.2744738 +22.5808702     342.6041      72.6264      1.416     3.10     7.002316     20.49011     42.41198         6     0.848     0.735 -82.43   0
       285    831.4546    167.1787 300.3928132 +22.6914426     1453.432     72.64489      1.596     3.24     6.812772     20.49011     159.6096        21     1.285     1.031 -83.30   0
       286    562.1339    167.5500 300.3087220 +22.6109933     974.3318     72.60789      1.457     3.18      6.92307     20.49011     87.08681        15     1.048     0.882  19.00   0
       287    843.5602    166.2234 300.3968996 +22.6947874     745.2173     72.66338      1.552     3.81     6.815278     20.49011     89.04237        16     1.237     0.880 -80.27   0
       288   1004.4291    157.4516 300.4499492 +22.7403564     1887.653     72.64489      1.822     3.21     6.657216     20.49011     181.1978        31     1.459     1.228  22.39   0
       289    960.1315    156.9522 300.4362826 +22.7269708     965.5855     72.60789      1.532     4.05     6.727186     20.49011     96.74449        20     1.237     1.178 -21.99   0
       290    194.1996    149.2715 300.2000876 +22.4956165     671.5718     72.49679      1.625     3.80     7.133718     20.49011     60.88247        16     1.133     1.015  54.49   0
       291     55.9603    144.0032 300.1588007 +22.4527085     2211.957     72.64489      1.788     3.48     7.501717     20.49011     180.3741        30     1.363     1.239  40.56   0
       292    879.0673    141.7057 300.4159251 +22.6983464     779.0283     72.77424      1.497     4.19     6.826199     20.49011     80.86432        14     1.246     0.914  46.36   0
       293      5.6736    141.2157 300.1440706 +22.4368472     475.9297      72.6264      1.891     4.67     7.790501     20.49011      40.9294         6     1.009     0.612  -8.70  16
       294    213.3349    137.3257 300.2099125 +22.4979115     5690.357     72.66338      1.780     3.42     7.102993     20.49011     593.9495        42     1.529     1.278  67.07   0
       295   1012.4020    125.3521 300.4628425 +22.7334961     18338.99     72.60789      1.821     3.70      7.16374     20.49011     1632.143        66     1.583     1.430  84.12   0
       296    197.0831    128.6964 300.2076527 +22.4905654     571.8542     72.79269      1.585     4.19     7.181098     20.49011     61.20269        12     1.099     0.903 -19.11   0
       297    857.5773    119.3338 300.4164705 +22.6854808     3509.485     72.60789      1.663     3.24     6.825067     20.49011     369.4225        34     1.337     1.247 -71.84   0
       298    961.2570    118.2369 300.4491820 +22.7161598     2636.551      72.6264      1.688     3.27     7.054711     20.49011     244.2203        34     1.369     1.279 -77.26   0
       299    406.9366    114.4246 300.2775956 +22.5492746      595.235     72.60789      1.420     4.10     6.916375     20.49011     63.20396        10     0.987     0.766  81.73   0
       300    159.6825    115.1181 300.2004179 +22.4754650     317.9294     72.75578      1.493     5.13     7.423041     20.49011     37.28054        10     1.064     0.780 -13.16   0
       301    521.0382    112.4982 300.3137597 +22.5828614     226.8205      72.6264      1.307     4.52     6.903466     20.49011     39.74524         5     0.867     0.669 -41.63   0
       302    331.2339    106.4418 300.2566127 +22.5243233     682.9314     72.68187      1.686     3.78     6.911494     20.49011     68.81681        11     1.031     0.868  48.43   2
       303    335.3376    104.9866 300.2583617 +22.5251330     464.7661     72.60789      1.668     3.39     6.908644     20.49011     44.52728         5     0.946     0.352 -42.61   3
       304    458.3165    101.6447 300.2977384 +22.5609732     1710.984     72.58939      1.599     2.73     6.895329     20.49011     205.0224        23     1.213     1.054  80.26   0
       305    386.8358    102.1764 300.2753055 +22.5397368     610.8521     72.64489      1.654     3.89     6.895311     20.49011     51.65468        12     0.983     0.933  81.14   0
       306     97.2004    103.2455 300.1848319 +22.4533447      668.425      72.6264      1.562     3.47      7.49969     20.49011     72.71204         8     0.953     0.641 -15.23   0
       307    201.7737     97.1208 300.2193439 +22.4828927     409.6935      72.6264      1.385     3.59      7.23116     20.49011     50.55727         7     1.021     0.530 -18.69   0
       308    747.0585     91.5875 300.3909876 +22.6444483     418.9573     72.58939      1.526     3.45     6.891349     20.49011     44.15377         5     0.864     0.491   2.50   0
       309   1022.4540     82.6987 300.4798036 +22.7242165      3205.24     63.06163      1.759     9.02     7.670168     20.49011     272.3979        33     1.730     1.312 -70.85  24
       310    232.3322     81.3488 300.2339623 +22.4875058     6027.833     72.60789      1.700     3.12     7.150515     20.49011     697.6617        42     1.451     1.250  62.60   0
       311    643.1558     83.3357 300.3612658 +22.6110003     214.8595      72.6264      1.230     4.48     7.011626     20.49011     37.99264         6     0.882     0.648  28.91   0
       312    738.3884     81.9500 300.3914067 +22.6390817      461.529     72.66338      1.763     5.79     7.027375     20.49011     33.89646        10     1.265     0.746  30.53   0
       313     83.0888     81.0698 300.1876288 +22.4427458     702.6756     72.79269      1.840     6.23     7.542259     20.49011     69.86596        13     1.321     0.901  25.33   0
       314    861.8781     79.6979 300.4306566 +22.6753557     296.4703      72.7373      1.458     4.13     7.024792     20.49011     38.66039         6     0.778     0.626 -44.94   0
       315    478.4556     66.7281 300.3153249 +22.5569547     6417.219     72.64489      1.617     3.09     6.880444     20.49011     688.8149        40     1.401     1.210  68.52   0
       316    363.7462     66.7000 300.2796113 +22.5226242     569.6738     72.71883      1.345     3.70     6.852884     20.49011       77.244        11     0.999     0.814  88.15   0
       317    535.8785     61.8372 300.3347989 +22.5727262     326.2511     72.60789      1.262     3.81     6.890249     20.49011     42.42658         5     0.791     0.528 -54.97   0
       318    731.0270     57.3598 300.3970786 +22.6298025     873.4277     72.68187      1.817     5.77     7.351524     20.49011     80.64919        18     1.620     0.968 -74.01   0
       319    823.2198     55.3060 300.4264990 +22.6567760     443.6985     72.55236      1.364     4.58     7.318313     20.49011     54.04138         8     1.174     0.508  61.29   0
       320    171.5596     51.0616 300.2248670 +22.4606065     474.5122      72.6264      1.515     4.54     7.570322     20.49011     48.39797         9     1.158     0.606 -33.30   0
       321    529.8221     49.6584 300.3368576 +22.5674104     436.0601      72.6264      1.433     4.97     6.890308     20.49011     55.57991         9     0.985     0.710 -29.13   0
       322    606.9035     46.8876 300.3617753 +22.5896691     6287.256     72.81115      1.606     3.12     7.264163     20.49011     603.9015        41     1.389     1.217  75.33   0
       323    381.7903     45.8915 300.2919709 +22.5220388     1618.808     72.57088      1.548     3.01     6.829467     20.49011     171.1941        21     1.147     1.034  76.68   0
       324    647.8713     44.3992 300.3753511 +22.6012053     849.9725     72.53384      1.468     3.31      7.30585     20.49011     95.43127        14     1.137     0.800  64.31   0
       325    717.4750     42.6555 300.3976166 +22.6215177     423.7802     72.66338      1.751     3.07     7.480199     20.49011      42.9743         5     0.709     0.472 -72.17   0
       326    663.7741     40.4825 300.3815775 +22.6048339     631.1196     72.60789      1.625     2.77     7.337193     20.49011     82.37344        10     0.880     0.806   9.00   0
       327    933.8918     38.4230 300.4665026 +22.6849969     528.9174     72.55236      1.565     3.29     7.534166     20.49011     59.03226        10     0.937     0.807  18.81   0
       328    130.3573     38.3410 300.2161717 +22.4446154     671.2883     72.60789      1.562     5.36     7.581502     20.49011     59.91882        10     1.252     0.649  18.27   0
       329    702.0270     35.9633 300.3949678 +22.6149722      450.262     72.64489      1.515     4.61     7.494551     20.49011     64.18896         9     0.975     0.855  45.69   0
       330    651.0864     31.8395 300.3804222 +22.5985522     2790.974     72.60789      1.582     3.10       7.3953     20.49011     286.0228        30     1.342     1.151  61.28   0
       331    666.1321     30.9712 300.3853939 +22.6028016     883.4587     72.60789      1.783     4.15     7.402311     20.49011     75.04113        14     1.221     0.851  49.07   0
       332    292.2800     32.4783 300.2684510 +22.4913957     483.8087     72.75578      1.457     3.14     6.878894     20.49011     63.04434         8     0.906     0.654 -11.56   0
       333    737.5448     23.5169 300.4100752 +22.6220096      1517.92     72.68187      1.598     3.10     7.809125     20.49011     163.7277        21     1.219     1.034 -23.07   0
       334    897.7753     22.4872 300.4603937 +22.6696131     332.5965     72.57088      1.221     2.18     7.691188     20.49011      52.5311         5     0.686     0.483 -15.26   0
       335    716.1644   1014.7168 300.0816401 +22.9006174     410.5785     72.58939      1.583     4.27     5.187912     20.49011     31.96291         5     1.124     0.462 -59.24   0
       336    281.0742   1012.5475 299.9468281 +22.7695722     596.7719     72.64489      1.418     4.82     16.76446     20.49011     60.29863        10     1.102     0.598  66.52   0
       337     54.0593     15.7928 300.1997487 +22.4152917     545.2349     72.60789      1.812     4.08     7.367506     20.49011     51.20841        11     1.111     0.796  29.92   0
       338    183.9600   1003.7211 299.9194863 +22.7379138     2098.653     72.60789      4.379    20.59     83.66463     20.49011     58.32949        85     3.966     2.968  12.83  19
       339    766.7674     13.6981 300.4223695 +22.6279200     376.1553     72.60789      1.500     4.39     7.877522     20.49011     53.85989         8     1.156     0.544  30.76   0
       340    184.2663    986.1373 299.9253005 +22.7329612     4008.567     72.68187      8.007    20.65     67.51205     20.49011     80.70402       260     5.290     4.089 -60.69   3
       341    203.3268    985.2797 299.9315082 +22.7384319     4901.146      72.7373      9.255    29.33     64.00963     20.49011     95.08039       418     7.070     4.842 -47.25  19
       342    222.3946    973.1563 299.9413826 +22.7406722     7008.796      72.6264      7.831    28.89     50.66125     20.49011     155.0369       595     9.200     4.601  60.12  18
