#   1 NUMBER                 Running object number                                     
#   2 X_IMAGE                Object position along x                                    [pixel]
#   3 Y_IMAGE                Object position along y                                    [pixel]
#   4 ALPHA_J2000            Right ascension of barycenter (J2000)                      [deg]
#   5 DELTA_J2000            Declination of barycenter (J2000)                          [deg]
#   6 FLUX_APER              Flux vector within fixed circular aperture(s)              [count]
#   7 FLUXERR_APER           RMS error vector for aperture flux(es)                     [count]
#   8 FLUX_RADIUS            Fraction-of-light radii                                    [pixel]
#   9 FWHM_IMAGE             FWHM assuming a gaussian core                              [pixel]
#  10 BACKGROUND             Background at centroid position                            [count]
#  11 THRESHOLD              Detection threshold above background                       [count]
#  12 FLUX_MAX               Peak flux above background                                 [count]
#  13 ISOAREA_IMAGE          Isophotal area above Analysis threshold                    [pixel**2]
#  14 A_IMAGE                Profile RMS along major axis                               [pixel]
#  15 B_IMAGE                Profile RMS along minor axis                               [pixel]
#  16 THETA_IMAGE            Position angle (CCW/x)                                     [deg]
#  17 FLAGS                  Extraction flags                                          
         1    475.3248     15.9080 300.3325869 +22.5431452     1158.428     72.23687      1.805     3.83     6.655814     20.33365     104.0009        20     1.199     1.114  37.69   0
         2    379.3168     13.8463 300.3033485 +22.5138266     869.6103     72.05348      1.645     3.09     6.947527     20.33365     84.21414        14     1.029     0.866  66.45   0
         3   1022.1052     11.1836 300.5046760 +22.7052754     2010.569     64.12553      1.637     3.24     7.872966     20.33365     243.0623        26     1.358     1.146  68.89  24
         4    150.6049      3.7651 300.2354208 +22.4424759      3757.53     67.73763      1.755     3.32     7.971075     20.33365     409.9532        38     1.436     1.333  -2.78  24
         5    718.7714      4.9786 300.4120167 +22.6128140     658.5629     71.31521      1.378     2.93     7.546573     20.33365     83.95193        11     0.982     0.710  19.24  16
         6    573.1758      1.5246 300.3677396 +22.5682780     230.2775     57.16615      1.160     3.70     6.782845     20.33365     42.44663         6     0.967     0.494  -5.11  24
         7    476.2885      1.4748 300.3375627 +22.5392814       219.68     57.05031      1.155     3.37     6.591439     20.33365     43.26543         5     0.751     0.438 -23.09  24
         8    178.7473    986.3813 299.9252312 +22.7330879     4367.427     72.05348      8.644    23.03     64.84084     20.33365     89.76418       333     5.541     5.130  51.71   3
         9     66.3743   1011.4303 299.8821331 +22.7065603     5240.366     72.07184     14.415    73.52     77.95521     20.33365     158.0179      1806    15.533    11.729  35.63  27
        10     57.4693    945.0898 299.9009404 +22.6848629     5601.087     72.23687     28.093    33.45     26.79715     20.33365     1199.876      5233    21.910    21.049 -21.15  19
        11    617.9213    984.6677 300.0625486 +22.8642727     9654.423      72.1819      2.228     6.15     5.254291     20.33365     459.2602        57     1.692     1.683  15.83   3
        12    197.9732    985.0848 299.9316344 +22.7384828     5124.828     72.07184      9.357    26.78     59.17321     20.33365     99.19843       451     6.584     5.369 -43.79  19
        13    713.3282    987.4554 300.0913868 +22.8936635     709.1055     72.09019      2.307     7.46     4.987828     20.33365     44.24561        14     1.370     1.136  53.14   0
        14    146.5702    977.0380 299.9182605 +22.7207557     2161.844     72.10854     10.329    20.29     61.48173     20.33365     57.63111        95     4.531     2.523  82.38   3
        15    904.9423    971.0176 300.1565110 +22.9463442     921.0079     72.05348      2.249     8.00        5.107     20.33365     53.46063        23     1.587     1.128  -3.02   0
        16    630.6855    954.1367 300.0764580 +22.8593311     6778.548      72.1819      2.091     4.88     5.308772     20.33365     332.3517        54     1.681     1.546  24.38   0
        17    510.5949    947.7446 300.0411116 +22.8215043     395.3573     72.05348      2.105     6.91     5.210133     20.33365     31.82284         9     1.784     0.750  48.22   0
        18    222.6706    948.7037 299.9511511 +22.7354530    -31.71429      72.1819      1.035     3.44     25.58217     20.33365     43.63552         5     0.765     0.446  76.20   0
        19    145.0847    948.0634 299.9272215 +22.7119987     938.6499     72.16357      6.220     8.37      35.8247     20.33365     34.48722        12     2.178     0.898 -21.14   2
        20    539.1130    944.5887 300.0510236 +22.8291459      1513.41     72.01675      1.984     4.66     5.241648     20.33365     98.43698        22     1.304     1.145  50.42   0
        21    335.4483    999.3890 299.9697669 +22.7838172     535.6819     72.09019      2.554     3.73     5.252834     20.33365     37.29644         6     0.942     0.424  71.98   0
        22    433.7739    940.9865 300.0193792 +22.7965365     1039.323     72.07184      2.228     6.44     5.434107     20.33365     66.36281        16     1.304     1.217 -63.57   2
        23    363.5410    939.1400 299.9981087 +22.7749508     6554.479     72.14523      2.115     4.83     5.742321     20.33365     383.6026        49     1.641     1.551  17.03   0
        24    152.2988    997.5389 299.9133745 +22.7283546      3156.84     72.14523      7.143    26.68     80.06097     20.33365     66.87285       251     5.506     4.316  54.46  19
        25    396.4073    926.5194 300.0124468 +22.7811819     437.8091     71.99837      1.671     4.90     5.742338     20.33365     45.52042         9     1.283     0.751  15.17   0
        26    838.3355    923.3384 300.1512335 +22.9126955     363.5469     72.10854      2.693     4.17     5.043271     20.33365     30.32743         6     1.059     0.468 -86.26   0
        27    911.0000    918.9523 300.1753356 +22.9331980     1429.435     72.05348      2.087     5.84     5.226977     20.33365     95.63962        21     1.772     0.941  89.16   3
        28    908.2347    918.9718 300.1744662 +22.9323755     961.6948     72.09019      1.595     6.71     5.218653     20.33365     89.42934        15     1.645     0.784 -87.46   3
        29    217.3697    974.0879 299.9412461 +22.7411458     7618.595     72.05348      7.614    30.71     45.89109     20.33365     161.1164       706    10.488     4.828  60.53  18
        30    699.4693    907.2823 300.1131404 +22.8664844     616.7249      72.1819      2.216     4.92     5.371987     20.33365     45.54126         8     1.218     0.563 -18.42   2
        31    698.0180    905.3255 300.1133241 +22.8654875     542.8541     72.07184      2.703     4.69     5.380993     20.33365     30.08688         7     0.976     0.638 -41.65   2
        32    733.5456    901.0233 300.1258022 +22.8748952     1168.875     72.09019      2.186     5.96     5.341263     20.33365      62.4232        26     1.462     1.330  81.18   0
        33    755.8588    894.8834 300.1347578 +22.8798157     11380.43      72.1819      1.995     4.51     5.312254     20.33365     632.9166        57     1.628     1.494  65.50   0
        34    526.5567    991.9733 300.0316992 +22.8389860     2344.303     72.09019      2.225     4.82     5.182169     20.33365     124.8637        25     1.585     1.038  75.26   2
        35    800.7195    895.1590 300.1486616 +22.8933324      557.445     72.03511      2.050     5.31     5.179561     20.33365     41.18996         7     1.552     0.513  18.82   0
        36    945.8328    894.7858 300.1940669 +22.9366839     284.4807     72.07184      1.473     4.07     5.494669     20.33365      24.3394         6     1.322     0.359  85.33   0
        37     68.1549    886.3870 299.9233502 +22.6712306     948.6768     72.07184      4.880     6.24      11.9368     20.33365     49.38671        14     1.547     0.945 -66.97   0
        38    461.2825    882.1644 300.0470746 +22.7878960     485.6451     72.03511      1.773     4.01     5.578143     20.33365     59.73537         9     1.155     0.933  62.69   0
        39    764.2777    877.1613 300.1431462 +22.8772461     1358.135     72.05348      1.978     4.50       5.3935     20.33365      106.183        25     1.428     1.269  82.43   0
        40    617.4507    874.2645 300.0983057 +22.8324273     399.2092     72.12689      2.141     4.42     5.378684     20.33365     37.77822         7     1.195     0.465 -80.73   0
        41    802.6905    869.9999 300.1574570 +22.8866942     866.0727     71.94322      2.338     7.20     5.344861     20.33365     51.77471        17     1.548     0.937  69.06   0
        42    910.5291    865.4036 300.1926012 +22.9176683      376.577     72.01675      2.024     4.84     5.496876     20.33365      30.1348         5     1.126     0.591 -59.27   0
        43    850.9193    863.0801 300.1747542 +22.8991500     432.7876     72.20023      1.753     5.11     5.383267     20.33365      35.3975         8     0.986     0.749 -85.92   0
        44    702.3430    860.6971 300.1291836 +22.8539636     682.6046     72.16357      1.913     6.52     5.541211     20.33365     51.82246        11     1.172     1.020  18.03   0
        45    414.8201    856.8727 300.0408259 +22.7667085     4238.045     72.09019      1.937     4.50       5.6958     20.33365     278.1071        39     1.477     1.414  25.95   0
        46    713.8954    857.4390 300.1338453 +22.8564884     494.9254     72.05348      1.700     4.33     5.546004     20.33365       41.799         9     0.936     0.688  65.87   0
        47    459.1865    845.3510 300.0583901 +22.7766981     327.5936     72.10854      1.393     4.33     5.688629     20.33365      26.8278         5     1.142     0.467  57.87   0
        48    140.3725    842.3569 299.9601238 +22.6802588     750.1152     72.09019      2.216     4.83     9.065335     20.33365     50.21393        11     1.337     0.945 -66.23   0
        49    117.1020    839.4322 299.9538364 +22.6724408     1599.008     72.05348      2.090     5.55     9.135464     20.33365     97.72174        29     1.521     1.388  39.15   0
        50    988.9513    829.1214 300.2288778 +22.9307196     2094.508     72.07184      2.195     5.71     5.584282     20.33365      88.9622        38     1.638     1.511 -37.22   0
        51    943.2625    827.5098 300.2151382 +22.9165779     2072.814     72.16357      2.057     5.76     5.559815     20.33365      99.1495        34     1.629     1.383  41.51   0
        52    647.9290    828.4896 300.1226882 +22.8284107     551.0778     72.23687      2.305     4.27     5.703282     20.33365     38.23626         6     1.117     0.855  16.64   0
        53    727.0410    821.2482 300.1497101 +22.8500286     674.7119     72.12689      2.013     5.76     5.573891     20.33365     45.38892        13     1.247     1.041  21.77   0
        54    150.3047    821.0316 299.9701450 +22.6771182     551.9857     72.01675      2.132     4.24     7.622255     20.33365     36.63851         7     0.756     0.679  73.42   0
        55    594.9090    815.0682 300.1105237 +22.8086712     4911.312     72.20023      1.818     3.98      5.63489     20.33365     320.2198        42     1.435     1.366  80.89   0
        56     85.8701    815.5311 299.9518917 +22.6562166     292.8963     72.12689      1.274     4.59     7.374041     20.33365     31.48466         7     0.939     0.639  78.93   0
        57    397.3519    811.8507 300.0500209 +22.7485470      474.224     72.10854      1.622     5.99     5.850749     20.33365     41.58358        10     1.333     0.757  85.98   0
        58    146.0888    808.4946 299.9729083 +22.6722565     1364.822     72.25518      2.186     4.05     6.815184     20.33365     107.1212        17     1.440     0.822  72.20   2
        59    615.2723    807.5078 300.1193283 +22.8126003     797.6749     72.21855      1.806     5.63     5.715982     20.33365     49.19063        17     1.277     1.179 -66.10   0
        60    771.0691    794.9497 300.1719905 +22.8556588     4194.441     72.07184      1.907     4.22     5.552049     20.33365      262.381        35     1.438     1.341  76.35   0
        61    987.7780    795.2154 300.2395332 +22.9206211       1154.8     72.05348      2.039     5.85     5.445192     20.33365     57.72853        22     1.290     1.217  68.62   0
        62    179.7240    789.3738 299.9895862 +22.6768549     487.4261     72.09019      2.096     5.57     6.295454     20.33365     34.87202        11     1.203     0.887  52.32   0
        63    488.3138    787.5338 300.0862568 +22.7688244     597.1549      72.1819      1.573     3.54     5.745299     20.33365     57.66945        13     1.095     0.824  19.22   0
        64    134.1651    784.8105 299.9768965 +22.6618846     1090.025     72.05348      2.038     6.01     6.304391     20.33365     78.64362        27     1.528     1.345  46.67   0
        65    549.6022    780.7789 300.1075485 +22.7852481     461.2924     72.01675      1.638     4.33     5.701735     20.33365     56.58015        11     1.213     0.813  22.93   0
        66    283.9224    777.1827 300.0259734 +22.7045945     53875.28     72.07184      1.914     3.92     6.078623     20.33365     4251.821        96     1.628     1.554  49.18   0
        67    541.9587    776.3582 300.1066034 +22.7816884         1623     72.16357      1.835     4.58     5.710467     20.33365     123.5356        27     1.417     1.223 -57.89   0
        68    954.2939    775.9967 300.2353262 +22.9050724     908.9092        71.98      2.115     6.65     5.501172     20.33365     60.05486        19     1.401     1.033  40.86   0
        69    212.3715    774.6317 300.0045350 +22.6824123     354.5887     72.07184      1.877     7.38     6.186447     20.33365     37.02883        11     1.458     1.045  37.56   0
        70    570.6763    772.6288 300.1167647 +22.7892209     857.3181     72.05348      1.694     4.46     5.747613     20.33365     70.19257        20     1.276     1.142  29.22   0
        71    581.9220    771.0231 300.1207914 +22.7921288     676.1396     72.05348      1.625     5.34     5.766002     20.33365     49.61825        12     1.156     0.761  13.25   0
        72    687.6379    767.4615 300.1549049 +22.8227727     370.3673     72.09019      1.630     5.49     5.850458     20.33365      38.1095         7     1.148     0.741 -56.69   0
        73    724.6829    757.2969 300.1697603 +22.8309471     902.0765     72.23687      1.914     5.27     5.701823     20.33365     64.53644        15     1.289     0.979  35.56   0
        74    333.7143    754.4728 300.0488533 +22.7129997     31632.47     72.20023      1.838     3.88     5.980937     20.33365     2349.216        76     1.536     1.488  54.09   0
        75    348.0392    755.0218 300.0531348 +22.7174508     2071.536     72.10854      1.807     3.47     5.971637     20.33365     169.5542        30     1.382     1.217  75.74   0
        76    856.8815    750.7607 300.2131243 +22.8686548     2950.265     72.03511      1.839     4.12     5.810702     20.33365     175.9325        31     1.344     1.304 -44.65   0
        77    344.6425    748.8546 300.0540813 +22.7146620     654.2414     72.07184      2.271     5.90     5.971877     20.33365     41.73061        11     1.128     0.869  -4.58   0
        78    614.5947    746.4220 300.1389699 +22.7948492     874.2316     72.05348      1.704     4.75     5.856344     20.33365     66.06376        16     1.122     1.018  24.57   0
        79    451.0102    746.9053 300.0878395 +22.7459785     510.6583     72.01675      2.063     3.23     5.880802     20.33365     37.15519         5     0.631     0.597  88.67   0
        80    216.4809    746.3512 300.0150035 +22.6755269     885.7754     72.10854      1.796     3.31     6.033277     20.33365     94.62882        18     1.131     1.059   4.73   0
        81    461.7375    741.5007 300.0929372 +22.7476407     839.6494     72.16357      1.642     4.51     5.863659     20.33365      81.9969        17     1.271     1.057  81.88   0
        82     20.9552    741.9061 299.9556323 +22.6156243      584.851     72.09019      1.952     6.30     6.123316     20.33365     43.55389        11     1.411     0.791  26.23   0
        83    862.8379    739.2607 300.2187202 +22.8671325     460.9151     72.09019      1.511     2.94     5.888488     20.33365     47.13126         7     0.842     0.582  20.17   0
        84    320.4692    736.7817 300.0504783 +22.7039506     352.7794     72.09019      1.570     3.47     5.968045     20.33365     38.49812         5     1.053     0.330  68.03   0
        85    616.2480    735.3977 300.1430676 +22.7921772     327.1021     72.05348      1.847     4.51     5.878011     20.33365     32.18273         6     1.187     0.486  46.92   0
        86    612.8843    986.9711 300.0602293 +22.8634245     9996.963     72.07184      2.421     6.18     5.254558     20.33365     404.1321        51     1.841     1.601  14.08   3
        87    407.5095    735.4576 300.0780105 +22.7296557     452.0368     72.12689      1.548     4.25     5.985392     20.33365     35.13495         6     1.116     0.462  10.63   0
        88    840.5582    732.9886 300.2138062 +22.8586592     411.3907     72.07184      1.604     5.74     5.850472     20.33365     34.64372         9     1.170     0.792  18.33   0
        89    214.6154    730.7444 300.0194940 +22.6704879      399.851     72.05348      1.523     2.96     5.986743     20.33365     47.66047         5     0.733     0.443  69.91   0
        90    537.0825    721.8225 300.1228056 +22.7645626     373.0061     72.03511      1.513     4.04     5.863046     20.33365     41.87513         6     0.966     0.484 -34.12   0
        91    506.7971    719.5391 300.1141109 +22.7548335     696.3073     72.05348      1.883     4.99     5.868829     20.33365     52.86078        14     1.181     0.944 -14.39   0
        92    923.3455    716.0781 300.2451374 +22.8785819     4634.245     72.10854      1.899     4.10     5.718216     20.33365     287.9563        39     1.465     1.380  59.10   0
        93    528.7928    717.0190 300.1217832 +22.7606993     1373.459     72.03511      1.752     4.18     5.881036     20.33365     98.56128        22     1.347     1.060  48.90   0
        94    416.6266    718.2292 300.0864477 +22.7274401     316.0535     72.07184      1.345     3.55     6.014945     20.33365     39.49467         5     0.785     0.464 -77.59   0
        95    448.7046    716.7163 300.0969305 +22.7366175     354.6655     72.25518      1.593     4.40     5.945644     20.33365      43.6939         7     1.163     0.646  -9.48   0
        96    911.7238    707.5569 300.2442787 +22.8726532     1735.308     72.05348      1.885     4.50     5.819845     20.33365     105.3003        26     1.474     1.156  38.55   0
        97    274.7260    701.2098 300.0477966 +22.6800273     796.1219     72.07184      1.705     4.76       6.0145     20.33365     63.52643        14     1.269     0.875 -33.40   0
        98    738.1387    698.6781 300.1930043 +22.8181311      2449.22     72.14523      1.760     3.62     5.808413     20.33365     206.0612        33     1.400     1.262  21.79   0
        99    942.9044    697.6989 300.2572146 +22.8791521     1600.711     72.25518      1.848     4.12     5.698789     20.33365     112.0632        26     1.351     1.198  33.32   0
       100    820.5234    684.8823 300.2231857 +22.8388328     664.0404      72.1819      1.913     6.58     5.962278     20.33365     50.63699        14     1.483     0.818  33.11   0
       101    123.7055    685.0394 300.0060597 +22.6301149     487.7695     72.09019      1.497     3.20     6.109048     20.33365     61.81163        11     1.073     0.809   1.40   0
       102    856.6016    675.6598 300.2374392 +22.8469822     147975.4     72.03512      1.797     3.80     6.172827     20.33365     10334.92       157     1.611     1.557 -89.63   0
       103   1003.5181    677.4187 300.2827275 +22.8914615     1338.518     72.05348      1.956     4.92     5.251343     20.33365     87.88853        22     1.328     1.161  40.30   0
       104    708.8754    676.0151 300.1912409 +22.8028551     825.0267     72.07184      1.920     4.94     5.909873     20.33365     66.12988        11     1.001     0.892 -71.18   0
       105    888.9515    668.4892 300.2498642 +22.8546044     387.1803     72.05348      1.604     5.54     6.122387     20.33365     40.32519         9     1.280     0.677  36.31   0
       106    724.1121    661.7581 300.2006240 +22.8033199     9674.437     72.07184      1.660     3.38     5.944375     20.33365     737.4287        46     1.390     1.311  54.25   0
       107    542.8920    664.2271 300.1433275 +22.7497569     1707.398     72.01675      1.596     3.45     6.069637     20.33365     141.2293        23     1.165     1.138 -79.82   0
       108    225.4420    656.4852 300.0469868 +22.6524150     4914.036     72.03512      1.807     3.61     5.914787     20.33365     463.9005        40     1.484     1.286  26.32   0
       109    307.4337    654.7604 300.0730665 +22.6764927     1171.002     72.10854      1.750     3.97     6.041482     20.33365      98.9063        19     1.201     1.040 -46.82   0
       110    183.3507    652.0898 300.0353174 +22.6385368     410.5519     72.07184      1.522     4.68     6.012182     20.33365     35.97335         8     1.058     0.700 -40.09   0
       111    515.6457    650.3680 300.1393393 +22.7376138     657.0992     72.12689      1.648     4.40     6.064147     20.33365     60.49937        13     0.984     0.977   7.57   0
       112    507.5215    642.3849 300.1394011 +22.7328868     3162.178     72.09019      1.633     3.22     6.070309     20.33365     323.4869        31     1.242     1.230  66.03   0
       113    497.6089    636.0661 300.1383650 +22.7281021     1590.599     72.07184      1.809     3.52     6.072117     20.33365     116.2881        24     1.262     1.121  73.67   0
       114    425.3670    635.6256 300.1160038 +22.7063340     311.8073     72.07184      1.758     6.32     6.115215     20.33365     28.96669         8     1.367     0.820 -15.58   0
       115    891.3337    634.8393 300.2615386 +22.8456423     526.1612     72.03511      1.757     4.61      6.11363     20.33365     45.00279         8     1.092     0.592   2.19   0
       116    161.1628    632.1412 300.0348934 +22.6261592     556.8531     72.09019      1.567     3.72     6.025296     20.33365     63.94019        10     1.161     0.729   9.65   0
       117    175.8319    630.4097 300.0400195 +22.6300591      680.571     72.07184      2.019     4.01     5.990833     20.33365      57.1691         9     0.954     0.831  77.39   0
       118    944.6229    627.8799 300.2804325 +22.8595899     495.8965     72.01675      1.776     6.12     5.902902     20.33365     36.89641        13     1.453     0.724  36.72   0
       119    200.6280    627.3724 300.0487210 +22.6366192     528.2053     72.03512      1.801     5.88     5.936092     20.33365     52.41121         9     1.130     0.862  18.70   0
       120    521.9916    626.2698 300.1491439 +22.7325912     493.8257     72.05348      1.517     4.22      6.10912     20.33365     51.93253        11     1.014     0.805  44.11   0
       121    422.4178    625.8486 300.1182607 +22.7026420     1786.972     72.10854      1.746     3.74     6.129569     20.33365     162.3841        23     1.235     1.117  60.66   0
       122     76.4124    620.4912 300.0123158 +22.5974095        19730     72.01675      1.949     4.13     6.179929     20.33365     1617.954        69     1.612     1.537  36.95   0
       123    507.3393    621.1349 300.1462462 +22.7267271     1082.034     72.10854      1.713     4.15     6.106051     20.33365     89.53806        18     1.183     1.134  78.84   0
       124    541.6740    620.6366 300.1571066 +22.7368679     437.5173     72.01675      1.973     4.98     6.132253     20.33365     42.66274         8     1.238     0.567 -80.13   2
       125    998.3321    623.5599 300.2986041 +22.8744201     844.5667     72.03512      1.782     5.04     5.796291     20.33365     70.84911        14     1.142     0.924 -49.15   0
       126    562.4672    614.3299 300.1656348 +22.7412835     182.8482     72.10854      1.574     4.01     6.122253     20.33365     27.01146         6     0.978     0.470   0.57   0
       127    260.6454    612.6440 300.0721814 +22.6503774     290.7558     72.10854      1.325     4.17     5.993145     20.33365     35.06909         6     1.052     0.472  -4.93   0
       128    925.1774    607.9868 300.2808236 +22.8480497     1064.094     72.05348      1.811     4.99     5.966498     20.33365     74.41446        16     1.174     1.014  12.41   0
       129    792.0596    605.5862 300.2400632 +22.8075158     571.4999     72.03511      1.601     5.57     6.233634     20.33365      46.6246        11     1.201     0.786 -86.65   0
       130     22.3758    604.6644 300.0006527 +22.5766666     1495.086     72.05348      2.219     5.61     6.382241     20.33365     85.77327        32     1.690     1.458 -60.56   0
       131     89.2971    605.4888 300.0211948 +22.5969657     437.6216     72.25518      1.754     3.83     6.119538     20.33365     40.90896         6     0.921     0.457  89.58   0
       132    470.8597    601.7195 300.1411863 +22.7102219     398.9272     72.12689      1.598     4.52     6.177461     20.33365     56.47956         9     1.247     0.819 -65.36   0
       133    864.7648    600.4229 300.2644252 +22.8277939     939.7474     72.09019      2.127     7.99     6.252614     20.33365     55.43374        20     2.009     0.954   3.61   0
       134    609.7449    599.1744 300.1852925 +22.7510869     358.6679     72.07184      1.365     3.47     6.128382     20.33365      43.1581         6     0.766     0.573 -31.55   0
       135    427.6296    594.0698 300.1302045 +22.6950745     803.9249     72.07184      1.562     3.52     6.231548     20.33365     77.21346        13     1.030     0.848 -11.47   0
       136    575.5767    592.5599 300.1767906 +22.7389538     611.5455     72.10854      1.659     4.76     6.234324     20.33365     49.45277        12     1.231     0.719  68.84   0
       137    623.3195    591.2056 300.1921120 +22.7528617       533.56     71.99837      1.640     4.48     6.181215     20.33365     58.25795        10     1.038     0.837  -6.16   0
       138    593.2917    591.0592 300.1827994 +22.7438277     598.8129     72.14523      1.486     3.33     6.215563     20.33365     62.92072        10     0.949     0.708   2.45   0
       139    471.8200    589.7804 300.1453626 +22.7070795     1029.311     72.07184      1.715     4.66     6.282663     20.33365     92.84583        20     1.410     0.989  -0.38   0
       140    905.6795    585.7363 300.2819640 +22.8358158     3357.117      72.1819      1.732     3.54     6.095722     20.33365     269.0179        35     1.333     1.295  18.48   0
       141    437.2353    585.2432 300.1360627 +22.6954163     1871.354     72.12689      1.723     3.26     6.292406     20.33365     172.7056        29     1.385     1.211  60.53   0
       142    534.1840    585.7975 300.1660869 +22.7246141     1212.027     71.94322      0.648     1.13     6.352546     20.33365     553.5649         7     0.563     0.453   8.61   0
       143   1003.3336    583.9218 300.3130396 +22.8645157     720.3239      72.1819      1.805     4.82     5.940693     20.33365     54.46088        15     1.154     1.096  -2.88   0
       144    802.5872    583.2940 300.2505872 +22.8042581     462.1742     71.99837      1.496     3.40     6.300096     20.33365     36.57385         5     0.726     0.461 -71.94   0
       145    413.6099    580.5552 300.1302265 +22.6869923     216.0784     72.09019      1.070     3.42     6.284643     20.33365     32.86611         5     1.051     0.322 -22.25   0
       146      1.1738    578.7409 300.0024786 +22.5628696      1223.59     55.09182      1.158     3.45     6.525401     20.33365     255.2816        10     1.257     0.379 -89.64  24
       147    945.3752    576.0298 300.2975071 +22.8449033     377.0138     72.07184      1.536     4.66     5.988705     20.33365     34.18047         7     1.111     0.554  26.97   0
       148    466.9890    576.1812 300.1482737 +22.7017253     334.1397     72.03511      1.611     4.33     6.397664     20.33365     29.41425         5     1.051     0.508 -34.23   0
       149    300.7242    571.9536 300.0978699 +22.6507015       9195.1     72.07184      1.691     3.36     6.274926     20.33365     800.4709        47     1.380     1.351  38.72   0
       150    423.2016    569.0789 300.1369404 +22.6865687     9056.835        71.98      1.591     3.09     6.365863     20.33365     856.3262        45     1.341     1.252  39.99   0
       151    919.6345    560.8243 300.2944096 +22.8328274     12488.74     72.09019      1.730     3.50     6.074612     20.33365     914.5992        59     1.465     1.417 -77.02   0
       152    834.9686    563.3099 300.2671797 +22.8082042     1914.466     72.01675      1.622     3.30     6.355956     20.33365     163.3634        26     1.271     1.162 -21.22   0
       153    483.8368    558.6980 300.1591992 +22.7017483      11654.8     72.07184      1.582     3.12     6.580575     20.33365     1213.744        45     1.316     1.238  52.18   0
       154    653.2266    554.6562 300.2133041 +22.7513116       516.09     72.07184      1.353     4.02     6.413863     20.33365      62.3714        12     1.042     0.890 -59.32   0
       155    211.2197    554.1060 300.0758078 +22.6187560     1327.062     71.99837      1.658     3.73     5.863369     20.33365     125.8381        22     1.310     1.048  38.47   0
       156    458.1659    551.9550 300.1533914 +22.6921220     416.8963     72.10854      1.317     3.99     6.571249     20.33365     51.00386         6     0.764     0.595 -49.63   0
       157    415.4432    546.7791 300.1417645 +22.6778382     4566.286     72.10854      1.659     3.14     6.454464     20.33365     493.7681        40     1.404     1.252  40.92   0
       158    758.4703    547.1494 300.2485617 +22.7806604     733.8815     72.07184      1.515     3.89     6.181249     20.33365     84.58426        13     1.031     1.012 -25.85   0
       159    393.7351    545.2708 300.1354934 +22.6709022     1256.605     72.10854      1.505     3.40     6.358656     20.33365     122.2045        19     1.232     0.955 -82.05   0
       160    148.2924    544.7052 300.0592812 +22.5971983     758.3739     72.23687      1.695     3.25     5.807462     20.33365     86.73992        12     1.045     0.881 -29.87   0
       161    835.3390    542.5492 300.2740364 +22.8023452     1677.599     72.12689      1.807     3.97     6.406276     20.33365     115.4809        24     1.239     1.161 -50.18   0
       162     82.3872    542.4205 300.0395235 +22.5767893     411.4693     72.03512      1.767     3.37     5.954262     20.33365     38.26735         6     0.961     0.592 -60.07   0
       163    355.7986    540.7785 300.1251385 +22.6582472     354.0207     71.99837      1.637     3.86     6.187424     20.33365      27.2328         5     0.980     0.437  45.43   0
       164    715.8188    539.6459 300.2376953 +22.7657356     855.3879     72.10854      1.535     3.45     6.239837     20.33365     96.40801        16     1.100     0.991 -51.56   0
       165    532.1376    534.4851 300.1821102 +22.7092560     207171.9     72.20023      1.575     2.93     6.749294     20.33365     21088.18       201     1.558     1.507 -19.94   0
       166    218.1124    534.1593 300.0844286 +22.6150934     3534.593     72.05348      1.704     3.54     5.967763     20.33365     330.8582        31     1.322     1.253  77.01   0
       167    784.0870    531.1346 300.2617523 +22.7837233     526.4062     72.16357      1.656     3.76     6.349215     20.33365     53.67814        10     1.146     0.772  -1.26   0
       168    422.6766    515.0846 300.1543071 +22.6708986     2908.223      72.1819      1.762     3.07     6.607375     20.33365     301.5296        37     1.768     1.191 -88.49   0
       169    267.0582    517.0602 300.1052124 +22.6248482     416.8624     72.14523      1.515     2.74     6.356088     20.33365     55.19133         9     0.789     0.749  59.16   0
       170    834.4656    511.9810 300.2836884 +22.7932932     311.7964     72.03512      1.456     4.38     6.407022     20.33365     37.25025         5     1.047     0.522 -12.61   0
       171    579.1224    512.3482 300.2039397 +22.7169632     329.6189     72.07184      1.527     5.03     6.754878     20.33365     35.67174         7     1.045     0.684  -7.46   0
       172    740.1906    503.7917 300.2569367 +22.7627225     347.9971     71.94322      1.409     4.58     6.421427     20.33365     46.11025        11     1.127     0.838  -0.24   0
       173    819.7361    501.1932 300.2825947 +22.7857828     1665.885     72.03512      1.585     3.38     6.407764     20.33365     150.0464        26     1.285     1.124  24.27   0
       174    690.9647    498.7891 300.2432088 +22.7465493     2460.209     72.07184      1.514     2.80     6.664232     20.33365     282.9511        25     1.177     1.066  72.37   0
       175    935.6678    496.7409 300.3202208 +22.8191926     454.8708     72.10854      1.655     5.39     6.255951     20.33365     45.86774         8     0.994     0.826  -4.35   2
       176    934.0097    492.5288 300.3210706 +22.8174849     769.8724     72.05348      1.710     3.40     6.282117     20.33365     63.73571        10     0.946     0.737  53.63   3
       177    596.1669    495.3387 300.2147740 +22.7171774     385.9647     72.09019      1.309     4.36     6.819399     20.33365     50.13841         7     0.867     0.624 -54.75   0
       178    478.2170    494.7739 300.1782014 +22.6816965     693.0828     72.09019      1.531     3.36     6.780112     20.33365       74.755        13     1.059     0.841 -24.33   0
       179    948.3502    493.1463 300.3253468 +22.8219530      1321.03     72.10854      1.819     3.36     6.223328     20.33365     97.89687        19     1.199     0.939  35.66   0
       180    819.9847    491.2184 300.2859104 +22.7829886     2227.768     72.05348      1.846     4.14     6.408113     20.33365     200.2086        30     1.682     1.099  71.53   0
       181    573.3898    489.3176 300.2096291 +22.7086271     861.1473     72.03512      2.244     3.85     6.862843     20.33365     62.35587         9     0.932     0.773  26.08   2
       182    858.2433    486.3265 300.2994364 +22.7930305     4211.154     72.05348      1.627     3.11      6.40655     20.33365     431.1537        34     1.332     1.198  68.64   0
       183    411.9775    488.1553 300.1597163 +22.6599566      500.503     72.12689      1.513     5.23     6.677714     20.33365     42.04255        11     1.099     0.727 -17.03   0
       184    518.8345    482.4565 300.1948548 +22.6903198     233.0523     72.09019      1.426     4.18     6.857839     20.33365     37.12476         6     1.002     0.497  -2.50   0
       185    950.0641    476.7904 300.3311913 +22.8177606     874.8228     72.05348      1.622     4.51     6.276864     20.33365     70.92467        14     1.121     0.920  66.07   0
       186     90.3335    476.2098 300.0634869 +22.5601609     1057.988     72.07184      1.870     3.98     6.394908     20.33365     100.7305        18     1.247     1.064  67.76   0
       187    751.2374    470.4763 300.2711968 +22.7564493     351.9474     72.03512      1.661     4.39     6.494168     20.33365      37.0905         7     0.880     0.673 -70.81   0
       188     83.2830    466.6043 300.0644116 +22.5552898      400.384     71.99837      1.606     4.04     6.478296     20.33365     39.07309         7     0.875     0.644  70.75   0
       189    946.2526    466.1148 300.3334667 +22.8135492     397.6638     72.09019      1.603     4.73      6.33016     20.33365     34.06317         7     1.095     0.579  20.85   0
       190    690.5207    461.0285 300.2553274 +22.7355597     329.3177     72.09019      1.260     4.16     6.637793     20.33365     47.82671         8     0.843     0.682   4.97   0
       191    631.7360    456.8328 300.2383605 +22.7167568     781.1697     72.07184      1.592     3.16     6.806777     20.33365     84.67687        13     0.998     0.857 -22.27   0
       192    946.2972    449.6600 300.3388215 +22.8088287     571.8466     72.14523      1.428     3.85     6.384512     20.33365     63.63995        10     0.891     0.794  20.33   0
       193    692.5010    449.0815 300.2598225 +22.7327173     836.6292     72.20023      1.367     2.82     6.542108     20.33365     89.96084        13     0.947     0.850 -15.69   0
       194    849.7506    445.5120 300.3100340 +22.7787500     996.9688     72.07184      1.603     3.09     6.250408     20.33365     94.93258        15     1.046     0.893   7.12   0
       195    834.2630    441.7500 300.3064223 +22.7730338     615.4489     72.12689      1.489     2.99     6.230629     20.33365     72.81538        11     0.924     0.793  19.81   0
       196    578.2452    439.3987 300.2273447 +22.6957316     3244.181     72.07184      1.503     2.73     6.878376     20.33365     366.7582        27     1.178     1.093  46.10   0
       197     54.8961    430.6697 300.0672451 +22.5364643     345.5699     72.20023      1.555     3.78     6.911562     20.33365     37.22639         5     0.840     0.489  54.72   0
       198    350.2688    427.2980 300.1602507 +22.6239880     325.6783     72.20023      1.562     4.94     6.634732     20.33365     38.11388         7     1.218     0.568 -69.13   0
       199    939.1442    438.8904 300.3400839 +22.8035905     570.5466     72.12689      1.812     4.76     6.396603     20.33365     62.35601         9     1.019     0.718  25.56   0
       200    989.4170    418.9568 300.3622487 +22.8128935     1249.878     72.09019      1.599     3.50     6.816935     20.33365     114.2404        16     1.115     0.889  18.53   0
       201    948.2743    417.6387 300.3498311 +22.8002075     1201.496     72.03512      1.824     4.09      6.50883     20.33365     116.4171        20     1.304     1.069  -2.15   0
       202    861.5238    418.6821 300.3224154 +22.7745550     537.5821      72.1819      1.355     3.38     6.132228     20.33365     63.20856        10     1.053     0.670 -12.14   0
       203    484.9922    414.0835 300.2065004 +22.6605350     396.2452     71.99837      1.515     5.11      6.88692     20.33365     33.87671         9     1.153     0.641  76.73   0
       204    688.9490    413.5223 300.2702549 +22.7214293     1128.301     72.07184      1.543     2.93     6.329004     20.33365     109.4229        15     1.005     0.918  62.73   0
       205    192.8600    410.9103 300.1165724 +22.5721285     695.9172     72.16357      1.753     4.93     6.574329     20.33365     79.62377        11     1.261     0.841  53.84   0
       206    255.1766    407.0138 300.1372297 +22.5896774     3809.126     72.05348      1.626     3.09     6.672379     20.33365     338.3358        31     1.308     1.180  55.68   0
       207    988.2829    406.0189 300.3660932 +22.8088315     4289.485     72.03511      1.668     3.32     6.844474     20.33365     390.9731        36     1.343     1.279  79.20   0
       208    202.3302    401.7769 300.1224827 +22.5723421     7667.362     72.09019      1.697     3.23     6.608963     20.33365     811.7059        45     1.437     1.282  51.19   0
       209    343.1808    396.0755 300.1681750 +22.6128937     4737.497     72.07184      1.553     3.03     6.560878     20.33365     449.1372        33     1.296     1.153  72.28   0
       210    587.3997    392.9572 300.2452685 +22.6851207      18605.8     72.07184      1.496     2.85     6.741966     20.33365     1835.884        60     1.327     1.284  69.50   0
       211    604.9553    393.1730 300.2506707 +22.6904378     831.8742     72.09019      1.860     5.80     6.691734     20.33365     73.51849        19     1.560     0.980 -50.41   0
       212    434.7556    394.9841 300.1970480 +22.6400033     248.6384     72.09019      1.494     3.74     6.682034     20.33365     29.23231         5     0.804     0.501 -34.31   0
       213    784.3287    383.7704 300.3096579 +22.7414157      392.307     72.07184      1.515     5.14     6.258033     20.33365     42.74907         9     1.069     0.746 -82.23   0
       214    968.3719    397.1610 300.3627508 +22.8003271     1973.387     72.10854      1.706     3.18      6.69185     20.33365     191.6622        28     1.283     1.232 -88.94   0
       215    921.1875    375.7837 300.3549572 +22.7800624     674.9241     72.01675      1.506     4.38     6.377288     20.33365     67.39067        14     1.248     0.836 -53.92   0
       216    457.9079    374.9121 300.2107725 +22.6411665     340.7998     72.23687      1.319     4.55     6.691407     20.33365     39.32114         7     0.952     0.616 -77.68   0
       217    142.0303    372.9567 300.1130720 +22.5459985     1951.926     72.10854      1.686     3.52     6.622666     20.33365     195.9614        28     1.426     1.121  46.39   0
       218    630.9444    374.4807 300.2648375 +22.6928422      243.661     72.10854      1.257     3.76     6.497265     20.33365     35.56312         6     0.812     0.499   1.83   0
       219    941.5191    363.0423 300.3654381 +22.7824777     1150.111     72.03511      1.628     4.24     6.509271     20.33365     112.7595        19     1.275     0.991  60.53   0
       220    528.0457    362.4085 300.2366819 +22.6585704     6532.347     72.09019      1.478     2.77     6.818215     20.33365     724.6323        37     1.244     1.161  66.68   0
       221    243.2856    361.9710 300.1481427 +22.5731748     523.8712     72.07184      1.472     2.18     6.781574     20.33365      69.3154         7     0.684     0.654 -30.19   0
       222    788.0927    354.8734 300.3202078 +22.7342298     290.8976     72.20023      1.318     2.28     6.388431     20.33365     50.82079         6     0.731     0.545 -43.70   0
       223    100.5987    354.7882 300.1060781 +22.5283670     507.5202     71.88803      1.748     5.62     6.742392     20.33365     46.77832        10     1.215     0.733 -20.35   0
       224    732.2610    351.8296 300.3037796 +22.7166487     1305.573     72.10854      1.650     3.30     6.397752     20.33365      131.814        18     1.259     0.978  87.96   0
       225    641.8323    352.7949 300.2752676 +22.6898650     609.4988     72.05348      1.433     4.00      6.40164     20.33365       59.329         8     0.903     0.671 -12.07   0
       226    434.7085    348.5819 300.2120879 +22.6266522     6201.039     71.99837      1.526     2.79     6.389252     20.33365     734.9124        37     1.274     1.151  61.85   0
       227    826.7395    343.1260 300.3360767 +22.7424128     1426.267     72.10854      1.595     3.14     6.357888     20.33365     143.5544        22     1.361     1.057  78.41   0
       228    924.1901    343.6035 300.3663351 +22.7717010     629.1173     71.88803      1.562     3.66      6.40282     20.33365     72.77141        13     1.143     0.836  41.24   0
       229    419.1706    337.6372 300.2107985 +22.6188541     536.9977     72.09019      1.509     3.59       6.2531     20.33365     49.28695        12     0.998     0.834  45.23   0
       230    501.9752    335.4814 300.2372937 +22.6430247     424.2881     72.05348      1.399     4.07     6.656682     20.33365     56.61331         7     0.973     0.486   7.88   0
       231    799.1041    331.3911 300.3312612 +22.7307691     565.0157        71.98      1.343     3.42     6.340143     20.33365      72.6599        11     1.122     0.645  17.13   0
       232    322.3085    327.7331 300.1838478 +22.5870037     2545.339     72.21855      1.552     2.67     6.577186     20.33365     322.3085        29     1.279     1.150  57.54   0
       233     40.7232    325.1371 300.0970750 +22.5019111     1100.633     72.14523      1.812     3.93     7.144656     20.33365     102.4638        17     1.230     1.043 -59.32   0
       234    670.1501    322.8922 300.2937974 +22.6897400     157.3414     72.10854      1.115     3.49     6.399666     20.33365     35.86235         5     0.782     0.519  37.03   0
       235    291.6198    317.1366 300.1777309 +22.5747683     30040.91     72.05348      1.619     2.99     6.903398     20.33365     3218.407        67     1.433     1.316  60.36   0
       236    826.4476    314.9781 300.3451167 +22.7342274      1410.72     72.09019      1.588     3.45     6.289433     20.33365     126.5853        21     1.180     1.087  44.84   0
       237    781.7677    312.9623 300.3318307 +22.7202810     257.1817     72.10854      1.455     4.63     6.321835     20.33365     38.72463         8     1.036     0.801 -48.40   0
       238    165.7242    303.9904 300.1428144 +22.5332846     556.5731     72.05348      1.859     6.73     6.548971     20.33365     38.27707        14     1.333     0.954 -83.19   0
       239    741.1630    304.1103 300.3220359 +22.7055863      548.423     72.05348      1.473     2.68     6.389193     20.33365     55.61436         9     0.797     0.711  43.20   0
       240    390.0653    303.0668 300.2129470 +22.6002030     574.5763     72.12689      1.522     3.92     6.239045     20.33365     58.84856         8     0.867     0.618 -37.70   0
       241    702.0497    297.1350 300.3120996 +22.6918770     1974.307     72.10854      1.536     3.22     6.397714     20.33365     210.3604        26     1.208     1.134  57.19   0
       242    831.7859    293.2816 300.3538200 +22.7295819     163.9385     72.05348      1.354     5.60     6.235049     20.33365     33.42558         6     1.060     0.834  24.91   0
       243    510.4626    291.7387 300.2541268 +22.6329891     395.2387     72.10854      1.368     4.04     6.312459     20.33365     44.41694         7     0.982     0.475  79.81   0
       244    917.1678    290.4338 300.3813906 +22.7543004     499.2321     72.09019      1.458     3.79     6.367419     20.33365     53.05712         9     0.931     0.809 -28.42   0
       245    363.8741    281.6330 300.2117422 +22.5862003      2344.58     72.05348      1.727     3.70     6.239742     20.33365     215.3844        30     1.501     1.086  66.23   0
       246    803.1450    274.8907 300.3508484 +22.7157230     517.2078     72.12689      1.430     3.16     6.229331     20.33365     69.58733        11     0.913     0.814  45.52   0
       247    685.2783    272.7094 300.3147914 +22.6798330      416.648     72.21855      1.175     2.60     6.383377     20.33365     59.59177         5     0.739     0.429 -14.36   0
       248    439.6100    261.0637 300.2420008 +22.6029609     1089.347     72.01675      1.467     2.96     6.281347     20.33365     127.9729        16     1.004     0.989 -25.06   0
       249    525.5740    258.9423 300.2694718 +22.6280819     343.1128     72.07184      1.845     5.37     6.371325     20.33365     32.88472         7     1.298     0.627 -37.21   0
       250    950.9551    256.9581 300.4027951 +22.7547704     318.4673     72.16357      1.610     5.18     6.573818     20.33365     32.09885         7     0.958     0.792 -83.42   0
       251    822.8277    254.7130 300.3635334 +22.7158048     383.9672     72.07184      1.599     3.71     6.245922     20.33365     42.88773         6     0.739     0.652 -58.97   0
       252    684.5162    252.9736 300.3209541 +22.6739280     2347.338     72.05348      1.531     3.35     6.365814     20.33365      221.013        26     1.250     1.065  78.11   0
       253    945.9236    247.5058 300.4042897 +22.7505452     3108.203     72.20023      1.688     3.24     6.540682     20.33365     326.0444        33     1.386     1.205 -79.00   0
       254    492.8173    245.9647 300.2634732 +22.6145461     220.1514     72.07184      1.365     4.47     6.414303     20.33365     27.32928         5     1.468     0.386 -89.82   0
       255    384.9076    244.2349 300.2304200 +22.5817472     775.3568     72.01675      0.529     0.81     6.239753     20.33365     531.6273         5     0.448     0.348 -59.20   0
       256   1007.1481    242.6615 300.4249768 +22.7674576     333.5015     72.12689      1.590     4.35      6.88416     20.33365     49.14595         7     1.275     0.423  10.15   0
       257   1015.4206    235.5778 300.4298573 +22.7678917     1610.795     72.07184      1.659     3.55     6.898978     20.33365     153.5956        23     1.346     1.060  85.18  16
       258    392.9164    236.6440 300.2353756 +22.5819625     654.4138     72.03511      1.583     3.35     6.239826     20.33365     84.26391        11     1.134     0.710  75.32   0
       259     67.0326    231.5238 300.1356143 +22.4829033     1881.326     72.07184      2.693     9.04     6.907131     20.33365     447.9571        28     2.319     0.983 -47.80   0
       260     98.5444    231.0197 300.1455785 +22.4921975     619.0548     72.05348      2.066     4.88     6.651446     20.33365     53.24044         9     1.274     0.694 -31.64   0
       261    961.3475    228.1153 300.4153929 +22.7495760      505.275     72.10854      1.662     5.41     6.609943     20.33365     48.92808         9     1.165     0.710  49.28   0
       262    151.9150    223.3223 300.1646766 +22.5059711      504.595      72.1819      1.470     4.84     6.666687     20.33365     42.86985        11     1.140     0.810   4.50   0
       263    946.3103    220.4908 300.4131706 +22.7428850     347.7021     72.23687      1.510     3.87     6.539054     20.33365     57.74576         7     1.191     0.606  78.70   0
       264    828.5892    216.9763 300.3775681 +22.7066691      354.532     72.07184      1.421     5.19     6.264626     20.33365     40.09083         8     1.110     0.687 -38.41   0
       265    756.2936    214.6409 300.3557702 +22.6843730     562.1229     72.09019      1.361     3.23     6.287093     20.33365     61.05809        11     0.967     0.774  38.30   0
       266    346.7811    214.1232 300.2283106 +22.5616769     418.0999     72.07184      1.518     2.87     6.421456     20.33365     48.93832         5     0.916     0.334  46.98   0
       267    854.5118    203.6575 300.3899756 +22.7105889      2053.72     72.14523      1.627     2.82     6.273609     20.33365     212.6325        24     1.166     1.122  35.37   0
       268    272.9716    200.4709 300.2097577 +22.5356546     2241.809     72.07184      1.626     3.32     6.892309     20.33365      203.187        27     1.283     1.163  71.56   0
       269    350.8577    195.8094 300.2355174 +22.5576325      1054.31     72.03511      1.561     3.34     6.586432     20.33365     89.72269        16     1.086     0.928 -14.26   0
       270    103.6525    196.1962 300.1584572 +22.4837222     270.6971     72.07184      1.379     2.36     6.666687     20.33365     40.59417         5     0.815     0.618 -38.41   0
       271    752.5417    195.2482 300.3608875 +22.6776708     594.9424     72.12689      1.696     4.30     6.289078     20.33365     57.15858        10     1.013     0.834  24.53   0
       272    859.8777    192.6597 300.3952159 +22.7090284     372.6709     72.12689      1.440     2.20     6.263868     20.33365     65.54692         5     0.802     0.527 -49.01   0
       273    286.3318    187.7225 300.2180494 +22.5359903     253.0928      72.1819      1.303     5.01     6.939631     20.33365     27.96463         7     1.032     0.689 -88.95   0
       274    167.5508    187.6056 300.1811205 +22.5003903     729.1202     72.05348      1.751     5.16     6.670758     20.33365     77.27135        16     1.286     1.149 -80.60   0
       275    705.5047    185.0061 300.3495372 +22.6606538     1654.439     71.96161      1.513     2.92     6.327604     20.33365     165.2142        21     1.133     1.068   2.34   0
       276    770.3772    184.6286 300.3698941 +22.6799498     582.3668     72.07184      1.511     4.29     6.268234     20.33365     62.13471        13     1.184     0.885  42.66   0
       277    431.8716    181.0399 300.2655365 +22.5776361      311.337     72.05348      1.142     3.79     6.736803     20.33365     29.17052         5     1.226     0.337  25.17   0
       278    189.6190    180.8243 300.1901853 +22.5050499     513.4931     72.09019      1.661     3.38      6.67918     20.33365     66.96596         8     1.113     0.579  77.65   0
       279    977.0553    177.6923 300.4366459 +22.7397573      918.572     72.12689      1.748     4.03     6.679385     20.33365     92.53519        16     1.257     0.896 -41.11   0
       280    709.5612    176.3299 300.3536151 +22.6593710     801.2004     72.03512      1.722     3.33      6.32501     20.33365     94.51175        16     1.140     0.979 -62.62   0
       281    479.1943    177.4744 300.2814348 +22.5907739     252.1627     71.99837      1.257     2.45     6.776194     20.33365     42.21434         5     0.710     0.448  23.65   0
       282    630.0554    175.5689 300.3290703 +22.6353674     1291.864     72.09019      1.532     2.80     6.349009     20.33365     164.0231        21     1.165     1.049  20.00   0
       283    451.0794    171.7888 300.2745189 +22.5807247     357.5772     72.05348      1.447     4.36     6.817054     20.33365     41.76143         7     1.145     0.473  56.52   0
       284    825.7325    167.1165 300.3928417 +22.6914658     1448.428      72.1819      1.683     3.42     6.229326     20.33365      143.223        23     1.224     1.151  68.04   0
       285    556.2980    167.3864 300.3087315 +22.6109455     884.7544     71.96161      1.404     3.08     6.353095     20.33365     107.1662        16     1.074     0.944  42.88   0
       286    837.7671    166.6814 300.3967380 +22.6949395     864.2875     72.05348      1.599     2.95     6.230491     20.33365     95.51289        15     1.069     0.884   2.27   0
       287    883.6454    166.0187 300.4112704 +22.7084679     384.1159     72.10854      1.555     4.05      6.30019     20.33365     37.52526         6     0.944     0.497  12.51   0
       288    998.4615    157.3592 300.4499216 +22.7403028     1668.365     72.05348      1.673     3.29     6.788193     20.33365     154.9588        23     1.283     1.077  68.86   0
       289    954.3503    156.6407 300.4363815 +22.7269087     1077.822     72.09019      1.616     4.08     6.593074     20.33365     117.0323        18     1.242     1.025  86.35   0
       290    188.5167    149.4827 300.2000015 +22.4957122     787.5327     72.20023      1.611     3.20     6.724711     20.33365     100.3685        14     1.106     0.854 -45.08   0
       291     50.0120    143.9887 300.1586969 +22.4526560     2218.184     71.96161      1.917     3.50     7.035646     20.33365     211.3451        32     1.438     1.330  59.87   0
       292    873.5878    141.6250 300.4160389 +22.6984390     750.0071     72.07184      1.584     4.47     6.334461     20.33365      82.6853        14     1.329     0.830  24.83   0
       293    207.6257    137.3487 300.2098806 +22.4979462      5600.57     72.09019      1.695     3.07     6.788313     20.33365     649.3961        38     1.368     1.269  66.66   0
       294    191.1887    128.6644 300.2075802 +22.4905287     558.1364     72.01675      1.408     3.45     6.822201     20.33365     66.74614         6     0.739     0.617  -6.59   0
       295   1006.6061    125.3125 300.4628528 +22.7335103     18613.87        71.98      1.813     3.54     6.931417     20.33365     1781.622        70     1.589     1.444 -78.78   0
       296    851.7657    119.2518 300.4164803 +22.6854739     3691.287     72.09019      1.673     3.22     6.355279     20.33365     381.3919        33     1.425     1.172  74.10   0
       297    955.4660    118.0848 300.4492273 +22.7161419      2721.95      72.1819      1.751     3.21     6.770214     20.33365     270.9849        35     1.417     1.285 -86.51   0
       298    401.2509    114.5156 300.2775614 +22.5493422     464.9521     72.05348      1.392     3.58     6.978176     20.33365     58.73666        11     1.190     0.685   6.95   0
       299    154.5354    114.6395 300.2007208 +22.4755230     340.9485     72.03512      1.809     5.04     6.876463     20.33365     29.83841         6     0.996     0.721  62.52   0
       300    326.2652    105.7001 300.2570672 +22.5243642     755.7208     72.16357      2.346     8.21     6.995415     20.33365      65.9445        18     1.941     0.971 -19.23   0
       301     91.6267    103.4849 300.1847659 +22.4534799     664.3328     72.07184      1.718     2.63     7.007942     20.33365     71.72964        10     0.915     0.712 -27.12   0
       302    452.4897    101.4367 300.2977605 +22.5609145     1714.572     72.05348      1.613     2.93     6.973626     20.33365      209.944        22     1.253     1.024  79.47   0
       303    381.2672    102.3615 300.2752764 +22.5398663     507.4562     72.03512      1.227     2.36       6.9911     20.33365      64.1558         6     0.798     0.488 -44.75   0
       304    195.9577     96.6068 300.2194532 +22.4827420      447.238     72.09019      1.616     4.60     6.981628     20.33365     44.72877         7     1.031     0.737  44.37   0
       305   1017.1793     82.5977 300.4799983 +22.7243705     3527.419     71.99837      1.847     3.81     7.185805     20.33365     313.2362        39     1.585     1.286 -74.35  16
       306    226.6104     81.2044 300.2339834 +22.4874910     5950.041     71.90643      1.693     3.32     7.022245     20.33365      640.111        41     1.470     1.248  67.30   0
       307    733.2369     82.2898 300.3914795 +22.6393913     333.5786     72.05348      1.264     4.10     7.010682     20.33365     47.28077         7     1.011     0.535 -25.79   0
       308     77.4574     81.1372 300.1876003 +22.4428146     664.9606     72.12689      1.929     4.42      7.36155     20.33365      65.2237        12     1.177     0.924 -15.40   0
       309    855.7697     79.6738 300.4305564 +22.6752780     331.3287     72.09019      1.211     4.48     6.742445     20.33365     32.69321         7     1.073     0.532 -25.53   0
       310    198.9291     75.3690 300.2272597 +22.4775266     307.3824     72.07184      1.347     3.39     7.094769     20.33365     41.95343         7     0.739     0.671  -5.00   0
       311    242.0540     72.8308 300.2415032 +22.4897068     336.3577     72.09019      1.247     3.27     7.022234     20.33365     38.47912         6     0.887     0.473 -35.99   0
       312    472.7382     66.6747 300.3153332 +22.5569749     6339.934     72.10854      1.617     3.12     6.861593     20.33365     720.6234        40     1.395     1.205  80.20   0
       313    358.3352     66.7687 300.2796685 +22.5227680     680.8785     72.07184      1.405     2.97     6.995039     20.33365     94.08398        13     1.133     0.721 -48.30   0
       314    530.0078     61.9436 300.3347112 +22.5727483      345.989     72.05348      1.363     2.83     6.733534     20.33365     49.89735         7     0.883     0.495  46.52   0
       315    725.1005     56.6119 300.3972623 +22.6295679     875.5397        71.98      1.870     3.96     7.188855     20.33365     93.37701        15     1.232     1.059  10.35   0
       316    817.8418     55.2892 300.4266226 +22.6569185     586.4276     72.07184      1.775     4.38      7.14414     20.33365     69.32259        10     1.209     0.776  47.38   0
       317    165.6549     50.6910 300.2249017 +22.4604712     385.1778     72.12689      1.094     2.97     7.415088     20.33365     67.49349         5     0.966     0.343 -20.04   0
       318    601.1706     46.8883 300.3617696 +22.5897046     6267.328     72.07184      1.568     2.98     6.786968     20.33365      605.435        37     1.334     1.196  77.45   0
       319    524.5367     49.6572 300.3369872 +22.5675769     356.1978     72.12689      1.240     2.32     6.727193     20.33365     71.70422         5     0.748     0.463  10.34   0
       320    376.0551     45.6845 300.2920181 +22.5220074     1504.346     72.14523      1.587     3.08     6.968894     20.33365      159.764        24     1.241     1.114  37.23   0
       321    642.1887     44.6921 300.3752690 +22.6013412     784.4357     72.01675      1.445     2.60     6.915965     20.33365      99.1329        12     0.938     0.777  37.56   0
       322    712.1583     42.6399 300.3977528 +22.6216763     322.0107     72.16357      1.395     3.41     7.231207     20.33365     36.26936         5     0.770     0.437 -18.28   0
       323    658.2217     40.6988 300.3815618 +22.6049873     511.2386     71.99837      1.338     2.42     6.984362     20.33365     80.78586         9     0.838     0.679  61.47   0
       324    927.8613     38.7296 300.4663251 +22.6850413      426.043     72.10854      1.354     3.39     7.509708     20.33365     53.89457         9     0.987     0.613  30.32   0
       325    125.0095     38.1217 300.2163284 +22.4446895     511.4447     72.03511      1.370     3.92     7.648408     20.33365     49.76101        12     1.133     0.712  -6.63   0
       326    696.8123     36.4898 300.3949594 +22.6153170     410.0403     72.01675      1.221     1.99     7.193419     20.33365     56.18247         5     0.683     0.451  24.87   0
       327    645.3839     31.8229 300.3804347 +22.5985935       2779.8     72.07184      1.589     3.30     6.964757     20.33365     264.1802        30     1.283     1.145  56.68   0
       328    286.1088     32.6224 300.2682437 +22.4913327     342.8258     71.99837      1.380     3.67     6.997647     20.33365     42.16778         6     1.118     0.346  48.77   0
       329    660.5193     30.8179 300.3854796 +22.6028309     978.5941     72.07184      1.773     4.67      7.02941     20.33365     74.97849        18     1.478     0.814  49.34   0
       330    731.8512     23.5346 300.4100848 +22.6220662     1553.014     72.10854      1.607     2.92     7.493042     20.33365     178.4534        23     1.184     1.155  10.00   0
       331    669.9411     16.7175 300.3929856 +22.6015906       602.42     72.14523      1.487     2.87     7.116004     20.33365     88.65681        12     0.923     0.872 -56.11   0
       332    712.4554   1013.6227 300.0826022 +22.9009167     461.7026     72.10854      1.721     3.82     4.870727     20.33365     31.93744         6     0.998     0.419 -72.75   0
       333     48.1698     16.0742 300.1995707 +22.4153460     441.2488     72.09019      1.358     4.31     8.490072     20.33365     48.50268         9     1.071     0.664 -43.45   0
       334    275.0308   1012.0601 299.9468388 +22.7693338     249.7682     72.10854      1.449     4.34     20.75103     20.33365     50.35033        12     1.216     0.774  71.56   0
       335    761.5567     13.2837 300.4226718 +22.6279978     300.6777     72.03512      1.194     3.14     7.771914     20.33365     43.71576         6     0.820     0.526  47.80   0
       336    114.9594   1006.6418 299.8987996 +22.7197638     1169.199     72.16357      3.124     9.71     88.02349     20.33365     42.81337        14     2.635     0.998  31.43   2
       337    108.4336   1008.6565 299.8961147 +22.7183838     1573.373     72.09019      3.552    11.39     89.79294     20.33365     54.83143        29     2.222     2.034 -40.08   2
       338    211.6356   1000.0800 299.9310079 +22.7468825     1633.699     72.01675      4.238    16.41     67.31549     20.33365     60.85922        50     4.550     1.645 -10.26  19
       339    180.2953   1003.8557 299.9200290 +22.7385648     2325.224     72.12689      5.189    26.39     79.80512     20.33365     59.57609       167     5.246     3.687  -4.22  19
