#   1 NUMBER                 Running object number                                     
#   2 X_IMAGE                Object position along x                                    [pixel]
#   3 Y_IMAGE                Object position along y                                    [pixel]
#   4 ALPHA_J2000            Right ascension of barycenter (J2000)                      [deg]
#   5 DELTA_J2000            Declination of barycenter (J2000)                          [deg]
#   6 FLUX_APER              Flux vector within fixed circular aperture(s)              [count]
#   7 FLUXERR_APER           RMS error vector for aperture flux(es)                     [count]
#   8 FLUX_RADIUS            Fraction-of-light radii                                    [pixel]
#   9 FWHM_IMAGE             FWHM assuming a gaussian core                              [pixel]
#  10 BACKGROUND             Background at centroid position                            [count]
#  11 THRESHOLD              Detection threshold above background                       [count]
#  12 FLUX_MAX               Peak flux above background                                 [count]
#  13 ISOAREA_IMAGE          Isophotal area above Analysis threshold                    [pixel**2]
#  14 A_IMAGE                Profile RMS along major axis                               [pixel]
#  15 B_IMAGE                Profile RMS along minor axis                               [pixel]
#  16 THETA_IMAGE            Position angle (CCW/x)                                     [deg]
#  17 FLAGS                  Extraction flags                                          
         1    786.7078     17.2558 300.4120911 +22.6127887     678.5416     72.67432      1.454     3.45     4.809175     20.48799     74.51842        10     0.998     0.788  59.26   0
         2    218.6281     16.5523 300.2354521 +22.4424741     3872.495     72.63735      1.593     2.74     5.025609     20.48799     484.6765        34     1.338     1.135  48.97   0
         3    779.8914      8.9988 300.4126424 +22.6083746     993.0339     72.50779      1.425     3.33     4.801943     20.48799     116.8468        14     1.046     0.875 -83.62   0
         4    334.5954      8.8335 300.2740236 +22.4749992     1291.264     72.60036      1.417     2.35     5.044338     20.48799     189.8134        17     1.129     0.828  45.79   0
         5    745.6924      8.4685 300.4021547 +22.5979867     383.8934     72.74822      1.242     3.15     4.871775     20.48799     50.05771         7     0.831     0.635 -74.99   0
         6    266.5316      8.3114 300.2530202 +22.4544595     236.3617     72.78514      1.161     3.29     5.023055     20.48799     45.16841         5     0.756     0.417 -64.18   0
         7    817.7117      4.2073 300.4259855 +22.6183152      737.613     69.75069      1.514     3.76     4.766051     20.48799     61.97506        15     1.151     0.855  56.22  16
         8    740.9808      4.0199 300.4021279 +22.5952975     552.5002     69.22878      1.443     3.11      4.87584     20.48799     61.96346         9     0.834     0.782  21.02  16
         9    837.8511      1.3101 300.4332035 +22.6235087     1267.341     56.39818      0.956     1.84     4.790078     20.48799     331.2363        10     1.001     0.462  -1.03  24
        10    686.4280    997.4957 300.0624887 +22.8642413     9493.716     72.54483      1.948     4.66     3.115776     20.48799     555.9628        53     1.561     1.470  10.07   3
        11    342.8196   1023.8139 299.9469583 +22.7686807     234.3263     55.58251      1.146     3.90     11.91741     20.48799     57.75073         7     1.135     0.384   3.33  24
        12    277.9077   1013.1262 299.9302475 +22.7461316     2545.008     72.76668      5.557    20.72     55.98298     20.48799     82.76799       108     4.776     2.497 -10.63  19
        13    247.3931    999.6381 299.9251482 +22.7331056     4401.173     72.65584      9.164    40.97     61.30158     20.48799     92.25814       456     9.850     4.729  87.22  19
        14    267.2376    997.5465 299.9319994 +22.7384639     5649.063     72.63735     10.857    43.49     51.99295     20.48799     110.4709       610     9.617     5.458 -62.81  19
        15    287.8808    988.8561 299.9412468 +22.7421706     8734.566     72.65584      8.003    32.04     38.97656     20.48799     170.6153       711    11.592     4.504  64.75  27
        16    202.7571   1021.9173 299.9040206 +22.7260875    -61.65162     65.45904      1.957     3.48     87.03367     20.48799     28.36407         5     1.596     0.219  63.42  24
        17    179.8599   1020.5349 299.8973528 +22.7188161     1902.449     70.64999      3.365    13.03     86.26942     20.48799     52.62429        56     2.779     2.101   7.83  26
        18    131.3325   1013.7589 299.8844752 +22.7023028     5088.364     72.60036     13.906    66.85     68.83979     20.48799     103.0597      1194    16.689     7.431  40.63  27
        19    126.1342    963.6873 299.8991521 +22.6863976     5422.311     72.71128     24.801    98.96     33.94501     20.48799     96.20046      3381    19.426    17.600 -80.16  19
        20      8.9625   1008.7672 299.8480804 +22.6641212     1490.743     72.65584     10.452    15.35    -13.18434     20.48799     40.10971        35     3.343     1.961  17.46  27
        21    545.3557    988.3055 300.0215437 +22.8192846     363.1925     72.63735      1.716     4.40     3.034402     20.48799     32.15752         6     1.013     0.544  54.96   0
        22    680.8126    999.7554 300.0600039 +22.8632051     8490.545     72.61886      1.921     4.42     3.117258     20.48799      471.553        46     1.550     1.395  37.44   3
        23    973.9052    983.5472 300.1566444 +22.9464432      767.624     72.69281      2.178     8.48     2.944673     20.48799     55.27566        22     1.630     1.319 -15.51   0
        24    780.8169   1000.5797 300.0908967 +22.8934358     641.7203     72.60036      1.956     5.78     2.871569     20.48799     45.10151        13     1.264     1.177 -49.47   0
        25      3.0248    972.3693 299.8580791 +22.6519136     1013.783     65.27409      7.748    10.27    -8.000107     20.48799     54.01718        20     1.842     1.595   5.94  24
        26    193.8528    970.9658 299.9178321 +22.7088157     811.4144     72.63735      4.721     6.62     48.05666     20.48799     47.10979        13     1.608     0.766  -1.04   3
        27    191.5109    967.7133 299.9181623 +22.7071806     1306.779     72.78514      6.104     9.73     45.76389     20.48799     47.24423        24     2.125     1.244 -35.53   3
        28    123.2526    935.1710 299.9075338 +22.6773625     4464.136     72.63735     16.339    46.68     14.38779     20.48799     89.41645       598    12.553     4.817 -30.57   3
        29    699.1404    966.7587 300.0764515 +22.8592380     6920.356     72.61886      1.883     4.12      3.28494     20.48799     421.7794        48     1.493     1.415   4.42   0
        30      8.2030   1016.2419 299.8454122 +22.6660337     1715.101     72.63735      8.407    11.78    -15.44498     20.48799     53.98972        30     2.017     1.915  89.20  19
        31    579.9911    960.7812 300.0412844 +22.8217831      365.929     72.58186      1.757     3.88     3.363066     20.48799     25.37498         5     0.836     0.516 -53.38   0
        32    278.8239    981.8774 299.9407010 +22.7374519      3001.67     72.61886      0.481     2.09     38.36329     20.48799     2365.272         8     0.874     0.154  30.47   3
        33    607.7529    957.3938 300.0510320 +22.8291399     1486.673     72.61886      1.718     3.99     3.436969     20.48799      112.082        23     1.253     1.146  61.03   0
        34      1.8497   1015.4534 299.8436955 +22.6638996     1369.981     59.50411      5.175     6.45    -20.01128     20.48799     51.69818        13     1.350     0.999  62.29  27
        35    501.4931    953.9652 300.0190626 +22.7962776     907.5695     72.56335      1.813     4.79     3.373896     20.48799     75.45313        18     1.346     1.001 -54.34   0
        36    432.0544    951.9457 299.9981076 +22.7748628     6565.209     72.65584      1.847     3.92     3.680174     20.48799     538.8595        45     1.488     1.368  -2.04   0
        37    464.5651    939.2026 300.0123713 +22.7809647     424.8004     72.60036      1.524     5.04     3.583974     20.48799     53.68708         8     0.898     0.801   4.59   0
        38    978.4277    930.8573 300.1752003 +22.9326755     2080.611     72.61886      1.978     5.02     3.281856     20.48799      119.623        28     1.482     1.236 -31.95   0
        39      1.7065    995.2428 299.8502274 +22.6580686     993.8057     58.66294      8.722     8.87    -14.61885     20.48799     54.40704        13     2.459     0.894  76.42  27
        40    170.0000    928.9765 299.9240780 +22.6896231     1073.197     72.52631      3.374     3.71     15.95794     20.48799     31.35633         5     1.373     0.289 -90.00   2
        41    628.5598    927.2761 300.0673112 +22.8267431     463.4174     72.58186      1.657     3.38     3.624769     20.48799     49.50486         8     0.992     0.569  19.19   0
        42      1.7143   1020.0303 299.8421640 +22.6651696     1080.377      57.8792      5.153     7.48    -21.35939     20.48799     43.33276        14     1.601     0.979  86.27  27
        43    767.2735    919.6794 300.1129999 +22.8661644     747.0349     72.72975      1.912     7.13      3.39482     20.48799     48.93854        17     1.815     0.785  57.82   0
        44    156.9467    915.5870 299.9243763 +22.6818675      1197.73     72.63735      8.767     8.92     13.60093     20.48799     35.77051        11     2.364     0.940 -65.22   3
        45    802.1442    913.8203 300.1257744 +22.8749391     998.1919     72.60036      1.869     4.48     3.292245     20.48799     81.55253        19     1.217     1.149  81.14   0
        46    579.0242    914.5717 300.0560174 +22.8082406     297.9411     72.61886      1.654     3.99     3.625428     20.48799      38.8814         5     1.478     0.308  27.78   0
        47    824.2994    907.5186 300.1347306 +22.8797735     11396.15     72.74822      1.798     4.18     3.309388     20.48799     689.2068        52     1.460     1.391 -25.99   0
        48    163.9856    909.8075 299.9284441 +22.6823246     1042.479     72.52631     10.423    10.43     13.22739     20.48799     33.62961        20     3.339     0.908  -1.87   1
        49     12.2629    910.3479 299.8811247 +22.6369233      483.123     72.67432      1.865     2.48     3.783891     20.48799     41.55295         5     0.704     0.458  14.19   0
        50    869.9576    907.7807 300.1488799 +22.8935371     399.8849     72.63735      1.538     5.83     3.327412     20.48799     39.20621         9     1.110     0.863 -73.54   0
        51   1015.7222    906.6808 300.1947007 +22.9369130     480.0513     72.72975      2.143     6.94     3.362902     20.48799     33.76071         8     1.392     0.971   9.37  16
        52      4.4568   1023.4777 299.8418940 +22.6669806     951.0798     55.77551      7.127    10.47    -20.43265     20.48799     50.66276        19     3.371     0.907  -9.47  27
        53    529.3472    895.4028 300.0467855 +22.7878410     434.0031     72.61886      1.674     6.26     3.631142     20.48799     49.67881         9     1.239     0.888  51.29   0
        54    875.9737    895.4750 300.1547589 +22.8918089     321.5649     72.61886      1.591     5.50     3.330277     20.48799     39.88473         7     1.334     0.638 -14.72   0
        55    832.7388    889.4919 300.1432257 +22.8771305     1473.257     72.71128      1.818     4.00     3.326081     20.48799     112.4796        24     1.352     1.121  81.30   0
        56    214.1717    989.6932 299.9180553 +22.7202821     1768.537     72.54483      4.077    14.77      62.5775     20.48799     50.71246        46     2.740     2.214   7.03   2
        57    548.4451    888.0036 300.0551383 +22.7914479     214.6748     72.61886      1.472     4.53     3.632391     20.48799     36.58831         5     1.071     0.543  11.67   0
        58    135.8929    899.2121 299.9231590 +22.6708546     1079.907     72.56335      3.909     5.30     9.295742     20.48799     67.41919        20     1.347     1.204 -11.56   2
        59    684.5766    886.7108 300.0979568 +22.8319070     462.2044     72.54483      1.779     5.09     3.602087     20.48799     46.86727         6     1.141     0.642  33.93   0
        60    870.9263    883.1425 300.1571969 +22.8867563     927.1879     72.65584      2.162     5.61     3.329233     20.48799     70.34234        19     1.491     1.162  -4.20   0
        61    919.2711    874.7316 300.1750082 +22.8988337     669.1152     72.65584      1.736     5.36     3.357349     20.48799      62.6162        13     1.204     0.832  65.93   0
        62    770.8824    873.4349 300.1291681 +22.8539773     660.0836     72.58186      1.699     5.39     3.415847     20.48799     54.80934        18     1.269     1.139  26.12   0
        63     30.2277    871.5468 299.8993249 +22.6312024      377.132     72.63735      1.726     4.83     4.322064     20.48799     45.33429         6     1.007     0.656  78.15   0
        64    781.5964    870.3549 300.1335091 +22.8563058     437.7107     72.61886      1.531     5.87     3.393755     20.48799     56.25099         9     1.137     0.854  83.89   0
        65    483.3935    869.6851 300.0408453 +22.7666798     4305.618     72.54483      1.655     3.40     3.636742     20.48799     405.2625        34     1.280     1.247  23.24   0
        66    831.0385    869.9296 300.1490590 +22.8710066     5242.089     72.58186      0.504     1.09     3.339862     20.48799     3229.113         9     0.512     0.393  81.37   0
        67    261.7856    858.2941 299.9756043 +22.6969177     254.0113     72.54483      1.404     5.41     5.341085     20.48799     37.59896         7     1.145     0.722 -51.86   0
        68    526.8773    857.5295 300.0583352 +22.7762380     406.0073     72.72975      1.796     4.79     3.658872     20.48799     32.02513         7     1.042     0.625  50.61   0
        69    211.8847    980.4365 299.9203563 +22.7169431     1003.712     72.60036      3.205     8.16     54.93495     20.48799     45.16161        15     1.635     1.405 -83.06   2
        70    208.6297    855.0060 299.9601459 +22.6800210     690.3493     72.61886      1.525     2.98     6.343561     20.48799     87.26357        13     1.010     0.867   8.43   0
        71    185.7374    852.2704 299.9539189 +22.6723656     1654.196     72.65584      1.818     3.75     6.221897     20.48799     144.1772        25     1.343     1.234  29.19   0
        72    117.3575    853.2894 299.9323341 +22.6521309     436.9916     72.63735      1.827     4.19     4.918327     20.48799     44.70491         5     0.751     0.715  26.34   0
        73   1011.6861    839.9911 300.2151346 +22.9165567      2023.75     72.54483      1.768     4.06     3.923913     20.48799     133.3877        28     1.313     1.253 -27.14   0
        74    795.2491    833.9343 300.1496100 +22.8499470     667.8164     72.61886      1.717     4.58     3.482077     20.48799     53.93975        16     1.111     1.068  11.33   0
        75    218.4918    834.0825 299.9700163 +22.6769839     275.5895     72.76668      1.173     2.50      5.46525     20.48799     46.64709         6     0.755     0.498  85.43   0
        76    663.3251    827.7908 300.1104996 +22.8086299     4791.285     72.60036      1.600     3.26     3.704704     20.48799     433.9294        35     1.266     1.217  54.84   0
        77    153.6254    828.1379 299.9517848 +22.6558103      262.366     72.61886      1.179     3.41     5.127085     20.48799      50.8214         5     0.887     0.592  -9.37   0
        78    465.5721    824.8165 300.0498903 +22.7484659     630.5073     72.63735      1.536     3.51     3.704187     20.48799     61.18169        11     0.999     0.822  47.16   0
        79    213.4824    821.3690 299.9725929 +22.6718363     1408.809     72.61886      1.774     3.84     4.924634     20.48799     129.7442        24     1.305     1.190  53.28   0
        80    922.5609    822.0588 300.1931657 +22.8846992     967.2291     72.61886      0.654     0.72     3.518059     20.48799      543.053         6     0.500     0.426 -13.09   0
        81    683.8642    820.1826 300.1193724 +22.8126056     734.6351     72.60036      1.495     5.20     3.700121     20.48799     69.22363        10     0.970     0.788 -24.82   0
        82    233.3447    818.6050 299.9796671 +22.6770051     325.9756     72.60036      1.421     3.78      4.75809     20.48799     37.88914         5     0.963     0.425 -75.78   0
        83    600.4449    811.3211 300.0962699 +22.7850482     372.6068     72.60036      1.542     5.00     3.720413     20.48799     35.62298         9     1.118     0.632   7.83   0
        84    839.2958    807.5811 300.1719107 +22.8555868     4274.157     72.52631      1.691     3.55       3.5675     20.48799     336.0314        35     1.384     1.207  -0.95   0
        85    570.8607    804.5636 300.0892543 +22.7742374     402.6866     72.63735      2.190     4.36     3.798912     20.48799     34.09591         5     1.095     0.519 -56.91   0
        86    556.4094    800.1182 300.0862000 +22.7686280     739.5789     72.56335      1.612     4.35     3.850726     20.48799     71.95706        13     1.057     0.938 -25.31   0
        87    431.5993    800.9986 300.0470620 +22.7314438     3848.169     72.39655      0.586     1.26     3.752655     20.48799     2046.692         7     0.524     0.234  -5.01   0
        88    247.9541    801.0142 299.9899294 +22.6763469     514.7294     72.63735      1.498     3.55     4.081602     20.48799     52.13692         5     0.980     0.372  58.40   0
        89    202.7278    797.9913 299.9768506 +22.6619075     975.0678     72.60036      1.642     3.85     4.097429     20.48799     98.34472        19     1.252     0.997 -25.81   0
        90    617.9437    793.4467 300.1075319 +22.7851676      522.441     72.65584      1.479     4.95     3.762199     20.48799     46.80568        12     1.202     0.780 -33.91   0
        91    352.3745    789.9943 300.0259894 +22.7045200      53959.8     72.60036      1.616     3.19     3.782484     20.48799     5669.432        99     1.443     1.435  18.87   0
        92    610.3376    789.0953 300.1065778 +22.7816383     1675.836     72.71128      1.499     3.12     3.777433     20.48799     178.5964        22     1.134     1.064 -34.79   0
        93   1022.8542    788.4823 300.2353699 +22.9051125     653.6555     61.04182      1.506     3.80     4.684953     20.48799     64.68871        14     1.080     0.891 -83.60  24
        94      5.5040    785.2056 299.9197195 +22.5990414     827.9339     72.52631      2.103     8.94     4.130781     20.48799     56.34549        19     2.050     1.088 -52.91  16
        95    280.7031    788.0638 300.0043240 +22.6824615     527.9208     72.71128      1.613     3.30     4.081602     20.48799     62.57722         9     0.976     0.821  19.07   0
        96    639.1427    785.4304 300.1167412 +22.7892244     803.6545     72.63735      1.477     2.83     3.811776     20.48799     79.48071        13     0.918     0.872 -68.43   0
        97     38.4675    784.5717 299.9301654 +22.6087560     725.4286     72.60036      1.811     4.28     4.130781     20.48799     73.90299        14     1.232     1.017 -81.45   0
        98    650.3982    783.4633 300.1208868 +22.7920349     581.3433     72.60036      1.503     4.28     3.825369     20.48799     56.68904        15     1.256     0.914 -71.83   0
        99    969.8792    781.4729 300.2211224 +22.8872267     310.4657     72.72975      1.506     4.58     4.202625     20.48799     41.36567         5     0.890     0.670  33.73   0
       100    755.5803    779.5148 300.1549425 +22.8224366     428.5978     72.54483      1.602     4.77     3.675888     20.48799     52.68216        11     1.145     0.862  -2.48   0
       101    550.4020    776.9910 300.0918490 +22.7601918     179.1647     72.43365      1.368     4.28     3.935683     20.48799     24.64185         5     0.803     0.650  -1.38   0
       102    793.2055    770.4016 300.1696323 +22.8310995     743.5489     72.43365      1.583     4.58     3.712006     20.48799     59.37955        15     1.324     0.789  27.38   0
       103    402.1003    767.2726 300.0488476 +22.7129222     31482.02     72.78514      1.540     2.97      4.03375     20.48799     2969.597        72     1.362     1.320   2.48   0
       104    416.3714    767.8701 300.0530942 +22.7173746         2025     72.61886      1.562     3.36     4.088982     20.48799     207.6209        25     1.209     1.099  15.20   0
       105    925.2448    763.2896 300.2131128 +22.8686308     2736.154     72.63735      1.659     3.59     4.016218     20.48799     212.5718        29     1.247     1.225 -50.47   0
       106    413.4663    761.7535 300.0541787 +22.7147489      613.642     72.61886      1.686     2.92     4.132034     20.48799     69.46331        11     0.921     0.826  15.59   0
       107    683.2156    759.4388 300.1389212 +22.7949805     905.4319     72.63735      1.450     3.24     3.895715     20.48799     88.75124        15     1.038     0.960  36.52   0
       108    284.6166    758.9993 300.0149901 +22.6753026     794.2177     72.50779      1.460     4.04     4.081602     20.48799      88.5279        16     1.131     1.061  51.35   0
       109    519.7142    759.1450 300.0880966 +22.7458688      469.074     72.67432      1.490     3.32      3.94382     20.48799     48.37963         9     0.920     0.655  26.71   0
       110    530.4130    754.2734 300.0930112 +22.7476798     900.2841     72.63735      1.412     2.86     3.979648     20.48799     103.1145        14     0.963     0.867 -21.27   0
       111     89.6494    754.8625 299.9557255 +22.6156061      519.147     72.67432      1.408     4.08     4.130781     20.48799     54.83633         8     1.066     0.517 -36.88   0
       112    931.3901    751.1367 300.2189806 +22.8669828     491.0083     72.56335      1.593     3.47     4.173953     20.48799     53.23639        12     1.041     0.874 -11.64   0
       113    388.4981    749.5730 300.0503693 +22.7037656     362.3771     72.56335      1.700     3.17     4.070906     20.48799     49.63593         5     1.048     0.664  59.48   0
       114    475.9655    748.9000 300.0778084 +22.7298089     463.8563     72.60036      1.395     2.59     3.928432     20.48799     63.01416         7     0.856     0.511  45.21   0
       115    117.9859    748.6586 299.9665479 +22.6223331     596.4535     72.60036      1.859     3.53     4.129752     20.48799     62.69184         8     0.998     0.754 -50.37   0
       116    684.8122    748.3179 300.1430341 +22.7922677     333.0484     72.60036      1.645     3.91     3.930298     20.48799     47.74131         5     1.110     0.461   3.76   0
       117    908.9932    745.6167 300.2137902 +22.8586865     497.6008     72.56335      1.685     5.60     4.155743     20.48799     40.38313         9     1.175     0.763  14.42   0
       118    282.3821    743.3459 300.0193837 +22.6701439     473.8279     72.60036      1.330     4.35     4.081602     20.48799     52.68367        11     1.169     0.893  55.85   0
       119    605.6863    734.0883 300.1230124 +22.7644607     405.7554     72.78514      1.324     3.79     4.064812     20.48799     56.47135         8     1.051     0.536 -64.34   0
       120    575.1759    732.0821 300.1141630 +22.7547365     711.9963     72.58186      1.537     4.59     4.083211     20.48799     82.54936        16     1.478     0.794  80.38   0
       121    484.0858    731.0173 300.0861491 +22.7271144     392.4342     72.58186      1.452     4.12     4.002187     20.48799     37.55065         7     0.898     0.540  44.63   0
       122    991.6442    728.6111 300.2450985 +22.8785680     4470.929     72.61886      1.705     3.70     4.626247     20.48799     326.2592        36     1.346     1.268 -32.36   0
       123    597.1063    729.5699 300.1218091 +22.7605915     1355.232     72.54483      1.391     2.89     4.091426     20.48799     155.1018        17     1.073     0.913  14.30   0
       124    516.5546    729.3017 300.0968143 +22.7363597     336.0818     72.63735      1.452     4.86     4.067482     20.48799     41.48428         8     0.860     0.779  38.29   0
       125    678.9651    724.7925 300.1488600 +22.7837632     324.5632     72.61886      1.277     3.98     3.998854     20.48799     36.26136         6     0.931     0.488 -34.51   0
       126    980.2596    720.1743 300.2442896 +22.8727342     1644.412     72.61886      1.612     3.36     4.585443     20.48799     138.3549        22     1.166     1.079   3.61   0
       127    342.8739    713.9916 300.0477407 +22.6798745      747.719     72.58186      1.434     3.58     4.074276     20.48799     95.11302        13     1.001     0.924 -26.36   0
       128    806.7163    711.2445 300.1930752 +22.8181674     2644.154     72.58186      1.605     3.33     3.924205     20.48799     258.7506        32     1.453     1.196  -8.71   0
       129   1011.2344    710.0242 300.2572525 +22.8790989     1686.819     72.63735      1.671     3.83     4.682863     20.48799     126.2435        24     1.259     1.128 -23.93   0
       130     28.7856    701.3436 299.9542104 +22.5819983     841.5186     72.60036      1.782     4.61     4.394163     20.48799     71.52938        19     1.259     1.094  42.54   0
       131    888.7836    697.4249 300.2231537 +22.8387931     611.9836     72.63735      1.801     4.65     4.310422     20.48799     53.70279        12     1.150     0.894  16.37   0
       132    191.8555    697.4109 300.0061655 +22.6298106     612.4275     72.61886      1.702     5.14     4.438017     20.48799     51.50919        14     1.213     1.003 -77.06   0
       133    924.9329    688.2018 300.2374249 +22.8469760     148320.5     72.61886      1.557     3.10     4.540622     20.48799     13077.29       160     1.487     1.466  33.70   0
       134    687.2704    692.5637 300.1619233 +22.7770030     350.7052     72.61886      1.708     5.05     4.020916     20.48799     44.82125         7     1.202     0.611  76.96   0
       135    777.2829    688.6240 300.1912533 +22.8028521     809.7601     72.58186      1.559     2.65     3.959521     20.48799     85.29194        13     0.933     0.837 -49.10   0
       136    957.4721    681.0388 300.2499021 +22.8546678     491.8891     72.58186      1.771     5.33     4.614283     20.48799     38.38547        10     1.106     0.725  75.52   0
       137    256.4050    678.8321 300.0322734 +22.6438509     170.7507     72.60036      1.415     4.82      4.42274     20.48799     32.84573         6     1.017     0.647   5.88   0
       138    611.1583    677.0396 300.1432594 +22.7497304     1622.831     72.71128      1.412     3.11     4.408939     20.48799      189.735        20     1.050     1.018  -4.71   0
       139    792.4222    674.3210 300.2006207 +22.8032831      9443.19     72.60036      1.467     2.80     3.999622     20.48799     973.0981        40     1.225     1.163  25.64   0
       140    274.2207    676.0579 300.0387153 +22.6484002     289.9491     72.61886      1.369     3.84     4.420775     20.48799     33.38309         7     0.829     0.699 -22.33   0
       141    293.8562    669.2760 300.0470259 +22.6523458     4825.089     72.65584      1.502     2.86     4.424968     20.48799     532.3492        32     1.200     1.142  16.55   0
       142    375.9252    667.4998 300.0731330 +22.6764540      1120.67     72.74822      1.504     3.32     4.470545     20.48799     126.2084        20     1.159     1.027  31.76   0
       143      7.5988    667.5155 299.9586218 +22.5659435     1681.887     72.50779      1.840     3.84     4.616109     20.48799     155.2689        23     1.311     1.138   9.36  16
       144    251.9492    665.2332 300.0353069 +22.6386144     380.7856     72.63735      1.347     2.60     4.483294     20.48799     51.75742         7     0.723     0.650   2.17   0
       145    584.1232    663.0239 300.1393945 +22.7376029     781.5384     72.63735      1.375     3.03     4.494076     20.48799     100.7018        12     1.031     0.770  35.62   0
       146    575.8265    655.0492 300.1394024 +22.7328269     3139.954     72.63735      1.397     2.83     4.531796     20.48799     391.7484        26     1.186     1.032  63.51   0
       147    566.1051    648.7170 300.1384328 +22.7280951     1424.968     72.80359      1.418     2.85     4.558502     20.48799     178.8735        16     0.999     0.917  73.93   0
       148    494.9958    648.4945 300.1163655 +22.7067104     134.0262     72.52631      1.094     3.63     4.555669     20.48799     43.85897         6     1.122     0.338 -50.50   0
       149    959.7701    646.7369 300.2617669 +22.8455044     314.0798     72.63735      1.315     3.05     4.633922     20.48799     53.70701         5     1.029     0.482 -53.10   0
       150    476.8756    646.3725 300.1114145 +22.7006680     243.7908     72.60036      1.200     3.39     4.554941     20.48799     31.20131         5     0.771     0.432 -19.88   0
       151    229.4085    645.1434 300.0348259 +22.6260909     597.9509     72.60036      1.331     3.04     4.586072     20.48799      80.3401        12     0.989     0.795  22.34   0
       152    243.6805    643.4811 300.0398038 +22.6298958     545.1442     72.74822      1.396     3.82     4.558569     20.48799     66.72914        12     1.089     0.836 -19.93   0
       153   1013.1093    640.3950 300.2804679 +22.8596605     525.1688     72.52631      1.509     3.35     4.633116     20.48799     51.24416         9     0.925     0.721  44.22   0
       154    300.6935    639.9698 300.0586754 +22.6459918     288.5564     72.54483      1.081     3.33     4.458731     20.48799      44.8004         5     0.782     0.411  71.73   0
       155    269.3940    640.1270 300.0488899 +22.6366478     417.8172     72.56335      1.401     2.71     4.506962     20.48799     67.62919        11     0.984     0.715  10.61   0
       156    590.0438    638.9671 300.1490558 +22.7324739      387.548     72.65584      1.265     1.97     4.612837     20.48799     66.97025         5     0.588     0.576   5.72   0
       157    490.8802    638.5895 300.1183029 +22.7026342     1623.429     72.60036      1.347     2.56     4.563996     20.48799     209.5536        19     1.045     0.941  37.82   0
       158    144.7952    633.4029 300.0123362 +22.5973377     19888.88     72.43365      1.622     3.12     4.763722     20.48799     1868.417        63     1.401     1.340  52.81   0
       159    524.4488    637.0265 300.1292612 +22.7122510     190.3286     72.63735      1.472     3.76     4.591887     20.48799     27.65266         6     0.816     0.497  89.77   0
       160     65.8608    635.4085 299.9871544 +22.5742264     620.9542     72.60036      1.678     5.11     4.728922     20.48799     53.70679        10     1.099     0.671 -34.67   0
       161    575.7717    634.0031 300.1462242 +22.7267706      1128.74     72.58186      1.386     2.41     4.632661     20.48799     152.5973        14     0.916     0.854  -1.80   0
       162    611.1242    633.4230 300.1574226 +22.7372023      428.574     72.65584      1.721     3.76     4.642486     20.48799     45.40662         6     0.828     0.489  -5.78   0
       163    329.3654    625.6259 300.0722544 +22.6504777     231.9895     72.61886      1.048     3.35      4.47503     20.48799     38.19343         5     1.008     0.322  22.21   0
       164    993.7968    620.2635 300.2809843 +22.8480928     1064.049     72.60036      1.513     3.50     4.630814     20.48799      98.3914        16     1.110     0.939  39.07   0
       165     90.8448    617.4839 300.0007412 +22.5765850     1549.997     72.58186      2.004     4.29     4.790457     20.48799     110.0254        28     1.490     1.182 -83.95   0
       166    860.6599    618.4681 300.2400440 +22.8076930     463.4759     72.65584      1.524     3.60     4.335401     20.48799     48.25674        11     0.933     0.833  88.39   0
       167    156.9730    618.0197 300.0211193 +22.5965808     379.2444     72.61886      1.464     5.55     4.773918     20.48799     45.07355         9     1.156     0.761  62.43   0
       168    539.1507    614.5842 300.1411306 +22.7102186     437.5323     72.65584      1.228     3.55     4.694613     20.48799      66.0423        10     1.098     0.723 -58.02   0
       169    934.0400    612.6385 300.2648215 +22.8280026     973.1282     72.69281      1.908     3.86     4.630008     20.48799     71.16329        14     1.114     0.903  32.12   0
       170    331.6686    613.6862 300.0768501 +22.6477437     226.3688     72.71128      1.521     4.16     4.489001     20.48799     27.96147         6     1.091     0.453  -5.69   0
       171    678.2732    611.3563 300.1855097 +22.7509959     295.7277     72.60036      1.345     4.01      4.61264     20.48799     36.68908         6     0.713     0.667 -82.13   0
       172    495.9711    606.7567 300.1302306 +22.6950264     805.4014     72.65584      1.402     2.69     4.608143     20.48799     103.6143        11     0.932     0.722  62.83   0
       173    643.9376    605.3069 300.1767787 +22.7389680     557.4344     72.71128      1.347     2.64     4.719976     20.48799     73.90768         8     0.818     0.632  42.25   0
       174    691.1389    603.6922 300.1920082 +22.7526518     575.3891     72.69281      1.537     2.97     4.546948     20.48799     73.22662         7     0.875     0.625  21.03   0
       175    661.5277    603.3941 300.1828797 +22.7436912     527.2311     72.56335      1.328     3.82     4.693455     20.48799     61.79946        10     1.103     0.733  18.80   0
       176    540.2452    602.6801 300.1453390 +22.7071305     866.1523     72.60036      1.453     3.39     4.736605     20.48799     114.7188        15     1.118     0.897   6.96   0
       177    973.9395    598.2311 300.2819484 +22.8358158     3366.693     72.65584      1.502     2.97     4.559537     20.48799       330.32        29     1.236     1.159  87.38   0
       178    505.6555    598.0159 300.1360852 +22.6954217     1764.145     72.58186      1.378     2.52     4.648429     20.48799     237.3391        18     1.057     0.930  36.23   0
       179     67.5920    591.5298 300.0019473 +22.5621665     5192.227     72.60036      1.678     3.32     4.804387     20.48799     522.9673        39     1.330     1.278  20.17   0
       180    535.1008    589.1900 300.1481199 +22.7017167     354.3021     72.52631      1.254     3.78     4.754558     20.48799     41.94961         5     0.909     0.451  47.91   0
       181    369.0371    584.7523 300.0978754 +22.6506505     9022.998     72.65584      1.410     2.63     4.503076     20.48799     1088.421        42     1.243     1.119  50.12   0
       182    491.5141    581.8150 300.1369460 +22.6865327     8936.263     72.56335      1.354     2.43     4.624515     20.48799     1245.917        38     1.147     1.113  40.09   0
       183    256.8296    579.1414 300.0647956 +22.6153876     213.4689     72.63735      1.295     4.45     4.611343     20.48799     32.30162         5     0.798     0.705  40.13   0
       184    737.7958    578.2172 300.2148228 +22.7593201     327.5797     72.54483      1.459     3.35     4.226945     20.48799     36.09792         5     0.929     0.349  44.22   0
       185    903.0938    575.9617 300.2670864 +22.8081976     1893.997     72.63735      1.475     2.91     4.454786     20.48799     195.1337        26     1.226     1.111   7.60   0
       186    987.9041    573.3094 300.2944016 +22.8328391     12256.17     72.80359      1.530     2.91     4.371492     20.48799     1232.201        46     1.273     1.255 -24.75   0
       187    552.1013    571.4393 300.1591797 +22.7017186     11580.94     72.61886      1.343     2.45     4.832942     20.48799     1432.101        46     1.193     1.126  59.17   0
       188    279.4407    566.8759 300.0758117 +22.6186514     1344.064     72.58186      1.475     2.81     4.533728     20.48799     173.4577        17     1.092     0.933  28.85   0
       189    721.2139    567.3048 300.2132006 +22.7512179     514.8622     72.54483      1.232     2.57     4.358556     20.48799     76.81141         9     0.895     0.644  33.53   0
       190    526.6815    564.5742 300.1534950 +22.6921279     333.2318     72.60036      1.066     2.78      4.77846     20.48799     52.75837         6     0.800     0.507 -40.83   0
       191    483.8037    559.5531 300.1417775 +22.6778324     4581.524     72.60036      1.413     2.54     4.616341     20.48799     603.9244        30     1.157     1.078   2.43   0
       192    826.7706    559.5052 300.2486344 +22.7806062     939.9219     72.54483      1.620     4.26     4.231406     20.48799     106.2133        16     1.258     0.971 -29.17   0
       193    462.1830    558.0125 300.1355480 +22.6709081      1144.86     72.58186      1.228     2.30     4.576088     20.48799     178.6684        13     0.957     0.754  23.28   0
       194    216.4993    557.3924 300.0593194 +22.5970521     579.2276     72.50779      1.308     2.81     4.726687     20.48799     90.01556        11     0.997     0.744 -32.41   0
       195    903.7648    555.1899 300.2740435 +22.8024320     1548.736     72.60036      1.504     3.41     4.406879     20.48799     170.2713        22     1.262     0.996 -49.48   0
       196    600.4140    547.1670 300.1821094 +22.7092331     201348.1     72.61886      1.341     2.43      4.87732     20.48799     24113.02       205     1.427     1.404  -1.39   0
       197    424.0364    553.6010 300.1251084 +22.6582048     293.8785     72.61886      1.461     3.71     4.513925     20.48799     38.13034         6     0.833     0.623 -38.55   0
       198    783.9968    552.0458 300.2377238 +22.7656487     836.3345     72.60036      1.361     3.48     4.194654     20.48799     100.1719        10     0.925     0.737  63.01   0
       199    877.8480    550.4843 300.2674901 +22.7933170     486.9965     72.60036      1.818     4.38     4.383135     20.48799     40.56649         6     1.011     0.539 -62.05   0
       200    286.4493    547.0651 300.0844262 +22.6150705     3540.678     72.63735      1.429     2.65     4.510423     20.48799     441.9444        28     1.166     1.069  48.55   0
       201    369.1838    546.9409 300.1102033 +22.6398462     190.7672     72.58186      1.206     3.83     4.495235     20.48799      28.2471         5     0.809     0.519  34.73   0
       202    852.6534    543.5699 300.2618803 +22.7837836      572.628     72.63735      1.569     2.87     4.347396     20.48799     64.37566        11     0.974     0.769  16.98   0
       203    632.0796    533.8351 300.1963025 +22.7148964     245.1055     72.56335      1.459     3.44     4.816597     20.48799     42.85217         5     0.916     0.602 -30.75   0
       204    335.5558    529.8938 300.1052780 +22.6248711     421.5826     72.63735      1.169     2.11     4.497094     20.48799     71.60342         8     0.764     0.636   2.95   0
       205    491.0028    527.3779 300.1544692 +22.6707565     2915.901     72.56335      1.443     2.55     4.625834     20.48799     320.2085        24     1.076     1.023  25.22   0
       206    902.7121    524.0397 300.2838335 +22.7931686      522.899     72.60036      1.865     3.97      4.33717     20.48799     47.97844         7     0.804     0.720  27.41   0
       207    721.7715    523.2969 300.2276690 +22.7387485     289.3299     72.56335      1.245     3.33     4.385174     20.48799     41.62577         5     0.757     0.433 -13.65   0
       208    808.1939    516.3705 300.2568541 +22.7626524     386.3141     72.61886      1.361     3.64     4.238938     20.48799     47.98787         8     1.007     0.579  20.92   0
       209    888.0761    513.6909 300.2826305 +22.7858118     1732.266     72.76668      1.430     2.77     4.339421     20.48799     220.9675        20     1.060     0.993 -10.53   0
       210    759.2445    511.3658 300.2432221 +22.7465500     2662.913     72.67432      1.338     2.41     4.281023     20.48799     315.8336        23     1.079     0.987  79.62   0
       211     18.4629    512.1260 300.0124730 +22.5246590     768.8243     72.65584      1.692     3.16     4.716171     20.48799     70.79343        14     0.977     0.938 -42.59   0
       212    969.1969    508.3148 300.3096778 +22.8085632      386.707     72.54483      1.734     4.35      4.18961     20.48799     34.06178         5     0.761     0.708  28.76   0
       213    664.0058    507.9799 300.2146453 +22.7170408     526.6514     72.60036      1.357     2.50     4.687108     20.48799     67.08511         9     0.773     0.745  -2.97   0
       214    546.5092    507.1011 300.1783357 +22.6815749     662.4934     72.78514      1.275     3.17     4.884379     20.48799     88.78506        10     1.041     0.643 -28.80   0
       215   1016.6878    505.3855 300.3254455 +22.8219432     1312.522     72.56335      1.545     3.13      4.11935     20.48799     128.5731        22     1.168     1.108  80.64  16
       216   1002.3221    504.2704 300.3213254 +22.8173210     888.6696     72.72975      2.186     3.56     4.140532     20.48799     79.91507        15     1.093     0.939  66.49   0
       217    888.2631    503.7672 300.2859119 +22.7830170     2312.112     72.61886      1.641     3.81     4.326218     20.48799     219.2145        28     1.553     1.001  74.83   0
       218    641.6215    501.9152 300.2096417 +22.7085916     704.8461     72.56335      1.832     3.80     4.725129     20.48799     82.74391        12     1.124     0.759  59.77   2
       219    427.3414    501.6321 300.1430154 +22.6442824     268.3521     72.63735      1.127     3.12     4.487575     20.48799     41.51114         7     0.942     0.473   6.55   0
       220    926.4476    498.9411 300.2993877 +22.7930673     4095.681     72.67432      1.410     2.67     4.225936     20.48799     477.1253        30     1.133     1.097 -36.40   0
       221    480.1650    500.3798 300.1598635 +22.6597588     310.7241     72.63735      1.141     2.94      4.51615     20.48799     59.17818         7     0.814     0.606 -30.23   0
       222    664.1132    495.3641 300.2187758 +22.7134506     330.4098     72.60036      1.435     4.15      4.65225     20.48799      37.7656         6     1.138     0.432  33.98   0
       223    587.2048    494.5140 300.1950962 +22.6901587     348.3289     72.54483      1.390     4.10     4.824872     20.48799     50.23994         8     1.025     0.703  -4.97   0
       224   1018.3397    489.4559 300.3311343 +22.8178604      600.405     72.69281      1.442     3.11     4.140934     20.48799     99.00792        13     1.037     0.837  21.13  16
       225    158.5695    489.0520 300.0635040 +22.5600742     907.1293     72.65584      1.432     2.79     4.381387     20.48799     122.0878        14     0.957     0.911 -10.90   0
       226    957.6434    486.6935 300.3130956 +22.7988910     217.0855     72.61886      1.480     4.04     4.164468     20.48799     32.16925         5     1.174     0.398 -76.04   0
       227    819.4728    483.1703 300.2711524 +22.7564951     298.6466     72.61886      1.232     2.10      4.26545     20.48799     48.70623         5     0.685     0.472  70.80   0
       228    150.8649    479.1972 300.0643090 +22.5549366     550.2839     72.63735      1.698     3.74     4.364003     20.48799     62.18032         8     0.973     0.704  11.12   0
       229   1014.8875    478.6299 300.3335730 +22.8137157     335.6173     72.61886      1.567     2.58     4.165753     20.48799     42.99175         5     0.842     0.481   3.28   0
       230    758.9531    473.5280 300.2554192 +22.7355958     503.6619     72.60036      1.451     3.18     4.314918     20.48799     57.54354         8     0.777     0.718  61.00   0
       231    647.6144    470.8559 300.2215947 +22.7014694     443.4112     72.60036      1.613     3.54     4.619802     20.48799     48.16174         7     0.959     0.687 -89.43   0
       232    367.5955    471.5316 300.1341984 +22.6177318     281.4582     72.58186      1.199     3.69     4.510102     20.48799     40.20481         6     0.962     0.407 -19.32   0
       233    699.8657    469.3690 300.2383564 +22.7166987     626.4955     72.61886      1.156     2.21     4.458358     20.48799     114.7833         9     0.852     0.649  36.02   0
       234    760.6618    461.6746 300.2598007 +22.7327032     819.7235     72.65584      1.260     2.54     4.296247     20.48799     144.8932        13     1.019     0.849 -61.30   0
       235   1014.5468    462.1810 300.3388082 +22.8088867     705.8095     72.60036      1.471     3.24      4.27914     20.48799     67.33421        10     0.940     0.696  -0.07   0
       236    917.9437    457.9122 300.3100592 +22.7787324     997.5549     72.67432      1.346     2.78     4.183585     20.48799      129.765        14     1.009     0.836 -26.13   0
       237    876.1769    455.3953 300.2978512 +22.7655006     344.5046     72.58186      1.232     3.19     4.269875     20.48799     45.18982         6     0.745     0.631 -69.03   0
       238    902.1436    454.1109 300.3063659 +22.7729084     559.5842     72.65584      1.335     3.16     4.214674     20.48799     74.68336        11     0.986     0.744  21.07   0
       239    646.4759    452.1078 300.2273276 +22.6957448     3197.587     72.76668      1.286     2.34     4.550384     20.48799     432.8326        27     1.094     1.019  34.52   0
       240   1007.2056    451.2448 300.3400688 +22.8035457     376.2067     72.61886      1.337     3.87     4.334685     20.48799     51.68327         7     1.024     0.509 -21.37   0
       241    122.8522    443.6752 300.0671351 +22.5363456      265.609     72.63735      1.205     2.46      4.42835     20.48799     48.70131         6     0.716     0.599 -69.20   0
       242    651.8804    440.0314 300.2329322 +22.6938963     259.8856     72.61886      1.129     2.14     4.477903     20.48799     55.10163         5     0.748     0.474  36.13   0
       243    486.4245    439.0363 300.1817305 +22.6440271     470.2122     72.63735      1.403     2.69     4.735154     20.48799     59.77728         7     0.725     0.643 -79.69   0
       244    418.3922    439.2386 300.1604897 +22.6236925     292.2723     72.63735      1.287     4.59     4.592564     20.48799     45.62209         7     1.012     0.591 -41.96   0
       245    929.6616    431.0102 300.3224488 +22.7745117      454.154     72.54483      1.224     2.25     4.170295     20.48799     79.64959         7     0.710     0.621  45.74   0
       246   1016.1963    429.9661 300.3497830 +22.8001223     937.6467     72.61886      1.442     3.22      4.49636     20.48799     98.93407        14     1.000     0.897  35.19   0
       247    666.1624    427.6663 300.2413960 +22.6946245     329.1435     72.60036      1.454     4.47      4.36517     20.48799     34.83807         6     0.972     0.586  66.15   0
       248    552.9432    426.7122 300.2064418 +22.6604248     366.0403     72.69281      1.245     2.37     4.845331     20.48799     61.39043         7     0.722     0.638 -10.21   0
       249    757.1789    426.0895 300.2702691 +22.7214387     1063.348     72.54483      1.308     2.50     4.260822     20.48799      146.723        12     0.912     0.768  31.37   0
       250    260.9136    424.0322 300.1164349 +22.5721149     648.1376     72.60036      1.487     2.99     4.549693     20.48799     79.93665        13     1.036     0.827  50.91   0
       251    100.8726    422.5466 300.0671631 +22.5236925       209.41     72.63735      1.123     4.56     4.371341     20.48799     40.24579         6     1.080     0.587 -29.13   0
       252    323.4219    419.8391 300.1372384 +22.5896537     3689.271     72.65584      1.359     2.45     4.590234     20.48799     513.0823        28     1.082     1.058 -76.24   0
       253    270.6157    414.6289 300.1225048 +22.5723259     7739.746     72.61886      1.414     2.48     4.568069     20.48799     1045.006        38     1.191     1.148  56.15   0
       254    649.0635    414.3400 300.2403955 +22.6856744     288.3746     72.65584      1.345     3.43     4.391017     20.48799     50.28303         7     1.042     0.598  40.79   0
       255    411.3773    408.9301 300.1681459 +22.6128904      4911.69     72.63735      1.333     2.38     4.599771     20.48799     656.5868        30     1.104     1.043  27.48   0
       256    655.6457    405.6577 300.2452646 +22.6851531     18559.55     72.65584      1.298     2.23      4.34865     20.48799     2833.283        50     1.169     1.119  81.34   0
       257    672.4792    406.5147 300.2502307 +22.6904425     822.0366     72.76669      2.072     2.84     4.284912     20.48799     66.89516         9     0.952     0.610 -13.99   2
       258    503.0814    406.7957 300.1973826 +22.6397637     253.9321     72.54483      1.296     5.04     4.762408     20.48799      33.1862         8     0.989     0.726  70.94   0
       259    161.0258    402.4053 300.0923976 +22.5359562      137.258     72.60036      1.397     4.86     4.497539     20.48799     30.19154         5     0.995     0.673 -88.88   0
       260     30.5592    402.5800 300.0517960 +22.4968746     291.8649     72.65584      1.253     3.71     4.343791     20.48799     44.08265         6     0.938     0.422 -71.84   0
       261    852.7075    396.3470 300.3097041 +22.7415067      401.585     72.67432      1.273     3.44     4.172607     20.48799     50.59381         8     0.910     0.632 -17.41   0
       262    275.3816    392.5403 300.1311570 +22.5674165     300.9119     72.58186      1.295     3.93     4.592882     20.48799     44.95155         6     0.988     0.746 -46.59   0
       263    989.5002    388.1932 300.3550154 +22.7801240     834.4259     72.52631      1.610     3.55     4.463673     20.48799     101.1995        18     1.221     1.064 -79.63   0
       264    526.1827    387.6308 300.2107960 +22.6411845     366.2737     72.60036      1.382     2.57     4.573009     20.48799     54.15764         6     0.829     0.492  43.77   0
       265    210.1787    385.7509 300.1130846 +22.5459178     2188.291     72.61886      1.536     2.65     4.512356     20.48799     237.3009        26     1.182     1.079  81.04   0
       266    698.6724    386.8950 300.2647607 +22.6926544     244.3601     72.72975      1.393     2.53     4.280848     20.48799     44.46631         6     0.724     0.610 -28.60   0
       267    596.2265    375.0567 300.2366893 +22.6585622     6632.096     72.61886      1.292     2.30     4.396648     20.48799      916.665        33     1.142     0.998  72.53   0
       268   1009.8947    375.5430 300.3654848 +22.7825936     982.3818     72.67432      1.322     2.55     4.529799     20.48799     146.9075        16     1.050     0.877  78.84   0
       269    311.1178    374.6258 300.1480870 +22.5729895     603.1217     72.60036      1.174     2.56     4.631703     20.48799     79.81157         9     0.774     0.764  -9.48   0
       270    856.4075    366.7949 300.3204505 +22.7341235     318.0218     72.47073      1.434     3.45     4.172092     20.48799     49.65402         6     1.010     0.546  62.11   0
       271    168.7416    367.1848 300.1062277 +22.5281654     408.7422     72.60036      1.388     3.26     4.508327     20.48799     65.88118         8     1.050     0.663  55.58   0
       272     16.0194    365.2722 300.0593875 +22.4818131     1296.109     72.61886      1.582     3.29     4.312574     20.48799     131.4662        24     1.215     1.164  48.36   0
       273    800.4714    364.0906 300.3038893 +22.7165951     1066.258     72.78514      1.305     3.02     4.183079     20.48799     126.1057        16     1.077     0.840  63.05   0
       274    710.0483    365.3041 300.2753135 +22.6898604     380.1346     72.65584      1.138     2.94     4.280848     20.48799     67.09975         7     0.707     0.699 -83.39   0
       275    502.9483    361.3527 300.2120915 +22.6266768      6161.81     72.65584      1.279     2.31     4.306041     20.48799     847.1164        32     1.136     1.017 -82.36   0
       276    992.0396    356.2225 300.3661852 +22.7716951     550.3275     72.65584      1.256     3.73     4.472219     20.48799     66.95409        10     0.965     0.800 -31.84   0
       277    894.8768    355.8781 300.3359898 +22.7425058     1356.053     72.72975      1.333     2.33     4.238071     20.48799     200.4844        17     1.065     0.825  51.37   0
       278    487.3746    350.1485 300.2108795 +22.6187928     446.1138     72.63735      1.319     3.18     4.264152     20.48799     62.53386         9     0.988     0.671  41.88   0
       279    570.6530    348.0284 300.2374972 +22.6431381       409.58     72.63735      1.326     2.37      4.26231     20.48799     64.22261         7     0.694     0.671  17.69   0
       280    848.2601    347.3465 300.3242225 +22.7260954     306.0636     72.67432      1.230     2.72     4.207243     20.48799     37.96733         5     0.722     0.450  15.81   0
       281     14.4709    346.7351 300.0649222 +22.4760318     1092.644     72.65584      1.552     2.96     4.376563     20.48799     134.2257        16     1.107     0.899  23.60   0
       282    550.7921    345.7815 300.2320417 +22.6365420     286.2583     72.58186      1.240     2.73     4.269297     20.48799      56.7005         5     0.835     0.430  45.34   0
       283    867.6025    343.7068 300.3314349 +22.7308414     537.9597     72.52631      1.082     2.36     4.237267     20.48799     81.66022         6     0.677     0.605 -10.66   0
       284    390.4062    340.5417 300.1838169 +22.5869736     2606.756     72.58186      1.361     2.50     4.457453     20.48799     337.9768        21     1.070     0.962  83.03   0
       285    108.9323    338.0015 300.0971079 +22.5018572     1000.275     72.58186      1.440     2.63       4.5185     20.48799     136.5154        14     0.979     0.872  25.04   0
       286    737.9402    335.3590 300.2937242 +22.6896125     359.0972     72.61886      1.331     3.71      4.25887     20.48799     41.02241         5     0.820     0.484 -50.83   0
       287    337.0710    334.2701 300.1692576 +22.5691868     269.1023     72.69281      1.560     4.18     4.675429     20.48799     31.07771         5     1.050     0.475 -64.90   0
       288    359.8043    329.9360 300.1777368 +22.5747569     29771.61     72.60036      1.375     2.43     4.622214     20.48799     4263.752        70     1.281     1.192  52.94   0
       289    894.5002    327.6371 300.3450380 +22.7342772     1369.268     72.61886      1.365     2.33     4.351254     20.48799     184.7593        17     1.017     0.923 -49.50   0
       290     56.0670    317.7374 300.0872552 +22.4801897     4914.208     72.67432      1.579     2.95     4.630111     20.48799     580.8066        37     1.334     1.209  39.86   0
       291    809.8085    316.2911 300.3223131 +22.7056573      564.437     72.54483      1.301     2.33     4.285382     20.48799     74.92889         8     0.781     0.631  49.07   0
       292    233.8039    316.1633 300.1430139 +22.5330330     439.2519     72.65584      1.455     4.91     4.786169     20.48799     58.39397        10     1.153     0.727  14.77   0
       293    458.0410    315.2376 300.2130776 +22.5999788     407.1111     72.71128      1.249     4.01     4.559865     20.48799     66.29024         8     0.950     0.669  58.42   0
       294    770.2607    309.7198 300.3121178 +22.6919259     1922.675     72.67432      1.330     2.44     4.253455     20.48799     271.9128        20     1.059     0.928  70.58   0
       295    578.5521    304.3422 300.2541340 +22.6329584     349.1213     72.67432      1.067     2.73     4.456748     20.48799     58.80733         5     0.724     0.456  69.35   0
       296    985.4071    302.6656 300.3814973 +22.7543148     595.5506     72.63735      1.372     3.19     4.430194     20.48799     79.58804        11     1.119     0.665 -21.40   0
       297    839.2635    296.4776 300.3379256 +22.7087836     237.3995     72.71128      1.107     3.39     4.458359     20.48799      34.5804         5     0.742     0.449  21.75   0
       298    432.0817    294.3448 300.2117771 +22.5862008     2216.653     72.65584      1.518     2.83     4.662202     20.48799     264.4034        27     1.402     1.024  47.26   0
       299    863.5026    288.1248 300.3481937 +22.7136406     245.9413     72.76668      1.287     2.97     4.609941     20.48799     40.70154         8     0.861     0.646  34.28   0
       300    871.1030    287.0732 300.3509049 +22.7156140     597.1887     72.74822      1.242     2.86      4.60046     20.48799     91.54195        10     0.950     0.705  79.51   0
       301      4.2414    285.5089 300.0816102 +22.4554015      874.575      69.9622      2.096     6.95     5.209645     20.48799     67.79781        17     1.848     0.733 -40.17  24
       302    753.4431    285.2011 300.3148321 +22.6798446     468.4799     72.61886      1.305     2.31     4.272578     20.48799     59.44582         7     0.779     0.590  13.35   0
       303    721.6796    284.0466 300.3053076 +22.6700004     279.5215     72.63735      1.330     3.64     4.243568     20.48799     44.27028         5     0.798     0.563  -5.72   0
       304    832.2656    277.8471 300.3417889 +22.7013343      332.051     72.63735      1.596     4.37     4.544819     20.48799     34.98129         6     0.991     0.549 -24.80   0
       305    507.9286    273.8251 300.2420447 +22.6030353     1177.446     72.61886      1.300     2.40      4.81625     20.48799     180.1617        14     0.956     0.819  32.77   0
       306    315.1351    274.4257 300.1818514 +22.5454335     407.9442     72.60036      1.395     2.30     4.856557     20.48799     48.91816         6     0.750     0.493  -3.31   0
       307   1019.1962    270.0607 300.4026193 +22.7550550     338.0724     72.60036      1.487     3.81     4.400482     20.48799     37.63835         6     0.747     0.577  52.12  16
       308    752.6673    265.6912 300.3209204 +22.6740064     2224.673     72.74822      1.277     2.17     4.455575     20.48799      370.512        22     1.024     0.977  60.47   0
       309   1014.0513    260.0679 300.4042562 +22.7506422     3164.795     72.60036      1.486     2.96      4.39522     20.48799     348.9254        27     1.196     1.096 -85.11   0
       310    461.0265    249.3622 300.2353801 +22.5819574      648.806     72.63735      1.384     2.74      4.78103     20.48799     100.9044        10     0.920     0.711  82.30   0
       311    135.8288    243.3768 300.1361677 +22.4827715     1425.453     72.61886      1.729     3.64     4.847999     20.48799     159.0221        25     1.316     1.165 -40.55   0
       312    166.6883    243.6599 300.1456687 +22.4921045     549.3959     72.69281      1.364     3.31     4.862077     20.48799     62.84983        10     1.103     0.597 -32.96   0
       313    873.3307    237.4338 300.3677046 +22.7020136      411.733     72.61886      1.396     3.43     4.781782     20.48799     36.98235         5     0.734     0.462  18.22   0
       314    219.7807    235.7534 300.1647404 +22.5057511     328.5761     72.65584      1.253     3.90     4.920769     20.48799     77.66364        10     1.126     0.676  30.01   0
       315   1014.9252    233.1088 300.4132750 +22.7431525     491.5937     72.76668      1.598     3.84     4.366717     20.48799     45.33184         6     0.931     0.454  55.30   0
       316      5.9474    230.6248 300.0999440 +22.4401682     295.8908     72.63735      1.397     2.77     5.712971     20.48799     42.81621         5     0.750     0.588  81.16   0
       317    895.6832    229.3926 300.3772838 +22.7063936     498.5764     72.54483      1.693     3.57     4.724269     20.48799     45.91453        10     1.042     0.740  30.96   0
       318    824.3427    227.3018 300.3557169 +22.6844355     588.8487     72.71128      1.404     3.14     4.950414     20.48799     66.34898        11     0.985     0.767  72.74   0
       319    414.7013    226.5887 300.2283491 +22.5615373     265.7084     72.50779      1.096     2.41     4.774636     20.48799     60.67036         5     0.713     0.434  24.28   0
       320     99.2246    219.6134 300.1324987 +22.4649777     323.1496     72.61886      1.432     3.45     4.948932     20.48799     28.82627         5     0.753     0.457 -16.32   0
       321    922.5656    216.0979 300.3899806 +22.7106186     2147.213     72.60036      1.397     2.69     4.665143     20.48799     231.0984        22     1.136     0.962  57.10   0
       322    341.0324    213.3209 300.2097296 +22.5356524     2278.228     72.60036      1.369     2.41     4.875329     20.48799     279.0857        22     1.039     1.016  38.81   0
       323    418.9515    208.6854 300.2354789 +22.5576697     1031.782     72.60036      1.392     2.47     4.813608     20.48799      149.863        15     0.996     0.843 -38.68   0
       324    170.9193    208.7368 300.1583115 +22.4833500     307.1141     72.72975      1.443     4.60     4.885543     20.48799     37.66051         6     0.920     0.653 -61.88   0
       325    821.0191    207.6084 300.3610689 +22.6777802     532.6403     72.58186      1.411     3.85     4.975377     20.48799     85.09521        13     1.306     0.799 -30.94   0
       326    928.2759    204.7323 300.3954483 +22.7090604     360.9691     72.71128      1.300     3.94     4.690363     20.48799     50.49653         9     0.938     0.778 -39.64   0
       327    235.8856    200.5915 300.1811531 +22.5004855     815.3508     72.56335      1.469     3.10     4.920291     20.48799      101.431        14     1.116     0.825  89.66   0
       328     17.9576    202.3619 300.1128417 +22.4356608     416.6026     72.71128      1.708     2.73     5.667779     20.48799     33.68927         5     0.852     0.481  -0.51   0
       329    838.8272    197.2066 300.3699949 +22.6801217      500.661     72.61886      1.210     2.58     4.927199     20.48799     87.95923        10     0.857     0.727 -84.59   0
       330    773.5848    197.5655 300.3495396 +22.6606924     1747.368     72.61886      1.287     2.23     4.928532     20.48799     246.4391        20     1.065     0.924  36.96   0
       331    500.0036    193.6570 300.2655827 +22.5776362     240.8335     72.58186      1.254     3.76     4.813848     20.48799     35.61615         6     0.830     0.645 -33.74   0
       332    257.1497    193.9318 300.1899258 +22.5049470     625.3608     72.60036      1.459     2.93     4.920291     20.48799     68.13401         9     0.879     0.703 -73.35   0
       333    547.1974    189.5461 300.2816103 +22.5905923     315.7764     72.58186      1.319     4.07      4.81973     20.48799     51.82458         9     1.171     0.785  -5.28   0
       334    777.7711    188.5181 300.3537789 +22.6593455     690.2631     72.63735      1.399     4.43     4.943403     20.48799     98.87177        14     1.272     0.761  89.45   0
       335    697.9864    188.2558 300.3289990 +22.6353812     1267.886     72.60036      1.289     2.42     4.771424     20.48799     174.5694        19     1.066     0.902  63.95   0
       336    519.0234    184.6569 300.2744233 +22.5807486     442.6282     72.61886      1.549     2.69     4.824927     20.48799     59.94262         7     0.824     0.654 -68.03   0
       337    905.7106    178.9579 300.3967702 +22.6948964     781.3067     72.61886      1.426     3.00     4.813083     20.48799     96.63264        12     1.006     0.786  75.35   0
       338    893.6539    179.7047 300.3927679 +22.6915023     1577.798     72.69281      1.509     2.77     4.824366     20.48799     199.7446        19     1.034     1.002  42.01   0
       339    624.3950    179.7977 300.3088148 +22.6109130     1041.151     72.43365      1.278     2.59     4.801673     20.48799     155.6307        14     1.055     0.801  30.52   0
       340   1022.4318    169.1362 300.4363677 +22.7270035     1106.275     63.09768      1.408     2.95      4.64281     20.48799     137.4902        17     1.000     0.995  29.11  24
       341    256.3115    161.8625 300.2000651 +22.4954891     690.4189     72.69281      1.490     3.79     4.920291     20.48799     82.55774        14     1.215     0.890  48.26   0
       342    118.3340    156.7823 300.1588141 +22.4526749     2060.079     72.60036      1.546     2.81     4.928851     20.48799     253.5706        24     1.230     1.076  76.57   0
       343    941.3968    153.9901 300.4159982 +22.6983983      717.517     72.43365      1.312     2.70     4.849717     20.48799     95.27031        12     0.909     0.840  43.68   0
       344     67.8794    153.9944 300.1440378 +22.4367495     456.2177     72.54483      1.506     3.54     5.219676     20.48799      51.9416         7     0.875     0.633 -32.86   0
       345    275.7190    150.1918 300.2098855 +22.4979544     5668.451     72.56335      1.382     2.48     4.937197     20.48799     689.6167        31     1.196     1.063  53.09   0
       346    257.4797    151.1703 300.2038955 +22.4927694     378.0285     72.61886      1.216     2.48      4.93566     20.48799     50.46439         5     0.716     0.445  66.04   0
       347     60.0107    144.5332 300.1446604 +22.4316753     1418.031     72.61886      1.677     2.97     5.300012     20.48799      140.067        20     1.131     1.054 -43.56   0
       348    259.3161    141.1185 300.2077260 +22.4904339     682.0872     72.74822      1.506     3.25     4.951029     20.48799      79.7736        13     1.104     0.777 -83.42   0
       349    919.8701    131.9030 300.4164461 +22.6856052     3615.149     72.74822      1.410     2.70     4.897731     20.48799     446.9503        28     1.164     1.062 -66.35   0
       350   1023.1591    130.6500 300.4490755 +22.7161530     2324.026     59.43635      1.311     2.78     4.817861     20.48799     328.5138        19     1.295     0.740  85.22  24
       351    469.2525    127.1699 300.2775702 +22.5493268     633.8654     72.63735      1.217     2.41     4.836481     20.48799     87.35707         9     0.860     0.633 -67.25   0
       352    222.4484    127.7676 300.2005896 +22.4755522     408.2629     72.65584      1.696     4.84     4.967245     20.48799     40.12677         6     0.916     0.725 -62.72   0
       353    583.4447    124.9681 300.3138400 +22.5828956      380.345     72.67432      1.550     4.29     4.891132     20.48799     43.61614         7     0.782     0.670 -79.64   0
       354    393.2419    118.9682 300.2565719 +22.5242012      635.064     72.67432      1.428     2.86     4.927903     20.48799      88.3428        10     0.977     0.752  29.43   0
       355    397.7345    117.5843 300.2584186 +22.5251496     390.4579     72.60036      1.283     3.15     4.927903     20.48799     46.51336         6     0.701     0.639 -37.68   0
       356    159.5509    115.8641 300.1848931 +22.4532843     725.3378     72.65584      1.692     3.14      4.89098     20.48799     83.68525        14     1.034     0.910  13.40   0
       357     57.0249    115.4178 300.1531724 +22.4224243     346.4273     72.61886      1.499     4.06      5.34791     20.48799     37.12611         7     0.943     0.603 -55.29   0
       358    520.6038    114.2066 300.2977603 +22.5609837     1673.792     72.45219      1.301     2.31     4.889558     20.48799     209.9769        20     1.096     0.915 -62.37   0
       359    448.5746    114.7933 300.2751465 +22.5395777       473.13     72.61886      1.326     2.30     4.865262     20.48799     75.30224         8     0.830     0.602  70.61   0
       360    582.5380    113.5132 300.3172717 +22.5793328     325.4979     72.71128      1.402     3.67     4.913546     20.48799     43.68929         6     0.926     0.419  19.25   0
       361    263.8557    109.5670 300.2193676 +22.4827350     277.5436     72.63735      1.353     4.16     4.998673     20.48799      39.0247         7     1.051     0.471  -9.48   0
       362    808.9647    103.6572 300.3910215 +22.6442907       438.06     72.63735      1.415     3.91     5.004609     20.48799     69.08766        11     1.196     0.744  80.84   0
       363    165.3410     98.9674 300.1921709 +22.4501691     176.4002     72.63735      1.372     5.29     4.898504     20.48799     37.16785         6     1.029     0.767  80.39   0
       364    954.3248     98.0683 300.4381640 +22.6861865      223.112     72.69281      1.354     3.73     4.963572     20.48799     35.99529         6     0.821     0.648  62.25   0
       365    706.0848     95.8174 300.3614974 +22.6112401     257.3298     72.58186      1.252     5.28     5.045795     20.48799     31.40772         8     1.076     0.732 -50.66   0
       366    294.6639     94.0422 300.2339831 +22.4875085     6182.932     72.61886      1.473     2.65     5.010679     20.48799     760.3803        36     1.273     1.107  48.68   0
       367    801.4254     94.7729 300.3915515 +22.6394800     443.3842     72.58186      1.696     4.51     5.022745     20.48799     46.48123         8     0.959     0.769 -18.05   0
       368    146.0070     93.4614 300.1879455 +22.4427940      891.213     72.60036      1.741     3.13     4.901978     20.48799     78.00999        14     1.132     0.772 -24.92   0
       369    266.7227     88.0426 300.2272372 +22.4774136     330.2797     72.58186      1.307     3.99     5.019098     20.48799     43.41526         9     1.046     0.632  89.47   0
       370    310.2717     85.3883 300.2416435 +22.4896997     279.8812     72.63735      1.205     3.08     4.994858     20.48799     41.54803         5     0.725     0.455  18.00   0
       371     56.2214     84.4846 300.1629505 +22.4133054     429.6879     72.56335      1.544     3.77     5.395597     20.48799     48.59048         6     0.818     0.500  -0.24   0
       372    540.8300     79.4786 300.3153171 +22.5570634     6222.224     72.61886      1.347     2.21      4.98657     20.48799     972.8375        34     1.180     1.055  68.27   0
       373    426.2430     79.4495 300.2796541 +22.5227359     616.8307     72.65584      1.267     2.76     4.939556     20.48799      69.1265        12     0.968     0.769  40.38   0
       374    597.6763     74.2688 300.3347096 +22.5725890     255.4568     72.71128      1.219     2.72     4.943091     20.48799     38.13551         5     0.717     0.454 -78.35   0
       375    561.3189     73.4102 300.3236646 +22.5614553     186.8249     72.56335      1.053     3.49     4.989202     20.48799     41.80547         5     0.733     0.480  11.02   0
       376    793.4023     69.3539 300.3972911 +22.6297709     756.3978     72.61886      1.510     3.06     4.947981     20.48799     87.59044        15     1.135     0.789 -52.94   0
       377    886.2111     68.0230 300.4266598 +22.6571641       452.76     72.61886      1.355     3.34      4.89435     20.48799     62.02107        11     1.026     0.698 -15.82   0
       378    233.7298     63.2240 300.2250216 +22.4604010      489.166     72.63735      1.599     3.26     5.020335     20.48799     57.74972         9     0.984     0.698  45.15   0
       379    592.0070     62.1503 300.3368722 +22.5674090     337.3832     72.61886      1.154     3.01      4.95489     20.48799     65.08575         9     0.962     0.592 -23.07   0
       380    669.1567     59.5528 300.3617473 +22.5897613     6467.099     72.65584      1.380     2.42      5.05694     20.48799     949.4828        39     1.238     1.102  67.95   0
       381    443.9964     58.5331 300.2919600 +22.5220449     1463.853     72.60036      1.361     2.63     4.907496     20.48799     184.7296        17     0.983     0.948  39.28   0
       382    710.3920     56.9688 300.3754335 +22.6013630      921.097     72.61886      1.297     2.78     5.008465     20.48799     107.7922        12     0.935     0.772 -40.58   0
       383    779.9937     54.7122 300.3978576 +22.6215482     348.4873     72.52631      1.529     3.17     4.920584     20.48799       44.049         6     0.835     0.612 -40.22   0
       384    726.2145     52.8826 300.3816888 +22.6049248     684.8257     72.60036      1.593     2.87     4.978699     20.48799     69.37189         9     0.830     0.738  81.76   0
       385    996.3651     50.7393 300.4666231 +22.6851529     602.4643     72.63735      1.607     3.17     5.057375     20.48799     73.78423         9     0.930     0.698 -45.16   0
       386    192.8663     50.8430 300.2163282 +22.4446013     706.7279     72.60036      1.576     3.25     5.002935     20.48799     103.9777        11     1.040     0.843 -11.10   0
       387    764.7839     48.8155 300.3950280 +22.6153005     502.6902     72.58186      1.165     1.89     4.922338     20.48799     84.16298         6     0.677     0.537  28.47   0
       388    713.4651     44.4585 300.3804463 +22.5986868     2788.205     72.65584      1.350     2.39     4.991251     20.48799     383.7206        28     1.159     1.051  68.00   0
       389    728.6227     43.4891 300.3854842 +22.6029454     909.0063     72.54483      1.743     3.93     4.960227     20.48799     110.4787        16     1.460     0.715  51.99   0
       390    354.4551     45.4259 300.2683431 +22.4914589     374.1035     72.61886      1.253     2.84     5.002216     20.48799     53.70161         7     0.800     0.652  14.17   0
       391      6.7851     38.4791 300.1625021 +22.3852820     786.9254     72.63735      1.610     4.07     5.816283     20.48799     87.99028        15     1.103     1.061  47.45  16
       392    799.7418     36.3465 300.4099667 +22.6221785     1445.852     72.67432      1.362     2.57     4.842385     20.48799     166.1216        17     1.011     0.903 -67.79   0
       393    877.6871     30.9073 300.4360326 +22.6439403     309.8119     72.78514      1.372     3.46     4.885452     20.48799      46.4847         5     0.949     0.446 -24.75   0
       394    737.9318     29.4211 300.3929452 +22.6016876     791.8954     72.61886      1.557     2.55     4.921869     20.48799     90.75541        11     0.933     0.696  19.35   0
       395    543.3325     28.6217 300.3325812 +22.5431993     1012.888     72.60036      1.208     2.32     5.061242     20.48799     147.3969        14     0.961     0.835  57.01   0
       396    116.7425     28.3554 300.1999518 +22.4153327     491.9659     72.65584      1.374     2.58     5.188151     20.48799     77.97192        10     0.955     0.676 -19.22   0
       397    447.2056     26.4043 300.3033725 +22.5137757     757.3315     72.47073      1.302     2.32     4.927525     20.48799      135.874        14     1.013     0.851  79.78   0
       398    829.5406     25.6508 300.4227236 +22.6280211     460.5923     72.67432      1.319     2.31     4.819884     20.48799     62.64502         6     0.787     0.477   0.41   0
       399    198.0742   1021.3297 299.9027560 +22.7245130      483.404     67.97567      1.716     5.02     86.26942     20.48799     36.10969         5     2.130     0.335 -21.13  18
       400    224.2674   1013.8879 299.9133209 +22.7302455     1549.254     72.72975      6.037    11.91     80.91963     20.48799     62.39745        38     3.251     1.215  81.36  19
       401     11.1931     16.4946 300.1709962 +22.3802933     307.7094     72.50779      1.108     2.41     5.748769     20.48799     42.42307         5     0.711     0.458  21.70   0
       402    641.2929     13.6984 300.3679288 +22.5682398     244.8314     72.80359      1.169     2.27      4.99756     20.48799     65.32797         6     0.794     0.512  44.96   0
       403    544.7695     14.2800 300.3376768 +22.5395083     277.4888     72.61886      1.212     3.64     5.092206     20.48799     43.94495         5     0.881     0.433 -46.18   0
       404    219.6217   1008.5206 299.9136232 +22.7273129     3054.037     72.58186      6.950    25.94     77.09835     20.48799     67.74248       171     4.535     4.528  87.12  27
       405    232.6750   1017.5327 299.9147487 +22.7338141     355.2302     72.69281      1.611     4.85       80.172     20.48799     31.70409         5     1.031     0.647  64.94  16
       406    533.3394   1014.0748 300.0094166 +22.8230678     359.5083     72.67432      1.592     4.30     2.774788     20.48799     31.12032         7     0.874     0.602 -59.54   0
       407    402.8980   1011.2897 299.9697249 +22.7831242     666.4265     72.80359      2.328     8.34     3.767684     20.48799      50.8645        16     1.737     1.118  43.41   0
       408    594.2966   1004.5269 300.0315040 +22.8386196     2350.954     72.74822      1.886     4.55     3.061047     20.48799     175.3085        33     1.474     1.310 -42.64   0
       409     17.0090   1003.4504 299.8523098 +22.6650155     1293.722     72.61886      9.996     9.93    -6.407975     20.48799       41.506        13     1.855     1.483  14.13  11
