#   1 NUMBER                 Running object number                                     
#   2 X_IMAGE                Object position along x                                    [pixel]
#   3 Y_IMAGE                Object position along y                                    [pixel]
#   4 ALPHA_J2000            Right ascension of barycenter (J2000)                      [deg]
#   5 DELTA_J2000            Declination of barycenter (J2000)                          [deg]
#   6 FLUX_APER              Flux vector within fixed circular aperture(s)              [count]
#   7 FLUXERR_APER           RMS error vector for aperture flux(es)                     [count]
#   8 FLUX_RADIUS            Fraction-of-light radii                                    [pixel]
#   9 FWHM_IMAGE             FWHM assuming a gaussian core                              [pixel]
#  10 BACKGROUND             Background at centroid position                            [count]
#  11 THRESHOLD              Detection threshold above background                       [count]
#  12 FLUX_MAX               Peak flux above background                                 [count]
#  13 ISOAREA_IMAGE          Isophotal area above Analysis threshold                    [pixel**2]
#  14 A_IMAGE                Profile RMS along major axis                               [pixel]
#  15 B_IMAGE                Profile RMS along minor axis                               [pixel]
#  16 THETA_IMAGE            Position angle (CCW/x)                                     [deg]
#  17 FLAGS                  Extraction flags                                          
         1    507.4447     15.8223 300.3326133 +22.5432216     981.5168     72.39661      1.367     2.64     5.977311     20.40969     132.1685        15     1.012     0.852  70.58   0
         2    411.0068     13.5738 300.3033218 +22.5137127     908.2147     72.34135      1.549     3.70     6.150404     20.40969     102.6593        16     1.219     0.948 -81.49   0
         3    793.1441     12.7185 300.4226262 +22.6278017      426.194     72.37819      1.513     4.59     5.939855     20.40969     48.86048        10     1.078     0.782  87.22   0
         4    750.5514      4.7994 300.4119147 +22.6127842      675.111      71.2459      1.544     4.28      5.99363     20.40969     82.49302        13     1.151     0.850  54.29  16
         5    182.5199      3.7687 300.2354228 +22.4424906     3579.066     68.01053      1.627     3.26     6.183674     20.40969     422.1137        32     1.257     1.239  71.60  24
         6    605.2060      1.5750 300.3676721 +22.5683771     309.0575     57.56546      1.136     2.24     5.772705     20.40969     55.98547         6     0.700     0.593  57.50  24
         7    143.3557   1006.6182 299.8977966 +22.7185671     1286.448     72.35977      2.635     7.94     89.12552     20.40969     46.96309        14     1.710     1.031  23.28   3
         8     98.0961   1012.0620 299.8819612 +22.7065445     4593.379     72.43342     14.753   101.26     88.83627     20.40969     152.6227      1985    17.479    16.277  76.26  27
         9     87.6000    944.4604 299.9006812 +22.6840170     5810.316     72.28605     29.534   116.50     22.82351     20.40969     1344.708      4846    22.034    17.091 -65.75  19
        10      5.3807    992.9312 299.8593787 +22.6732333      2830.93      72.2676      8.005    19.94    -23.10484     20.40969     61.28504       112     4.363     2.531  32.04  27
        11    242.7384   1000.3478 299.9307301 +22.7465908     2598.117     72.39661      5.460    20.33     57.74217     20.40969     85.09023       108     4.678     2.454   3.06  19
        12    249.2938    974.0711 299.9413131 +22.7410231     8632.308     72.45182     11.362    37.71     35.94237     20.40969     164.4694       983    13.206     5.040  64.71  19
        13    231.5935    984.2968 299.9324845 +22.7386447     5635.773     72.23071     10.403    43.37     56.63833     20.40969     104.8212       547     9.481     5.505 -52.89  19
        14    937.5905    971.0355 300.1566454 +22.9465071     707.9609     72.34135      2.050     7.43     4.226736     20.40969     42.27169        19     1.602     1.383 -59.39   0
        15    211.2623    986.1839 299.9255498 +22.7330856     4180.163     72.30448      8.356    34.67       66.457     20.40969     92.58489       295     7.082     4.712 -86.35  19
        16    366.9957    998.6207 299.9699378 +22.7833723     384.9526     72.30448      1.499     5.15     4.590946     20.40969     38.06029         9     0.970     0.785  51.28   0
        17    497.8219   1000.7770 300.0099485 +22.8232282     414.8585     72.34135      1.772     4.82     4.387958     20.40969     27.56876         5     1.290     0.510  63.46   0
        18    154.7789    957.0333 299.9174705 +22.7077801     1691.279     72.34135      6.063     9.52     47.15029     20.40969     53.19389        17     1.810     1.396  53.39   2
        19      7.5720    954.0431 299.8727037 +22.6627460     823.9972     72.35977      3.527     4.37    -5.899505     20.40969     39.78175         5     1.593     0.342 -43.60  16
        20    662.8256    954.0736 300.0765176 +22.8592977     6947.852     72.35977      1.948     4.29     4.175631     20.40969     374.8141        48     1.564     1.431  25.36   0
        21    159.3643   1008.0070 299.9023205 +22.7237692     576.0876     72.35977      1.866     7.07     91.73723     20.40969     34.03159        10     1.569     0.892 -68.73   2
        22    542.5077    948.6206 300.0408203 +22.8216630     509.7908      72.2676      1.700     5.21     4.393356     20.40969     35.39387         8     1.309     0.586 -34.54   0
        23    815.1680    948.3433 300.1258530 +22.9033103     485.2644     72.35977      2.045     4.28     3.997485     20.40969     29.74929         5     1.133     0.461   6.21   0
        24    181.4778    997.7057 299.9125440 +22.7274519     2746.491     72.45182      5.050    23.01     80.98031     20.40969      62.1874       116     5.580     2.634  26.22  18
        25    571.3115    944.7639 300.0510428 +22.8291920      1540.18     72.32291      1.858     4.30     4.342175     20.40969      105.706        27     1.363     1.247  46.85   0
        26    465.1016    941.2119 300.0191333 +22.7963276     921.5191     72.23071      1.732     5.10     4.432091     20.40969     77.13146        23     1.401     1.173 -66.06   0
        27    395.7294    939.1951 299.9982009 +22.7749453     6559.418     72.30448      1.879     4.07     4.653431     20.40969     471.2061        45     1.493     1.428  30.35   0
        28      4.5221   1014.0701 299.8522379 +22.6790334     3410.076     70.58804     16.450    68.74    -31.62828     20.40969     79.34174       731    17.041     7.694 -82.99  26
        29    182.8895    991.8511 299.9148867 +22.7261971     1916.579     72.35977      6.485    13.89     75.44519     20.40969     57.93744        44     3.060     1.753 -49.41   3
        30    428.1220    926.1368 300.0125260 +22.7809135     487.2872     72.43342      1.836     6.63     4.558471     20.40969      45.6092        12     1.336     0.924  26.22   0
        31    557.9090    991.6369 300.0316275 +22.8386237     2389.698     72.32291      1.940     4.59     4.364085     20.40969     147.4762        33     1.460     1.359  22.99   0
        32    942.1171    918.0961 300.1752716 +22.9326592     2149.077     72.50699      1.969     5.18     4.318077     20.40969      111.753        32     1.504     1.327  24.45   0
        33    644.5865    986.8239 300.0601861 +22.8632295     8900.959     72.34135      2.034     4.75     4.125812     20.40969     467.2849        49     1.604     1.464  20.83   3
        34    730.9196    906.3060 300.1132639 +22.8659947     733.5715     72.47021      1.894     7.00     4.218683     20.40969     51.01252        16     1.527     0.898  56.76   0
        35    765.5730    901.0765 300.1257631 +22.8748779      1082.16     72.35977      1.929     5.50     4.309287     20.40969     71.49221        23     1.375     1.232 -29.98   0
        36    543.3344    901.5516 300.0563808 +22.8084039     353.6342     72.35977      1.608     5.61     4.412713     20.40969     40.25604         8     1.141     0.777 -73.77   0
        37    787.9528    894.8220 300.1347715 +22.8797881     11367.78     72.35977      1.856     4.15     4.406446     20.40969     716.3505        54     1.478     1.455 -45.67   0
        38    650.0480    984.7358 300.0625664 +22.8642675     9387.328     72.35977      2.029     4.97     4.111771     20.40969     552.2202        52     1.609     1.504  11.88   3
        39    979.2116    894.3717 300.1945554 +22.9369560     469.5903     72.34135      1.874     5.57     4.483123     20.40969     35.15377         7     1.313     0.667  65.15   0
        40    833.4689    894.7755 300.1489748 +22.8934125      556.538     72.34135      1.864     6.34     4.332066     20.40969     41.17942        12     1.168     0.967  32.65   0
        41    744.6490    987.7329 300.0910651 +22.8934845      739.356     72.34135      2.212     6.66     3.464884     20.40969     47.51593        11     1.322     0.941 -39.13   0
        42    100.2829    886.9583 299.9233148 +22.6713376     1335.102     72.30448      8.049     8.65     8.422409     20.40969     64.59507        21     1.856     1.454  41.14   3
        43    493.2478    883.2704 300.0467308 +22.7881417     419.7997     72.32291      1.733     5.99     4.424873     20.40969     30.64109         8     1.186     0.850  57.47   0
        44    179.1581    978.1619 299.9181782 +22.7211528      1741.07     72.43342      6.225    16.43     63.64676     20.40969     48.52578        54     3.508     2.139  69.20   3
        45    839.6744    882.5899 300.1548707 +22.8917723     415.2843     72.34135      1.548     5.42     4.358298     20.40969     35.48949         8     1.062     0.780 -22.47   0
        46     54.0348    883.1956 299.9101680 +22.6563817      4354.34     72.34135      0.512     0.87      6.18643     20.40969     2771.054         8     0.447     0.409  89.19   0
        47    796.5969    876.9235 300.1432843 +22.8772387     1624.112     72.24915      1.914     4.93     4.565485     20.40969     102.5509        28     1.476     1.253  62.24   0
        48     89.7226    877.6719 299.9230517 +22.6655066        656.9     72.45182      2.946     5.42     7.159249     20.40969     43.08018        10     1.306     0.634  47.10   0
        49    979.8842    876.6870 300.2005144 +22.9320773     402.4157     72.47021      1.739     6.18     4.501087     20.40969     28.40104        10     1.411     0.761  25.87   0
        50    648.4811    874.3032 300.0979837 +22.8321010     428.6913     72.48861      1.778     5.92     4.577242     20.40969      38.3593         9     1.243     0.929 -57.34   0
        51    834.8077    870.5372 300.1572715 +22.8868530     886.0072     72.30448      2.171     6.79     4.433954     20.40969     53.59143        19     1.440     1.336  14.38   0
        52    174.5445    869.7197 299.9519980 +22.6886746     495.5154     72.37819      1.847     3.43     9.251544     20.40969     32.71187         5     0.761     0.446  68.90   0
        53    882.9210    861.6337 300.1751667 +22.8987096      481.474     72.28605      1.695     6.70     4.387379     20.40969     39.76392        13     1.229     1.025  85.96   0
        54    734.7306    860.5084 300.1293392 +22.8539879     709.1304     72.47021      1.601     4.29     4.587647     20.40969     55.75072        14     1.221     0.808  29.26   0
        55    447.0031    856.9001 300.0409086 +22.7667098     4287.404     72.21225      1.725     3.76     4.672903     20.40969     368.6398        36     1.375     1.281  61.82   0
        56    745.5056    857.8438 300.1335630 +22.8564515     556.2585     72.35977      1.540     3.79     4.613334     20.40969     49.06052        13     1.008     0.893   5.45   0
        57    225.9833    845.6038 299.9758272 +22.6971885     293.4829      72.2676      1.538     3.97     5.909094     20.40969      37.9154         5     1.056     0.427  66.99   0
        58    172.6561    842.5587 299.9602384 +22.6803190     934.5439     72.32291      2.012     4.28     7.226042     20.40969     77.25765        14     1.147     1.045  57.36   0
        59     80.9216    840.8873 299.9322720 +22.6523191     592.3606      72.4886      2.219     7.48     5.645689     20.40969     47.49319        14     1.384     1.132 -85.05   0
        60    149.3590    839.4391 299.9540108 +22.6724357     1607.848     72.41502      1.933     4.64     7.021506     20.40969     122.9644        24     1.355     1.253  15.45   0
        61   1021.1475    829.0071 300.2288860 +22.9307367     2115.308     68.28438      1.938     4.53     4.397068     20.40969     131.2298        32     1.419     1.387 -80.43  24
        62    975.5110    827.4224 300.2151636 +22.9166147     2262.071      72.2676      1.928     4.44     4.586142     20.40969     127.1399        32     1.450     1.334  23.55   0
        63    680.7548    827.5129 300.1232457 +22.8283401     523.9578     72.32291      1.999     7.62     4.688169     20.40969     31.36713        11     1.680     0.967 -79.50   0
        64    758.8190    821.2707 300.1495989 +22.8499386     709.2356     72.37819      1.616     4.84     4.826944     20.40969     67.13763        15     1.293     0.981   3.17   0
        65    181.7276    820.9808 299.9700704 +22.6768518     452.2907     72.34135      1.705     5.65      6.03525     20.40969      37.7843        10     1.328     0.677  60.53   0
        66    627.0294    815.0271 300.1105676 +22.8086553     4876.509     72.34135      1.626     3.43     4.678914     20.40969     388.5533        38     1.316     1.281  15.21   0
        67    116.9343    815.7513 299.9516310 +22.6559156     497.3019     72.34135      1.859     4.63     5.521083     20.40969     49.17113         8     1.088     0.901 -65.38   0
        68    429.2303    812.2511 300.0498880 +22.7485689      610.412     72.37819      1.625     5.02     5.075683     20.40969     57.56571        13     1.201     0.981   6.50   0
        69    177.1129    808.7362 299.9726148 +22.6719557     1368.243     72.45182      1.889     3.75      5.53923     20.40969     137.3311        26     1.394     1.219  68.95   0
        70    647.6493    807.4984 300.1194371 +22.8126731     898.4475     72.39661      1.828     3.39     4.694865     20.40969     87.78119        15     1.116     0.890  52.13   0
        71    196.8440    805.4899 299.9798034 +22.6769429     353.7112     72.34135      1.727     4.98     5.303223     20.40969      43.6577         9     1.333     0.527  54.15   0
        72   1020.1000    795.3463 300.2394988 +22.9207511     1249.127     71.52599      1.962     5.72     4.346169     20.40969     79.42465        25     1.575     1.184  35.20  16
        73    803.1125    794.9119 300.1719703 +22.8556385     4240.344     72.50699      1.618     3.43     5.181829     20.40969     315.7621        32     1.316     1.207  47.99   0
        74    212.0453    789.1974 299.9898232 +22.6768290     387.9865     72.34135      1.413     3.71     5.119036     20.40969      52.4264         8     1.010     0.687 -54.95   0
        75    519.6848    787.1213 300.0862089 +22.7684722     526.0982     72.45182      1.566     5.14     4.579835     20.40969      56.4849         9     1.197     0.624  37.47   0
        76    166.5823    785.1246 299.9770133 +22.6620249     1068.529     72.34135      1.755     4.33     5.103055     20.40969     107.7476        21     1.327     1.233  24.01   0
        77    316.0491    777.1985 300.0260644 +22.7045759     53843.49     72.32291      1.709     3.54     5.230249     20.40969       4964.3       101     1.524     1.451  27.38   0
        78    582.2013    780.5021 300.1078253 +22.7853091     559.3849     72.24915      1.884     3.38     4.626524     20.40969     57.13738         8     0.970     0.620  15.32   2
        79    986.8386    775.7971 300.2354744 +22.9051741     882.2047     72.37819      1.843     6.61     4.639598     20.40969     67.37291        20     1.436     1.157 -55.06   0
        80    573.9439    776.2734 300.1066280 +22.7816204     1592.372     72.35977      1.535     3.21     4.612467     20.40969     141.9323        21     1.146     1.059 -15.47   0
        81    290.2157    774.5242 300.0188984 +22.6960623     442.6555     72.34135      2.049     6.56     5.199803     20.40969     33.62278         8     1.802     0.670  64.22   0
        82    244.3226    775.6912 300.0042473 +22.6826348     600.3881     72.48861      1.919     5.06     5.105756     20.40969     43.80584         9     1.274     0.570 -14.41   0
        83    602.7727    772.3690 300.1168744 +22.7891391     919.6798     72.34135      1.675     4.11     4.699853     20.40969     72.07924        15     1.063     0.965  33.73   0
        84      2.5318    771.1784 299.9305689 +22.6088124     721.5884      62.6654      2.008     7.05     5.008931     20.40969     72.69967        13     1.817     0.913  72.32  24
        85    613.5092    770.7014 300.1207601 +22.7918777     595.1438     72.52538      1.703     4.92      4.71896     20.40969     58.58945        13     1.057     0.895 -27.11   0
        86    933.5197    769.3025 300.2209531 +22.8873414     289.7459     72.47021      1.966     3.90     4.953147     20.40969     34.37418         6     1.715     0.255 -13.03   0
        87    719.4182    767.0886 300.1549274 +22.8225743     458.4164      72.2676      1.424     4.70     4.811147     20.40969     49.58649        11     1.042     0.847  24.64   0
        88    756.9015    757.4835 300.1697290 +22.8310453     889.1121     72.50699      1.880     4.51     4.948397     20.40969     72.27353        17     1.324     0.963  32.60   0
        89    365.7795    754.4814 300.0489152 +22.7129681     31822.38     72.30448      1.661     3.45      5.29519     20.40969     2921.796        67     1.403     1.356  31.01   0
        90    380.0668    755.0735 300.0531680 +22.7174214     1940.511      72.3966      1.604     3.51     5.280536     20.40969     197.2021        26     1.238     1.165  23.80   0
        91    888.9575    750.6462 300.2131177 +22.8686360     2789.802     72.37819      1.696     3.80     5.191709     20.40969     213.4036        31     1.292     1.266  38.77   0
        92    377.0527    749.0996 300.0541710 +22.7148034     711.2445     72.43342      2.172     3.87     5.288506     20.40969     53.75816        11     1.108     0.807 -32.31   0
        93    646.8912    746.5800 300.1389949 +22.7949548     902.3169      72.2676      1.469     4.00        4.761     20.40969     86.36204        14     1.136     0.881  46.21   0
        94    483.2381    746.7678 300.0879740 +22.7459648     521.6342     72.37819      1.728     4.71     4.700132     20.40969     44.84063         6     0.922     0.682 -66.36   0
        95    248.0858    746.0204 300.0150569 +22.6752512     892.4703      72.2676      1.828     5.00     5.050191     20.40969     78.40359        17     1.449     0.984   8.89   0
        96     53.6242    741.4127 299.9561105 +22.6156051     504.2207     72.34135      1.335     3.91     4.985841     20.40969     63.56559         7     1.470     0.297  74.61   0
        97    493.8931    741.1773 300.0931070 +22.7475536     805.6939      72.2676      1.494     4.59     4.690494     20.40969     103.4751        13     1.081     0.897  61.71   0
        98    895.5666    738.2870 300.2191941 +22.8670645     484.5478     72.30448      1.580     5.77     5.154751     20.40969     51.94303        11     1.139     0.972  11.49   0
        99    351.8047    737.2645 300.0501608 +22.7038377     393.6019     72.32291      1.861     5.22     5.329663     20.40969     49.37468         6     1.119     0.688 -58.61   0
       100    396.2102    737.0071 300.0640602 +22.7170762      332.591     72.21225      1.568     3.79     5.272988     20.40969     45.19693         7     1.081     0.734  66.91   0
       101    648.0305    735.8287 300.1428426 +22.7922089     307.8355     72.34135      1.383     4.42     4.773378     20.40969     33.77008         6     0.821     0.677   6.10   0
       102    439.7296    736.1917 300.0778679 +22.7298878      394.562     72.32291      1.709     5.43     5.051229     20.40969     45.22932         8     1.126     0.738   4.95   0
       103     82.0912    735.4513 299.9668920 +22.6224348     576.6628     72.37819      1.814     4.34     4.967299     20.40969     55.17881        11     1.085     0.905  76.43   0
       104    872.4838    733.2439 300.2136347 +22.8587027      322.055     72.30448      1.519     5.48     5.297481     20.40969     34.60055         8     1.166     0.725  26.15   0
       105    246.6159    730.1495 300.0197555 +22.6702570      468.951     72.35977      1.598     3.47     5.038004     20.40969     59.12444         6     0.783     0.640 -83.32   0
       106    569.3130    721.1711 300.1230877 +22.7644130     507.4996     72.34135      1.694     3.46     4.833345     20.40969     49.60798        10     0.997     0.809  34.01   0
       107    955.4888    715.9073 300.2451533 +22.8785777     4563.147     72.50699      1.732     3.81     4.958104     20.40969      325.167        41     1.453     1.329 -20.37   0
       108    538.9944    719.3289 300.1142457 +22.7547984     541.0684     72.30448      1.354     4.85     4.905162     20.40969     62.70574         9     1.005     0.664 -24.68   0
       109    670.5465    717.3499 300.1558598 +22.7936485     1284.954     72.37819      0.979     2.53     4.796986     20.40969     374.8239        11     1.137     0.577 -29.21   0
       110    560.7356    716.8040 300.1218354 +22.7605888     1551.343     72.34135      1.624     3.28     4.890889     20.40969     144.5437        22     1.165     1.081  47.25   0
       111    447.4614    718.5024 300.0860205 +22.7271280     244.2094     72.43342      1.635     4.97     5.066067     20.40969     33.37982         6     0.921     0.758  20.01   0
       112    480.7398    716.7250 300.0969559 +22.7365921     416.8108     72.39661      1.559     3.81     4.874714     20.40969     40.40672         8     0.899     0.654  -6.77   0
       113    642.7718    711.5164 300.1491025 +22.7836518     418.3596     72.34135      1.516     4.50     4.779745     20.40969     43.07129         8     1.039     0.554  72.63   0
       114    943.7997    707.4413 300.2442575 +22.8726449     1827.546     72.37819      1.716     3.48     5.058786     20.40969     145.4027        25     1.328     1.084  12.41   0
       115    306.8628    700.9556 300.0479749 +22.6799444     897.6958     72.35977      1.564     3.62     5.389091     20.40969     84.90668        14     1.054     0.902 -18.16   0
       116    770.3461    698.5226 300.1930735 +22.8181373     2719.237     72.37819      1.745     3.42     5.111448     20.40969     251.9668        31     1.532     1.113   1.37   0
       117    974.9352    697.4999 300.2571990 +22.8791104     1624.031     72.43342      1.676     3.48     4.878365     20.40969        145.5        23     1.261     1.086  24.15   0
       118    155.5938    684.7279 300.0062103 +22.6299306      659.949     72.28605      2.124     6.29     4.950655     20.40969     61.45966        14     1.441     0.930  34.73   0
       119    852.4579    684.2230 300.2233150 +22.8386215     513.6531     72.34135      1.556     4.94     5.493109     20.40969     48.03303         9     0.972     0.807  34.46   0
       120    888.6662    675.5320 300.2374280 +22.8469670     149265.9     72.39661      1.672     3.40     5.468318     20.40969     13663.48       158     1.500     1.489 -82.76   0
       121    650.9852    679.4643 300.1620720 +22.7769078     238.8815     72.32291      1.343     4.01     4.796179     20.40969      42.6694         5     0.926     0.496  -4.10   0
       122    741.2850    676.0984 300.1913002 +22.8029912      881.885     72.50699      1.572     3.54     4.919588     20.40969     85.32494        17     1.150     1.011  24.25   0
       123    921.2169    668.7675 300.2497762 +22.8547697     379.4901     72.32291      1.294     4.88     5.353468     20.40969     63.90043         8     1.160     0.581  11.95   0
       124    574.8749    664.1854 300.1433291 +22.7497170     1525.152     72.34135      1.428     3.08     5.244192     20.40969     173.2068        24     1.173     1.063  69.37   0
       125    756.1396    661.6169 300.2006329 +22.8032805     9713.259     72.30448      1.539     3.00     5.110508     20.40969     968.9426        44     1.284     1.215  62.38   0
       126    238.1015    663.1515 300.0388683 +22.6484806     199.5338     72.37819      1.340     4.04     5.044541     20.40969     30.75241         6     0.803     0.582  39.12   0
       127    257.5349    656.4861 300.0470759 +22.6523944     4866.617     72.43342      1.625     3.25      5.24957     20.40969     539.9402        36     1.312     1.207  38.46   0
       128    339.6424    654.7405 300.0731808 +22.6765081     1171.124     72.32291      1.546     3.34     5.394629     20.40969     128.0781        17     1.091     0.980  60.14   0
       129    215.7509    652.1985 300.0354756 +22.6386364     419.2878     72.32291      1.574     5.09     4.918018     20.40969      40.1926         8     0.969     0.756   4.19   0
       130    547.6331    650.2854 300.1393604 +22.7375632     740.3602     72.30448      1.616     3.64     5.517349     20.40969     75.86331        14     1.130     0.806   0.17   0
       131    539.5760    642.3061 300.1394429 +22.7328578     3268.443      72.2676      1.504     2.95     5.530741     20.40969     358.1436        27     1.188     1.088   9.56   0
       132    529.8837    636.1005 300.1384403 +22.7281717     1507.092     72.50699      1.439     2.95     5.515665     20.40969     159.8839        21     1.101     0.988  40.84   0
       133    357.0137    636.2681 300.0845835 +22.6764130     2126.556     72.35977      0.611     1.01     5.438418     20.40969     1145.715         8     0.519     0.437  70.13   0
       134    923.3430    634.3298 300.2616236 +22.8455096     485.9857     72.35977      1.698     4.82     5.139287     20.40969     47.15261         9     1.144     0.577  42.84   0
       135    193.0408    631.8126 300.0350346 +22.6259777     722.1072     72.34135      1.625     7.68     4.937027     20.40969     78.11519        17     1.497     1.103  61.43   0
       136    207.3678    630.6259 300.0398742 +22.6299328     691.6882     72.34135      1.867     2.85     4.925809     20.40969     71.87219        11     1.016     0.732  47.79   0
       137    976.8069    627.4503 300.2805343 +22.8595380     618.2812     72.34135      1.997     5.37     4.827324     20.40969     48.58352        13     1.151     1.034  24.16   0
       138    264.1579    627.9387 300.0584054 +22.6461877     251.9244     72.32291      1.246     5.10     5.311079     20.40969     42.89164         8     0.976     0.754 -76.70   0
       139    233.1092    627.6782 300.0488349 +22.6368046     556.7275      72.4886      1.381     3.43     4.993284     20.40969     76.74277        10     0.965     0.784  -8.79   0
       140    553.7197    626.5120 300.1489756 +22.7325601     427.8115     72.47021      1.472     3.67     5.538195     20.40969      54.3811         8     1.040     0.495   4.33   0
       141    454.5070    625.7096 300.1183499 +22.7026013     1831.128     72.50699      1.528     3.03     5.452422     20.40969     207.5751        21     1.137     1.038  16.87   0
       142    108.5233    620.5508 300.0124205 +22.5974036     19993.72     72.34135      1.767     3.57     5.429865     20.40969     1989.176        64     1.522     1.400  26.23   0
       143     29.9872    622.2893 299.9874533 +22.5743495      711.497     72.28605      1.793     5.79     5.540333     20.40969     68.24586        18     1.456     1.105 -41.45   0
       144    539.4815    621.1672 300.1462777 +22.7267593     1111.597     72.32291      1.476     3.04      5.55017     20.40969      117.116        16     1.101     0.877  30.11   0
       145    575.0385    620.1922 300.1576663 +22.7371325     254.3991     72.35977      1.288     3.83      5.55049     20.40969     36.33006         5     0.839     0.502  56.22   0
       146    292.8436    612.5516 300.0723229 +22.6503708     248.4826     72.37819      1.192     3.43     5.566186     20.40969     38.17029         5     0.766     0.443  21.15   0
       147    957.5953    607.5118 300.2810158 +22.8480560      1237.13     72.24915      1.800     3.78     4.864795     20.40969     107.0358        19     1.273     1.002  76.14   0
       148    864.3383    607.3607 300.2519810 +22.8200930     254.9515     72.34135      0.943     3.51     5.352376     20.40969     40.14474         5     0.947     0.422  15.71   0
       149     54.6192    604.6273 300.0008403 +22.5766704      1612.96     72.34135      2.128     5.02     5.661338     20.40969     105.4153        27     1.554     1.277 -86.27   0
       150    824.6047    605.8129 300.2400954 +22.8077510     601.0109     72.21225      1.570     4.35     5.379193     20.40969     52.67101        12     1.053     0.841   3.22   0
       151    120.5495    605.2354 300.0211305 +22.5966159     470.1065     72.35977      1.884     6.10     5.415115     20.40969     43.81015        11     1.337     1.058 -67.41   0
       152    502.9094    601.5795 300.1412515 +22.7101767     412.1621     72.28605      1.298     3.21     5.574944     20.40969     52.91779         8     0.839     0.685  51.68   0
       153    898.1987    600.2894 300.2648357 +22.8281986     982.5839      72.2676      2.114     3.78     5.171443     20.40969     71.56651        16     1.078     1.014 -85.47   2
       154    361.9037    598.8557 300.0982524 +22.6671394     182.3145     72.43342      1.258     4.37     5.530331     20.40969     35.49672         5     0.849     0.640  34.53   0
       155    459.5153    594.0200 300.1301979 +22.6950035     755.0024      72.2676      1.409     3.71     5.575079     20.40969     100.4881        12     1.129     0.830  73.69   0
       156    607.8142    592.6437 300.1768185 +22.7390394     429.3449     72.35977      1.341     2.73      5.75248     20.40969     77.46033         7     0.847     0.759  78.60   0
       157    654.8149    591.3011 300.1918946 +22.7527326     544.0156     72.24915      1.492     3.10     5.631724     20.40969     54.42171         9     0.822     0.768  80.71   0
       158    625.3538    590.5917 300.1829478 +22.7437041     467.3321     72.35977      1.463     3.57     5.716259     20.40969     69.00254        14     1.156     0.848  46.79   0
       159    504.0861    589.9382 300.1453974 +22.7071864     877.6545     72.43342      1.540     3.71     5.642274     20.40969     100.8498        16     1.220     0.917  -7.29   0
       160    937.7091    585.6066 300.2819255 +22.8358067     3532.698     72.24915      1.654     3.13     5.032125     20.40969     333.4667        34     1.306     1.227  87.01   0
       161    469.4198    585.2358 300.1361327 +22.6954491     1742.965     72.35977      1.443     2.91     5.626636     20.40969     189.7419        21     1.095     1.057  72.15   0
       162    834.3619    583.2213 300.2504726 +22.8041807     394.7198     72.35977      1.697     3.44     5.401899     20.40969     49.03366         7     0.864     0.647 -19.17   0
       163     31.2274    578.7712 300.0019666 +22.5622381     5220.713     72.32291      1.841     3.60     5.661332     20.40969     538.1223        44     1.508     1.418  81.48   0
       164    819.6486    581.5803 300.2464184 +22.7993037     157.9915     72.35977      1.082     4.07     5.419491     20.40969     28.79371         5     0.961     0.492   3.08   0
       165    498.7588    576.3878 300.1481382 +22.7016991     366.4063     72.34135      1.549     3.72     5.715716     20.40969      43.2172         6     0.869     0.711 -80.03   0
       166    977.0695    575.3608 300.2975299 +22.8446437     492.0077     72.30448      1.673     6.04     4.923149     20.40969     41.77348        10     1.115     0.920  66.58   0
       167    590.0627    574.2912 300.1772482 +22.7284505     318.7119     72.43342      1.482     4.49     5.806725     20.40969      31.1048         6     1.110     0.517 -49.33   0
       168    332.7980    571.9644 300.0979277 +22.6506966     9431.221     72.30448      1.496     3.10     5.436635     20.40969     1012.055        40     1.244     1.202  43.95   0
       169    455.2406    569.0988 300.1369581 +22.6865668     9068.793     72.32291      1.442     2.80     5.649892     20.40969     1014.389        40     1.249     1.144  56.88   0
       170    220.9890    565.7880 300.0651593 +22.6154098     328.0934     72.23071      1.309     3.63      5.35346     20.40969     37.05024         5     1.190     0.319 -64.90   0
       171    701.9244    565.0016 300.2151101 +22.7592870     408.4464     72.24915      1.706     2.70      5.60078     20.40969     44.49667         5     0.855     0.647  47.75   0
       172    866.9929    563.3035 300.2671131 +22.8082263     1943.159     72.23071      1.570     3.20     5.372304     20.40969     169.5078        24     1.218     1.092  57.78   0
       173    951.6794    560.6812 300.2943755 +22.8328239     12639.67     72.47021      1.602     3.28     5.085864     20.40969     1204.464        47     1.313     1.270  85.01   0
       174    515.8490    558.7173 300.1591951 +22.7017448     11596.78     72.34135      1.434     2.78     5.825057     20.40969     1439.982        41     1.180     1.164 -69.48   0
       175    685.5610    554.5606 300.2134012 +22.7513867     398.8221     72.41502      1.237     3.23     5.678508     20.40969     64.48387         9     0.960     0.752  83.62   0
       176    243.2670    554.0604 300.0758935 +22.6187220     1434.863     72.37819      1.638     3.18     5.446396     20.40969     153.6743        19     1.090     1.050  -8.47   0
       177    401.4345    553.1889 300.1253775 +22.6658757     307.8099     72.32291      1.303     3.39     5.482325     20.40969     35.64143         5     0.752     0.443  68.52   0
       178    490.1706    551.6284 300.1535022 +22.6920158     417.2509     72.32291      1.308     2.96     5.840149     20.40969     59.73855         6     0.801     0.481   3.98   0
       179    790.6130    547.3034 300.2484951 +22.7807598     827.1274     72.23071      1.493     3.31     5.515079     20.40969      89.1993        14     1.149     0.788  23.06   0
       180    447.5311    546.8901 300.1417679 +22.6778796     4452.717      72.4886      1.431     2.59     5.684263     20.40969     582.7402        28     1.116     1.084  27.27   0
       181    425.7912    545.2173 300.1355448 +22.6708853     1120.925     72.28605      1.320     2.84      5.56918     20.40969     139.2432        19     1.075     0.964  67.75   0
       182    826.3965    545.3982 300.2602684 +22.7909261     221.5061      72.1199      1.312     3.89      5.46485     20.40969     24.86561         5     1.067     0.405  16.15   0
       183    180.1356    544.8685 300.0592483 +22.5971590     693.6343     72.39661      1.419     3.27     5.571316     20.40969     86.57906        13     1.039     0.821   4.71   0
       184    867.6191    542.5275 300.2740529 +22.8024424      1602.66     72.34135      1.649     3.49     5.384064     20.40969     148.2781        23     1.215     1.108   9.63   0
       185    114.1901    542.2489 300.0396006 +22.5766366     342.7148     72.35977      1.329     3.19     5.632529     20.40969     44.01281         5     0.848     0.449  46.83   0
       186    564.1759    534.4322 300.1821257 +22.7092473       207849     72.32291      1.424     2.61     5.920306     20.40969     24926.27       192     1.455     1.390  -5.91   0
       187    388.2746    540.8282 300.1252949 +22.6583832     306.9902     72.35977      1.357     4.06     5.452213     20.40969     38.60561         6     0.745     0.652  25.58   0
       188    747.8335    539.5475 300.2376793 +22.7657216      993.095     72.35977      1.515     3.03     5.540265     20.40969     104.1847        14     1.012     0.899  31.53   0
       189    841.3500    538.5381 300.2671573 +22.7934315     304.2256     72.39661      1.246     4.02     5.431528     20.40969     41.77653         5     1.086     0.436 -35.94   0
       190    250.2644    534.2175 300.0845101 +22.6151240     3485.305     72.32291      1.531     3.01     5.474261     20.40969     367.2971        29     1.199     1.171  32.02   0
       191    816.3132    530.7561 300.2618779 +22.7836992      579.273     72.32291      1.344     3.03     5.463462     20.40969       71.728         9     0.909     0.681  -3.09   0
       192    454.7432    514.9333 300.1543852 +22.6708636     2794.341     72.37819      1.465     2.61      5.71507     20.40969     348.0327        27     1.339     1.042 -88.01   0
       193    299.1666    517.1890 300.1052459 +22.6248926     489.7682     72.32291      1.439     3.68     5.369337     20.40969     62.96975         9     0.946     0.643 -23.31   0
       194    865.9543    511.4023 300.2836370 +22.7929978      452.452     72.32291      1.471     4.52     5.389287     20.40969     52.25616         8     0.927     0.644  -3.43   0
       195    772.1562    503.6360 300.2569162 +22.7626846     325.4152     72.39661      1.386     4.40      5.47597     20.40969     55.46226         8     0.919     0.676  46.82   0
       196    851.8848    500.9835 300.2826317 +22.7857913     1608.301     72.30448      1.503     3.33     5.397361     20.40969     151.5785        23     1.178     1.123 -21.86   0
       197    738.3362    501.0041 300.2472300 +22.7518021     380.9744     72.32291      1.526     2.45     5.523413     20.40969     47.75171         5     0.745     0.580   0.71   0
       198    723.0029    498.6474 300.2432166 +22.7465337     2519.384     72.34135      1.372     2.55     5.574206     20.40969      337.999        22     1.108     0.988  29.84   0
       199    967.7095    496.8297 300.3201024 +22.8192654     433.5808     72.30448      1.670     4.42     5.391557     20.40969     37.25547         8     1.058     0.525  36.04   0
       200    932.1168    496.0986 300.3092373 +22.8084027     232.9166     72.50699      1.059     2.41     5.420829     20.40969     45.16395         6     0.731     0.554  43.16   0
       201    628.1169    495.8049 300.2145769 +22.7173025     389.1898      72.2676      1.236     4.37      5.84567     20.40969     43.67299         8     1.083     0.633  19.47   0
       202    510.2082    494.6041 300.1782487 +22.6816413     717.9471     72.17532      1.408     2.73     5.842721     20.40969     89.14164        13     0.933     0.847  37.16   0
       203    980.3799    492.7784 300.3253699 +22.8218925     1307.208     72.34135      1.579     3.42     5.413389     20.40969     144.1306        16     1.095     0.931  18.55   0
       204    965.9868    491.9872 300.3211366 +22.8173576     826.3022      72.2676      1.736     4.20     5.424964     20.40969      73.4658        12     1.095     0.820  68.13   0
       205    852.1396    491.2467 300.2858712 +22.7830689     2276.011     72.37819      1.659     3.21     5.393437     20.40969      235.301        27     1.475     1.023  77.90   0
       206    605.3093    489.1525 300.2096319 +22.7085606     639.1973     72.34135      1.478     2.88      5.87756     20.40969     68.48945         9     0.872     0.681 -21.59   0
       207    390.9250    489.0618 300.1429206 +22.6443133     324.5759     72.39661      1.270     3.68     5.617945     20.40969     45.30405         7     0.876     0.652  30.65   0
       208    890.2946    486.2573 300.2993880 +22.7930557     4553.224     72.39661      1.484     2.78     5.414907     20.40969     487.2576        32     1.198     1.141  74.26   0
       209    443.7849    487.9321 300.1597374 +22.6598262     347.4673     72.34135      1.197     2.81      5.66255     20.40969     63.72076         7     0.816     0.666  75.41   0
       210    605.4437    484.8023 300.2110855 +22.7073511     395.2998     72.34135      1.923     4.13     5.873762     20.40969     32.24691         7     1.019     0.478  81.27   1
       211    530.8301    485.6384 300.1875788 +22.6852433     157.5074     72.35977      1.055     3.46     5.858061     20.40969     28.40076         5     0.773     0.448  15.91   0
       212    550.8573    482.1617 300.1949430 +22.6902434     375.3782     72.34135      1.316     2.43     5.871069     20.40969     65.70644         5     0.714     0.655  45.70   0
       213    982.1722    476.8201 300.3311082 +22.8178404     887.1398     72.34135      1.607     3.94     5.506063     20.40969     78.18566        20     1.213     1.123  37.63   0
       214    122.1918    475.9989 300.0635876 +22.5600237     955.6693     72.15685      1.529     3.53     5.526058     20.40969     112.1101        16     1.143     1.003  24.93   0
       215    114.9824    466.5756 300.0644046 +22.5551581     421.4212     72.34135      1.376     3.25     5.530389     20.40969     60.73652         8     0.976     0.718  28.60   0
       216    978.7009    466.0607 300.3335170 +22.8137080     425.1116     72.41502      1.385     3.39     5.504045     20.40969      54.4443        10     0.943     0.870 -26.11   0
       217    722.5558    460.6382 300.2554122 +22.7354772     431.2486     72.43342      1.271     3.13      5.60008     20.40969       62.326        10     0.922     0.777  45.38   0
       218    610.9971    458.8550 300.2212353 +22.7015595     343.9388     72.28605      1.349     4.92     5.866485     20.40969     47.35746         8     0.979     0.715 -62.13   0
       219    331.4592    459.0547 300.1341564 +22.6178790     275.2621     72.39661      1.435     4.15      5.65957     20.40969     34.27274         5     0.795     0.619   6.88   0
       220    663.6849    456.6203 300.2383729 +22.7166952     702.1761      72.2676      1.388     2.57     5.774935     20.40969     113.8762        11     0.938     0.718  80.72   0
       221    978.3132    449.1578 300.3388811 +22.8087316     551.6689     72.32291      1.370     3.82     5.503373     20.40969     58.83316        10     0.973     0.739 -48.65   0
       222    724.5016    448.7579 300.2598736 +22.7326455     877.9913     72.32291      1.403     3.01     5.614955     20.40969     113.1818        14     1.044     0.862  68.26   0
       223    881.5645    445.1724 300.3099982 +22.7786316     891.7108     72.35977      1.327     3.01     5.444426     20.40969     106.4529        15     0.999     0.890  53.32   0
       224    865.9550    441.4248 300.3063468 +22.7728822     706.4279     72.35977      1.370     2.92     5.440554     20.40969     101.8843        12     0.997     0.810 -66.67   0
       225    846.1813    441.4192 300.3001832 +22.7669621     347.5941     72.34135      1.283     3.37      5.44008     20.40969      39.8568         5     0.762     0.433  22.25   0
       226    610.2903    439.3346 300.2273492 +22.6957393     3327.941     72.47021      1.361     2.45     5.868283     20.40969     414.9947        25     1.094     1.009  49.41   0
       227    970.7716    438.4042 300.3400179 +22.8033826     512.0458     72.30448      1.415     3.01     5.498665     20.40969     73.10451        10     0.946     0.717  40.89   0
       228     86.4818    430.8819 300.0671280 +22.5363703     361.0752     72.47021      1.475     2.54     5.497954     20.40969     51.47167         6     0.740     0.618  35.47   0
       229    450.1402    426.3155 300.1817088 +22.6440332     340.9587     72.45182      1.384     3.38     5.762424     20.40969     46.01492         7     0.844     0.598 -33.94   0
       230    995.5198    425.3308 300.3519806 +22.8070286     262.3489     72.45182      1.739     5.26     5.515478     20.40969     28.99043         6     1.662     0.469  -1.24   0
       231   1021.6170    418.6329 300.3622964 +22.8129108     1387.731     66.48424      1.636     3.53     5.532963     20.40969     133.7126        20     1.203     1.093  15.15  24
       232    893.4503    418.6024 300.3223259 +22.7745499     580.9136     72.34135      1.427     2.40     5.468997     20.40969     71.96881         9     0.828     0.719  13.49   0
       233    980.1727    417.5533 300.3497161 +22.8001998     850.1276     72.37819      1.406     2.97     5.504718     20.40969     109.7297        14     0.972     0.881  18.68   0
       234    720.9207    413.3484 300.2702466 +22.7213967     1022.076     72.34135      1.346     2.60     5.690374     20.40969     133.5682        17     1.036     0.927  45.28   0
       235    516.7513    413.6554 300.2065520 +22.6603483      429.159     72.37819      1.279     3.45     5.911868     20.40969     69.45363         9     0.941     0.819  53.45   0
       236    224.9364    411.7171 300.1163841 +22.5723670     494.1501     72.45182      1.320     3.44     5.775498     20.40969     67.64747         8     0.988     0.552 -28.80   0
       237     64.5700    409.9917 300.0670960 +22.5238064      212.927     72.34135      1.260     4.71     5.490442     20.40969     28.07809         5     0.992     0.636  -0.35   0
       238    287.1605    407.1165 300.1372276 +22.5896919     3787.219     72.30448      1.429     2.94     5.799418     20.40969     404.1194        27     1.149     1.079  47.31   0
       239   1020.3437    405.8679 300.3660407 +22.8088586     4216.213     70.90833      1.575     3.32     5.507038     20.40969     383.1268        35     1.282     1.228  77.14  16
       240    234.3577    401.8214 300.1225239 +22.5723491     7563.242     72.37819      1.526     2.90     5.822053     20.40969     972.6988        37     1.265     1.178  47.42   0
       241   1000.3537    396.9635 300.3626924 +22.8003169     1932.005     72.37819      1.558     3.02     5.483154     20.40969     200.0835        22     1.120     1.092 -23.37   0
       242    375.1223    396.0507 300.1681815 +22.6128679      4840.42     72.34135      1.424     3.02     5.766104     20.40969     491.4199        33     1.248     1.109  64.20   0
       243    619.4001    392.9150 300.2452467 +22.6851288     18646.88     72.21225      1.387     2.55     5.831433     20.40969      2357.24        51     1.275     1.112  66.38   0
       244    636.8575    393.0188 300.2506509 +22.6903858     905.5405     72.30448      1.880     5.55     5.825595     20.40969     66.60486        18     1.571     0.854 -43.39   0
       245    816.7842    383.7874 300.3097161 +22.7415952     340.8019     72.28605      1.194     3.77      5.47042     20.40969     46.75147         6     0.773     0.545  43.71   0
       246    239.7495    379.9395 300.1312985 +22.5676821     484.3582     72.39661      1.480     3.41     5.924616     20.40969     52.18848         7     0.862     0.571 -58.27   0
       247    953.0338    375.8826 300.3547690 +22.7800959     733.7953     72.30448      1.429     3.66     5.461407     20.40969     83.80649        13     0.995     0.896 -47.63   0
       248    489.6815    374.7396 300.2107487 +22.6410609     444.2429     72.43342      1.509     2.65     5.792274     20.40969     62.93979         8     0.868     0.622  74.48   0
       249    174.0508    372.9008 300.1131543 +22.5459736     2000.144     72.43342      1.548     3.17     5.933834     20.40969     220.1643        25     1.214     1.094  64.74   0
       250    830.7859    366.0567 300.3198328 +22.7406882     398.4467     72.32291      1.825     5.19      5.47042     20.40969     29.39131         8     1.304     0.583  46.51   0
       251    973.9587    362.9052 300.3655062 +22.7826245     1195.077     72.35977      1.511     3.30     5.440116     20.40969     135.5112        21     1.258     1.067  48.13   0
       252    560.0453    362.3351 300.2366805 +22.6585687     6511.838     72.34135      1.366     2.49     5.804948     20.40969     872.0546        35     1.169     1.095  83.56   0
       253    274.9412    361.9457 300.1480792 +22.5730597     687.9377      72.3966      1.384     2.87     6.010684     20.40969      79.0278        11     0.952     0.742 -47.96   0
       254    132.6498    354.7484 300.1061722 +22.5283550     553.1485     72.37819      1.493     3.79     5.861727     20.40969     73.56924         9     1.052     0.711  21.76   0
       255    820.1439    354.4364 300.3202843 +22.7341623     298.6921     72.34135      1.201     4.21      5.47042     20.40969     37.60413         7     0.982     0.613  24.54   0
       256    674.0270    352.7752 300.2752845 +22.6899483     466.0771     72.30448      1.239     2.33     5.890412     20.40969     83.26167         9     0.823     0.690  71.02   0
       257    764.1949    351.4519 300.3038119 +22.7165588     1243.222     72.32291      1.547     2.93     5.698256     20.40969     128.4568        20     1.139     1.025  57.40   0
       258    466.6718    348.5430 300.2120828 +22.6266436     6199.983     72.35977      1.396     2.54      5.77943     20.40969     886.2795        36     1.234     1.060  73.66   0
       259    956.1858    343.2398 300.3663406 +22.7716512     473.8537     72.35977      1.304     3.04     5.444668     20.40969      79.7661        12     0.968     0.823 -23.38   0
       260    858.8160    343.1476 300.3360032 +22.7424897     1601.487     72.34135      1.471     3.04     5.524531     20.40969     171.8537        21     1.167     0.983  35.69   0
       261    451.4314    337.2682 300.2109956 +22.6188400     558.5029     72.32291      1.765     4.85     5.786358     20.40969     44.18983        10     1.094     0.714  -4.86   0
       262    533.7958    335.1978 300.2373084 +22.6429107     564.9195     72.15685      1.302     3.22     5.793159     20.40969     54.36522         7     0.724     0.663 -33.73   0
       263    812.2114    334.5692 300.3242551 +22.7260761     324.0393     72.34135      1.627     2.30     5.575982     20.40969     41.94781         5     0.682     0.477 -15.65   0
       264    514.5046    333.3645 300.2318965 +22.6366072     294.5398     72.34135      1.105     3.25     5.789517     20.40969     41.98588         6     0.854     0.480   2.49   0
       265    831.2309    330.9655 300.3313535 +22.7307318     451.7277     72.35977      1.241     2.73     5.595407     20.40969      73.5869         9     0.876     0.686 -85.67   0
       266    354.2454    327.7254 300.1838469 +22.5869896     2573.239     72.32291      1.450     2.73       5.8015     20.40969     350.4403        26     1.173     1.039  52.48   0
       267     72.9869    325.3940 300.0971496 +22.5020472     996.4266     72.21225      1.505     3.18     5.847764     20.40969     107.5908        12     1.000     0.761  -6.30   0
       268    323.5824    317.1212 300.1777462 +22.5747586     30305.46     72.34135      1.445     2.70     5.918257     20.40969     3516.611        68     1.383     1.199  70.48   0
       269    858.2952    315.0363 300.3449580 +22.7342503     1312.963     72.34135      1.344     2.58     5.676408     20.40969     181.2251        18     1.030     0.915  56.03   0
       270    813.8212    313.0181 300.3317464 +22.7203614     412.3955     72.34135      1.590     5.38     5.704231     20.40969     45.16852         8     1.121     0.729  88.89   0
       271     19.8169    304.8200 300.0873005 +22.4802053     5002.829     72.32291      1.725     3.48     5.976771     20.40969      470.588        43     1.531     1.295  56.62   0
       272    773.4531    303.9956 300.3220886 +22.7056863     562.9721     72.32291      1.265     2.50      5.83706     20.40969     86.22097        11     0.883     0.781  43.17   0
       273    197.6582    303.3193 300.1430593 +22.5330692     490.0716     72.37819      1.687     5.54     6.051395     20.40969     42.83152        10     1.192     0.727  46.24   0
       274    422.0652    302.4430 300.2131493 +22.6000400     474.1747     72.32291      1.406     3.48     5.808713     20.40969     68.89581         9     0.836     0.798  71.42   0
       275    733.9679    296.9921 300.3120534 +22.6918553     1759.891     72.34135      1.347     2.99      5.94392     20.40969     219.2153        20     1.118     0.904  52.65   0
       276    542.4384    291.8699 300.2540502 +22.6330478     314.0966     72.30448      1.412     2.99     5.841578     20.40969     58.11673         9     0.916     0.756 -68.98   0
       277    949.1153    290.1947 300.3813383 +22.7542791     599.3549      72.2676      1.498     3.56       5.4508     20.40969     63.94548         9     1.009     0.736  29.55   0
       278    395.7897    281.5322 300.2117527 +22.5861632     2135.092     72.34135      1.577     3.48     5.819011     20.40969     236.8404        23     1.324     0.958  64.83   0
       279    695.4398    280.6439 300.3053485 +22.6756237     254.4976     72.41502      1.308     3.83     5.962591     20.40969     32.88364         5     0.987     0.427 -14.12   0
       280    608.0792    280.6745 300.2781229 +22.6494822     264.1992     72.45182      1.044     2.00      5.89828     20.40969     66.01929         6     0.759     0.466   4.54   0
       281    835.1118    274.8695 300.3507547 +22.7157626     594.4424     72.50699      1.326     2.64     5.836143     20.40969     89.06303         9     0.893     0.611  16.53   0
       282    717.1506    272.3416 300.3148057 +22.6797350     411.2926     72.39661      1.301     2.75     5.976518     20.40969     52.08578         7     0.733     0.638  -5.74   0
       283    471.6430    260.7772 300.2420904 +22.6029151     1105.563     72.39661      1.318     2.78     5.791732     20.40969     166.7075        17     1.092     0.904  56.31   0
       284    855.1974    254.7181 300.3635512 +22.7159771      306.194     72.24915      1.202     3.39     5.836915     20.40969     42.34332         5     0.778     0.428 -12.38   0
       285    716.6010    252.9177 300.3209322 +22.6739860     2145.257     72.23071      1.314     2.53      5.99865     20.40969     277.1345        23     1.107     0.999  60.93   0
       286    977.9383    247.4167 300.4042005 +22.7505957     3223.188     72.30448      1.526     2.92     5.792684     20.40969     364.0396        25     1.189     1.094  72.34   0
       287    425.1110    236.6355 300.2354335 +22.5820445     615.2779     72.32291      1.305     2.75     5.812957     20.40969     86.88431        11     0.929     0.746 -39.99   0
       288     99.7046    230.7764 300.1361290 +22.4828891     1371.987     72.23071      1.683     3.36     6.061151     20.40969     161.9448        21     1.237     1.094 -31.28   0
       289    130.2576    231.0557 300.1455346 +22.4921237     648.4097     72.41502      1.484     3.48     6.057417     20.40969     89.76874        10     1.139     0.616 -10.15   0
       290    993.6999    228.2146 300.4153433 +22.7497859     514.1929     72.24915      1.379     3.51     6.011726     20.40969     63.66979        10     0.934     0.762  21.03   0
       291    837.2051    224.7005 300.3676730 +22.7019608     364.4139     72.23071      1.539     4.52     5.852545     20.40969      47.9763         8     0.963     0.603  14.49   0
       292    183.9812    222.9903 300.1648497 +22.5059030     557.8285     72.30448      1.638     2.85     6.059241     20.40969     68.53394        11     1.025     0.678  -6.44   0
       293    978.8420    221.0199 300.4130403 +22.7432720     300.3213     72.37819      1.248     3.68     5.989485     20.40969     56.91603         8     0.999     0.686  34.09   0
       294    788.2396    214.4160 300.3557418 +22.6843526     548.7617     72.35977      1.201     3.10     5.885724     20.40969     78.88716        11     1.038     0.683  87.18   0
       295    378.4312    214.0858 300.2282167 +22.5615868     380.1194     72.32291      1.390     3.15     5.858009     20.40969     52.36812         8     0.918     0.653  10.67   0
       296    878.9388    208.5961 300.3859068 +22.7098144     206.6497     72.32291      1.053     2.87     5.855742     20.40969     50.12629         5     0.980     0.495  38.21   0
       297    262.1430    205.9706 300.1946713 +22.5244281     1354.499     72.34135      0.454     2.08     5.934435     20.40969     949.3944         6     0.382     0.349  78.80   0
       298    886.5039    203.4535 300.3899330 +22.7105982     2093.607     72.41502      1.533     2.63     5.856266     20.40969     265.2355        23     1.170     1.041  75.61   0
       299    304.9950    200.5050 300.2097715 +22.5356925     2236.452     72.24915      1.490     2.79     5.820784     20.40969     271.9277        25     1.204     1.086  68.92   0
       300    382.8512    195.7554 300.2355335 +22.5576435     1022.059     72.37819      1.473     3.40     5.852696     20.40969     119.9991        21     1.192     1.095   1.26   0
       301    784.5622    195.2998 300.3607921 +22.6777547     589.8712     72.35977      1.229     2.52       5.8802     20.40969     97.49107         9     0.958     0.578   8.72   0
       302    892.1805    192.6342 300.3952104 +22.7091840     303.1237     72.35977      1.362     3.51     5.861975     20.40969     41.13382         5     0.776     0.457 -14.11   0
       303    323.3055    189.2882 300.2191030 +22.5379537     2440.693     72.52538      0.791     1.53     5.840708     20.40969     899.5729         8     0.776     0.419  15.21   0
       304    199.4200    188.0784 300.1809657 +22.5005009     617.8873     72.34135      1.277     2.13     6.158484     20.40969     116.8074         9     0.848     0.609 -19.20   0
       305    737.4434    184.8190 300.3495030 +22.6606420     1691.363     72.35977      1.329     2.55     6.006219     20.40969     225.8315        20     1.062     0.964 -89.80   0
       306    802.2439    184.5567 300.3697862 +22.6799552     530.4625     72.41502      1.232     2.58     5.828643     20.40969     88.26891        11     0.918     0.738  44.54   0
       307    220.9569    181.3653 300.1898380 +22.5050238     552.2024     72.39661      1.390     4.09     6.191559     20.40969     66.37772         9     0.969     0.808 -11.65   0
       308    463.7003    180.8340 300.2655322 +22.5775632     212.6733     72.32291      1.102     3.57     5.825613     20.40969     31.75292         5     0.998     0.368  -3.32   0
       309   1009.0170    177.6279 300.4365205 +22.7398118     811.0712     72.34135      1.457     3.42     6.081806     20.40969      100.703        12     1.105     0.750  47.61   0
       310    741.4549    175.9111 300.3536404 +22.6592806     987.9083     72.37819      1.725     5.00     5.984158     20.40969     88.57695        18     1.539     0.841 -83.48   0
       311    511.1942    177.1205 300.2815214 +22.5907142     374.3896      72.2676      1.334     3.84     5.791329     20.40969     49.00977         9     0.879     0.839  80.57   0
       312    662.0401    175.5572 300.3290090 +22.6354147     1123.389     72.43342      1.276     2.33      5.97363     20.40969      176.191        16     1.012     0.867 -74.74   0
       313    483.3660    172.1412 300.2744714 +22.5809523     393.9361     72.35977      1.238     2.44     5.834312     20.40969     48.85184         6     0.721     0.590 -10.88   0
       314    857.4944    167.0892 300.3926735 +22.6914599     1493.641     72.52538      1.460     2.61     5.881496     20.40969     157.5651        20     1.107     0.964  65.08   0
       315    588.1512    167.3668 300.3086470 +22.6109460      957.842     72.37819      1.329     3.11     5.888682     20.40969     124.1143        15     1.069     0.856  45.91   0
       316    869.3890    166.2780 300.3966455 +22.6947847     823.5327     72.32291      1.357     3.07     5.890309     20.40969     103.9569        14     1.049     0.837  49.83   0
       317    915.8231    165.6184 300.4113404 +22.7084842     154.2623     72.34135      1.193     3.42     5.877412     20.40969     29.08586         5     0.756     0.448  17.90   0
       318    986.4261    156.6308 300.4362774 +22.7270142     1017.347     72.34135      1.383     2.89      6.02103     20.40969     143.0364        18     1.081     0.989  23.77   0
       319      9.9039    153.0461 300.1334176 +22.4336625     345.6889     72.35977      1.418     4.67     6.890841     20.40969     59.92361        11     1.245     0.864  14.59   0
       320    220.4647    149.5913 300.1999820 +22.4957491     748.7684     72.32291      1.312     2.45     6.241253     20.40969     98.14525        10     0.868     0.720 -27.07   0
       321     82.1850    143.8936 300.1588424 +22.4526907     2301.443      72.2676      1.709     3.16     6.366782     20.40969      248.704        30     1.389     1.189  66.23   0
       322    905.2281    141.4259 300.4158764 +22.6983551     863.0198     72.32291      1.426     3.19     5.912871     20.40969     99.57041        14     1.046     0.972  56.21   0
       323     31.8718    140.2520 300.1443884 +22.4365710     478.7635     72.34135      1.541     4.01     6.730711     20.40969     62.66561         8     1.159     0.715  66.06   0
       324    239.5289    137.3756 300.2098687 +22.4979496     5566.146     72.35977      1.519     2.88     6.138912     20.40969     709.5069        32     1.282     1.111  57.09   0
       325     23.8505    131.6669 300.1446779 +22.4317024     1225.544     72.32291      1.638     3.57      6.78894     20.40969     136.9709        19     1.193     1.096 -11.76   0
       326    222.7581    128.2792 300.2076010 +22.4903136     513.4729     72.32291      1.381     3.66     6.218631     20.40969     61.93976        14     1.065     0.926  56.67   0
       327    883.7261    119.1505 300.4163891 +22.6855152     3637.188     72.34135      1.488     2.74     5.945424     20.40969     475.0754        29     1.268     1.077  80.06   0
       328    987.4098    118.0148 300.4490985 +22.7161963     2776.151     72.24915      1.574     3.16     6.028869     20.40969     302.1513        28     1.307     1.109  89.08   0
       329    186.3001    114.9525 300.2005829 +22.4755658      383.027     72.35977      1.536     3.49     6.194815     20.40969     45.21255         5     0.802     0.550  -5.62   0
       330    433.1241    114.0211 300.2776663 +22.5492066     625.6375     72.34135      1.266     3.17     5.897372     20.40969     84.80134        10     0.893     0.824  80.13   0
       331    357.3124    106.4289 300.2565340 +22.5243277     756.5078     72.34135      1.742     4.52     5.946439     20.40969     80.30809        10     1.151     0.730 -13.04   2
       332    123.3655    103.3510 300.1847773 +22.4533828     700.9288     72.37819      1.707     4.11      6.22824     20.40969     80.97766        13     1.354     0.762 -35.10   0
       333    484.5912    101.5894 300.2977149 +22.5610396     1621.961     72.23071      1.357     2.44     5.906354     20.40969     233.5906        18     1.030     0.934  45.05   0
       334    412.1016    102.2039 300.2749522 +22.5395167     358.4463     72.23071      1.227     3.86       5.9184     20.40969     55.15313         8     0.973     0.641  24.17   0
       335    546.1531    100.9873 300.3170777 +22.5792924     477.8086     72.35977      1.458     3.65      5.73484     20.40969     44.53466         8     0.913     0.740 -67.48   0
       336    227.9491     97.1139 300.2193128 +22.4829146      324.255     72.34135      1.277     2.28     6.173166     20.40969     65.89559         6     0.738     0.527 -31.26   0
       337    773.0067     91.3177 300.3908873 +22.6443900     434.3087      72.2676      1.353     3.32     5.932745     20.40969     53.74941         9     0.883     0.703  76.82   0
       338    918.5298     85.5405 300.4381338 +22.6862536     430.8025     72.37819      1.894     4.04     5.974435     20.40969     37.01431         6     0.898     0.737 -72.73   0
       339    669.6755     83.2134 300.3613113 +22.6111451     196.1242     72.35977      0.863     2.00     5.771569     20.40969      45.6649         5     0.699     0.439 -72.56   0
       340    258.5125     81.1890 300.2339768 +22.4874916     5906.222     72.28605      1.568     2.98     6.088761     20.40969     728.8278        38     1.321     1.192  71.35   0
       341    764.9609     82.4720 300.3912454 +22.6394387     187.5293     72.30448      1.012     3.70     5.946441     20.40969      40.7692         6     0.793     0.498  -3.74   0
       342    109.5993     80.6014 300.1878686 +22.4427248     767.6503      72.1199      1.828     3.98     6.192037     20.40969     87.03165        13     1.233     0.913 -84.42   0
       343    230.0800     75.5041 300.2269762 +22.4773440      368.147     72.45182      1.339     4.20     6.170828     20.40969     46.90956         6     1.026     0.490  -6.40   0
       344    273.6741     72.3841 300.2415448 +22.4895016     373.7633     72.34135      1.541     3.12     6.066494     20.40969     55.12018         7     0.901     0.783 -31.17   0
       345     20.2330     71.8253 300.1629411 +22.4134339     395.3004     72.34135      1.700     3.33     6.500011     20.40969     56.50039         5     1.038     0.506 -33.37   0
       346    504.6682     66.6482 300.3152855 +22.5570039     6337.135     72.34135      1.506     2.88     5.902633     20.40969     803.0359        36     1.255     1.144  75.39   0
       347    390.0844     66.5953 300.2796365 +22.5226908      587.946      72.2676      1.375     2.68     6.014059     20.40969     76.62923        10     0.921     0.671  55.66   0
       348    561.8209     61.8012 300.3346520 +22.5727145     329.0493      72.2676      1.339     1.93      5.75909     20.40969     53.70431         6     0.676     0.552  52.03   0
       349    698.4127     58.2127 300.3783648 +22.6125524     233.1209      72.2676      1.020     2.73     5.857166     20.40969     44.83569         5     0.700     0.480  77.35   0
       350    757.1669     56.5878 300.3972017 +22.6296614     745.6047     72.32291      1.571     2.87     5.966236     20.40969     109.0649        12     1.061     0.894  69.87   0
       351    849.5961     55.3762 300.4264088 +22.6569588     304.5179     72.30448      1.278     3.66     5.959907     20.40969     54.49089         6     0.818     0.557  51.33   0
       352    197.7318     50.5956 300.2249861 +22.4605003     474.9759     72.30448      1.356     1.94     6.183674     20.40969     61.19093         5     0.658     0.469  18.21   0
       353    633.1103     46.8867 300.3616879 +22.5897574     6284.518     72.50699      1.421     2.93     5.771569     20.40969     780.2938        34     1.267     1.089  74.95   0
       354    556.4031     49.3080 300.3370119 +22.5675010     395.4825     72.24915      1.478     4.52     5.763805     20.40969     44.61449         9     1.013     0.749  -2.62   0
       355    407.9516     45.7068 300.2919632 +22.5220352     1649.346     72.37819      1.483     3.26     6.064665     20.40969     189.7825        23     1.209     1.085 -89.68   0
       356    674.2462     44.3778 300.3753164 +22.6013433     800.5343     72.37819      1.334     2.89     5.775074     20.40969     109.8589        12     0.958     0.766  62.88   0
       357    744.5134     42.2249 300.3979105 +22.6217446     367.6476     72.28605      1.589     4.53     5.986819     20.40969     44.06918         7     1.029     0.775  59.79   0
       358    690.1437     40.3642 300.3815699 +22.6049449     633.9659     72.35977      1.429     2.93     5.831556     20.40969     65.90315        10     0.867     0.788  37.20   0
       359    960.0478     38.0131 300.4664816 +22.6849913     543.3776     72.35977      1.466     4.27     6.019614     20.40969     59.62788         9     0.956     0.717  62.32   0
       360    156.6239     38.1043 300.2162516 +22.4446009     672.0862     72.23071      1.636     4.79     6.173675     20.40969     61.44114        13     1.232     0.952 -14.28   0
       361      3.6303     38.7766 300.1684878 +22.3989687     341.4026     67.51877      1.798     3.80     6.091112     20.40969     29.52378         5     1.017     0.407  -5.48  16
       362    998.8842     37.6363 300.4787200 +22.6964944      247.115     72.32291      1.077     2.46     6.076452     20.40969     48.01299         5     0.713     0.449  18.17   0
       363    728.3591     35.8802 300.3949311 +22.6150872     470.7892     72.32291      1.344     3.32     5.966927     20.40969     72.62418         9     1.031     0.699  34.53   0
       364    677.2188     31.6772 300.3803565 +22.5985796     2873.566     72.34135      1.476     2.67      5.78587     20.40969     357.9445        27     1.270     1.043  79.09   0
       365    692.2578     30.2799 300.3854951 +22.6026767      943.949     72.37819      1.845     6.52      5.83972     20.40969     82.06676        14     1.443     0.828  58.52   0
       366    317.7467     32.5941 300.2681429 +22.4912626     334.6183     72.30448      1.257     3.30     6.122426     20.40969     42.88482         7     0.941     0.474  -9.16   0
       367    763.5984     23.4229 300.4099493 +22.6220445     1569.094     72.28605      1.482     2.75      5.97093     20.40969     214.2754        19     1.170     0.924  68.65   0
       368    701.9353     16.6493 300.3929257 +22.6016509     873.3095     72.35977      1.490     2.96     5.877784     20.40969     105.5187        12     0.964     0.831 -22.01   0
       369    255.2312   1019.3229 299.9284435 +22.7557796     984.8019     72.32291      6.983    10.92     53.96419     20.40969      34.9213        18     2.812     1.180 -77.93  19
       370     80.5991     15.8980 300.1998134 +22.4154525     622.3997     72.21225      1.485     1.88     5.905529     20.40969     77.03195         6     0.707     0.487 -83.39   0
       371    261.4567   1014.8443 299.9318359 +22.7563634     1697.622     72.35977      4.244    11.72     44.06399     20.40969     52.21171        35     2.292     1.670 -69.68  18
       372    743.6612   1013.7593 300.0822926 +22.9006589     498.2229     72.34135      2.182     6.19     3.224265     20.40969     28.94366         7     1.757     0.613 -40.47  16
       373    306.2458   1012.4026 299.9465589 +22.7691008      1595.66     72.34135      4.772     6.68     6.456245     20.40969     82.37583        29     1.608     1.371  -2.40   0
       374    140.0358   1008.9385 299.8960102 +22.7182359     1267.682     72.35977      2.666     8.83     90.56091     20.40969     45.63898        20     1.661     1.311  60.83   3
