#   1 NUMBER                 Running object number                                     
#   2 X_IMAGE                Object position along x                                    [pixel]
#   3 Y_IMAGE                Object position along y                                    [pixel]
#   4 ALPHA_J2000            Right ascension of barycenter (J2000)                      [deg]
#   5 DELTA_J2000            Declination of barycenter (J2000)                          [deg]
#   6 FLUX_APER              Flux vector within fixed circular aperture(s)              [count]
#   7 FLUXERR_APER           RMS error vector for aperture flux(es)                     [count]
#   8 FLUX_RADIUS            Fraction-of-light radii                                    [pixel]
#   9 FWHM_IMAGE             FWHM assuming a gaussian core                              [pixel]
#  10 BACKGROUND             Background at centroid position                            [count]
#  11 THRESHOLD              Detection threshold above background                       [count]
#  12 FLUX_MAX               Peak flux above background                                 [count]
#  13 ISOAREA_IMAGE          Isophotal area above Analysis threshold                    [pixel**2]
#  14 A_IMAGE                Profile RMS along major axis                               [pixel]
#  15 B_IMAGE                Profile RMS along minor axis                               [pixel]
#  16 THETA_IMAGE            Position angle (CCW/x)                                     [deg]
#  17 FLAGS                  Extraction flags                                          
         1    179.4388     17.5189 300.2693849 +22.4410589     465.1989     72.31597      1.591     3.54     4.873782     20.41293     69.21738        12     1.103     0.866  84.73   0
         2    404.5099     12.8595 300.3408901 +22.5071537     2237.077     72.44492      1.376     2.49     4.296566     20.41293     278.8074        23     1.154     0.953  59.00   0
         3     51.4630     10.7489 300.2318110 +22.4007586     1332.528      72.4081      1.416     2.67     5.053716     20.41293     170.9942        16     1.127     0.880  39.71   0
         4    894.9659     10.1376 300.4945362 +22.6532106     417.2553     72.35284      1.362     3.90     4.283996     20.41293     46.09232         6     0.782     0.557 -35.83   0
         5    535.2294      7.3773 300.3833511 +22.5447287     365.1253     72.35284      1.318     3.57     5.094883     20.41293     60.15159         9     0.895     0.823 -76.68   0
         6    879.0503      1.6934 300.4923113 +22.6460187     269.7304     58.44804      0.942     2.28     4.283889     20.41293     69.09599         6     0.825     0.436 -41.55  24
         7    696.0920   1012.3449 300.1069629 +22.8815516     325.5481      72.4081      1.561     4.85     3.023725     20.41293     30.05905         5     1.238     0.539 -49.85   0
         8    610.6420   1023.2635 300.0767972 +22.8590468     3912.728       58.562      1.324     3.50     2.224472     20.41293     551.8611        24     1.335     0.834  10.34  24
         9    182.4247   1023.2717 299.9435895 +22.7305063      1106.56       58.562      6.676    10.65     14.26653     20.41293     54.67263        24     2.478     1.276   0.95  27
        10    189.0977   1019.9279 299.9467518 +22.7315520     1796.611     71.92772      7.006    13.05     12.63665     20.41293     55.29504        38     2.581     1.836  63.03  19
        11    172.0171   1022.3188 299.9406653 +22.7271077     981.6932     63.43662      4.937     7.60     16.09187     20.41293     34.33628        12     1.757     0.919  76.88  26
        12    120.0581   1016.8981 299.9262849 +22.7099497     1299.896     72.44492      7.248     8.91     25.87356     20.41293     38.63948        16     2.502     0.887 -13.34  19
        13    124.6236   1022.6011 299.9258470 +22.7129550     1126.865     62.01233      5.210     6.61     26.15281     20.41293     43.61884        11     1.348     0.911  74.31  27
        14    112.6150   1022.1056 299.9222773 +22.7092063     703.0126     64.37555      4.506     5.43     28.51108     20.41293     32.74834         6     1.620     0.513  51.92  25
        15    108.7971   1022.4117 299.9209915 +22.7081473     794.9388     62.78164      5.304     8.00     29.36934     20.41293      43.9322        15     2.291     0.780  55.80  27
        16    103.4262   1023.1605 299.9190792 +22.7067486      1177.61      59.1961      6.688     9.48      30.9199     20.41293     52.30839        21     2.223     1.377  38.37  27
        17     85.9033   1022.5994 299.9138183 +22.7013247      1239.47     62.01233     17.366    20.17     36.51068     20.41293     46.48672        51     3.663     3.377  -4.81  27
        18     79.7598   1021.9525 299.9121205 +22.6992941     1250.415     65.17834     13.046    14.84     38.50307     20.41293     41.93409        27     4.310     1.420  31.24  27
        19     58.7722   1022.4619 299.9054355 +22.6931359     896.3235     62.71789      3.491     3.72     46.60532     20.41293      34.2568         5     1.467     0.271 -68.35  27
        20     69.7514   1008.8113 299.9132893 +22.6925228     1842.819     72.37127     12.027    15.95     37.28658     20.41293     60.83634        65     3.736     1.893 -27.53  19
        21     38.7318   1014.3678 299.9018459 +22.6847971     3068.697     72.35284      9.355    39.24     50.14756     20.41293     324.6805       408     7.785     5.489  63.89  27
        22     56.6070   1011.0275 299.9084851 +22.6892095     1623.299     72.35284     12.622    17.67      42.4768     20.41293     46.71589        63     3.563     2.434 -66.37  27
        23     37.3879    980.3575 299.9124985 +22.6746496     2242.902     72.35284      6.673    25.63     32.82281     20.41293     53.22749       179     6.365     2.865 -26.55  18
        24    343.5557   1009.5597 299.9981465 +22.7749569     6532.924     72.42652      1.738     3.43     3.277586     20.41293     541.8311        45     1.420     1.314 -37.83   0
        25     39.4602    991.2991 299.9095809 +22.6784069     2258.446     72.44492      6.801    21.55     38.14676     20.41293     62.89773       123     5.291     2.438 -14.93  19
        26    376.0407    996.5217 300.0124942 +22.7809706     409.8516      72.3344      1.443     4.66     2.881294     20.41293     45.21577        10     1.130     0.705  23.24   0
        27    889.8837    988.0046 300.1752751 +22.9326900     2120.148     72.27908      1.765     3.80     3.381799     20.41293     151.9545        27     1.309     1.226 -78.14   0
        28    540.1749    985.2389 300.0672381 +22.8269958       465.81     72.37126      1.700     4.73      2.36062     20.41293      39.4378         9     1.038     0.630  29.02   0
        29    388.2691    984.5925 300.0201808 +22.7812209     378.7893      72.3344      1.851     3.46     2.760757     20.41293     28.70538         5     0.759     0.455 -17.86   0
        30    572.5264    982.6787 300.0781422 +22.8359689     348.3999     72.46333      1.776     4.86      2.40516     20.41293     35.06182         6     0.975     0.687  21.18   0
        31    678.7941    976.9717 300.1130902 +22.8662137      763.487     72.35284      1.864     5.68     2.964742     20.41293     60.17624        18     1.478     0.931  47.76   0
        32   1004.6387    975.7361 300.2150524 +22.9635738     423.0469      72.3344      1.428     3.96     3.562893     20.41293     46.10653         6     1.308     0.343 -51.46   2
        33    653.8121    999.5779 300.0979510 +22.8652048      218.794      72.3344      1.346     4.42     2.800945     20.41293     27.17484         5     1.143     0.486  -4.73   0
        34    713.4579    971.1589 300.1257795 +22.8749440     1036.144      72.3344      1.598     3.70     2.989851     20.41293     88.75526        17     1.094     0.990  89.58   0
        35    490.6823    971.8565 300.0561902 +22.8083058     310.6769     72.38969      1.505     4.82     2.482885     20.41293     41.50974         7     1.260     0.522 -41.61   0
        36    735.7385    964.8972 300.1347586 +22.8798303     11288.02     72.44492      1.587     3.11     3.008389     20.41293     1001.402        53     1.367     1.303 -63.16   0
        37    926.1611    964.3510 300.1942851 +22.9367775     396.9924     72.37126      1.736     5.23     3.467306     20.41293     47.39999         8     1.177     0.657  41.79   0
        38    781.0811    964.7784 300.1489246 +22.8933956     322.4113     72.31597      1.323     4.77     3.051188     20.41293     46.53228         8     1.016     0.636  60.14   0
        39     47.7197    956.9102 299.9233383 +22.6710347     37.16593     72.46333      1.080     3.38     19.41393     20.41293     45.85808         7     0.757     0.639  86.07   0
        40    787.3245    952.6037 300.1548328 +22.8917740     330.9731     72.26064      1.520     5.91     3.044403     20.41293     34.73322        11     1.048     0.938 -37.48   0
        41    440.8566    952.8896 300.0468592 +22.7879135     480.4722     72.38969      1.686     5.34     2.678615     20.41293     42.19028         9     1.056     0.885  76.49   0
        42    744.1101    947.1099 300.1431562 +22.8772368     1333.687     72.51851      1.517     3.37     3.002433     20.41293     127.3937        22     1.187     1.069 -60.49   0
        43    927.2552    945.8509 300.2006479 +22.9317945     372.6508     72.38969      1.551     4.68     3.469086     20.41293     46.12401         9     1.119     0.881  45.55   0
        44    596.1559    944.0306 300.0980781 +22.8319718     636.0806     72.38969      2.204     5.33     2.675567     20.41293     56.30862         9     1.201     0.668  20.83   0
        45    782.5526    940.4714 300.1572946 +22.8868610     746.4173      72.3344      1.666     2.85     3.027747     20.41293     70.79579        12     0.886     0.866  71.61   0
        46    122.1962    940.8345 299.9517056 +22.6887949      421.691     72.35284      2.349     4.34     8.527553     20.41293     27.76627         5     0.749     0.714  75.96   0
        47    891.2662    937.8046 300.1920462 +22.9186945     525.2344     72.35284      2.235     4.77     3.271159     20.41293     33.08813         7     0.940     0.687 -76.94   0
        48    830.7610    931.4370 300.1752585 +22.8987245     549.7817     72.42652      1.524     4.72     3.064762     20.41293     56.59263        14     1.222     0.850  -9.95   0
        49    682.0410    930.7098 300.1291586 +22.8539139      720.124     72.37127      1.509     3.88     2.902253     20.41293     78.78712        12     1.027     0.849  33.84   0
        50    286.1872    930.7687 300.0059515 +22.7351465     342.3616      72.3344      1.660     3.45     3.481682     20.41293     27.50722         5     0.989     0.349  45.22   0
        51    693.1113    928.0095 300.1334855 +22.8564595     550.3924     72.27908      1.448     3.67     2.916151     20.41293     65.90646        13     1.102     0.839 -38.41   0
        52    394.7508    927.1855 300.0408807 +22.7667051      4106.73     72.37127      1.510     2.82     2.873226     20.41293     434.8774        33     1.226     1.147 -52.61   0
        53    994.9975    924.6376 300.2286775 +22.9460118     669.3235     72.37127      0.673     0.90     3.753442     20.41293     861.5912         9     0.548     0.476  77.92   0
        54    437.8947    915.5751 300.0580810 +22.7763232     326.1887     72.27908      1.574     5.02     2.912884     20.41293     35.40343         7     1.014     0.702  55.38   0
        55    173.2519    915.6277 299.9757727 +22.6969008     416.1407     72.37127      1.661     4.26     4.624896     20.41293     32.23287         6     1.124     0.460  57.91   0
        56     57.0862    915.6667 299.9396685 +22.6620296     341.5204     72.46333      1.504     4.10      5.50943     20.41293     44.39027         5     0.796     0.603 -77.41   0
        57     37.3398    915.2244 299.9336792 +22.6559726     293.9195      72.3344      1.204     2.88     5.344207     20.41293     35.59898         5     0.743     0.436  72.15   0
        58    119.7400    913.0087 299.9599970 +22.6800825     814.5479     72.31597      1.571     3.83     5.344039     20.41293     81.71684        15     1.128     0.940 -87.05   0
        59     97.0970    910.0686 299.9539189 +22.6724406      1618.91     72.48173      1.590     3.45     5.543548     20.41293     153.7009        23     1.210     1.121  38.35   0
        60    412.8331   1011.1741 300.0191693 +22.7962157     1024.619     72.37126      1.718     4.08     2.344881     20.41293     81.14556        19     1.204     1.041  73.97   0
        61    968.8357    898.7690 300.2289368 +22.9307416     2178.073     72.37126      1.654     3.37     3.614794     20.41293     169.5886        24     1.237     1.109  72.08   0
        62    628.3997    898.3634 300.1229792 +22.8285423     463.6376     72.35284      1.792     7.00     2.958545     20.41293     48.00742        12     1.813     0.757 -54.00   0
        63    923.0677    897.2434 300.2151614 +22.9165838     2194.435      72.3344      1.665     3.16     3.364769     20.41293     186.0045        27     1.242     1.150   4.56   0
        64    129.6494    891.7806 299.9699828 +22.6769737     463.0617     72.35284      1.736     2.50     4.538914     20.41293      56.5511         6     0.823     0.490 -44.72   0
        65    706.6255    890.9294 300.1497616 +22.8498719     543.6731     72.35284      1.276     2.70     2.928954     20.41293     76.26418        10     0.874     0.763 -65.82   0
        66    574.6827    885.3072 300.1105023 +22.8086824     4809.372     72.50012      1.466     2.53     3.192858     20.41293     567.1231        33     1.167     1.131  48.60   0
        67     64.6835    886.0731 299.9516569 +22.6558302     403.9605     72.48173      1.544     3.57      4.51889     20.41293     49.80161        10     0.946     0.721   6.74   0
        68    376.9131    882.0811 300.0500085 +22.7484168     639.0677     72.48173      1.671     3.73     2.891193     20.41293     55.43822        11     1.017     0.813 -18.93   0
        69    595.2852    877.7759 300.1193671 +22.8127019     706.4391     72.31597      1.364     3.47     3.179608     20.41293     93.84026        12     1.091     0.800  38.30   0
        70    124.9069    879.3960 299.9725385 +22.6720000     1276.324     72.24218      1.547     3.15     4.157285     20.41293     127.8377        20     1.213     0.978 -15.84   0
        71    144.6159    876.7882 299.9795109 +22.6771700     527.5327     72.29753      1.657     2.72     3.973954     20.41293     59.83123         5     0.814     0.453 -38.22   2
        72    512.0394    868.4562 300.0964853 +22.7850549      136.838     72.35284      1.061     2.50     3.533581     20.41293     50.86275         5     0.717     0.590 -83.77   0
        73    750.7894    865.0416 300.1719434 +22.8556861     4066.822     72.35284      1.428     2.74     2.956341     20.41293     462.4096        29     1.209     1.071  63.82   0
        74   1005.7756    864.5749 300.2515845 +22.9319942     443.3553     72.31597      1.370     5.27      3.83386     20.41293      51.7427         9     1.412     0.556 -70.17   0
        75    967.7322    865.2281 300.2395067 +22.9207794     1165.256      72.3344      1.542     3.20     3.573534     20.41293     96.60541        17     1.074     0.959  -0.44   0
        76    159.2545    859.0096 299.9898436 +22.6764687      580.491     72.35284      1.922     3.43     3.584481     20.41293     57.12266        11     1.004     0.760 -11.62   0
        77    467.8636    857.4815 300.0863079 +22.7686527     430.3644     72.46333      1.260     3.01     3.442571     20.41293      69.1899         8     0.971     0.618  40.59   0
        78    114.0015    855.6425 299.9768777 +22.6619171     1043.371     72.35284      1.664     4.40      3.71013     20.41293     114.6776        18     1.317     1.051  23.23   0
        79    263.7675    847.6716 300.0260174 +22.7045913     52887.33     72.35284      1.540     2.80     3.542192     20.41293     5918.989        97     1.402     1.390 -75.72   0
        80    529.5209    850.9487 300.1076223 +22.7852766     500.3277     72.35284      1.355     1.99     3.570563     20.41293     77.08565         6     0.726     0.499  87.60   0
        81    934.4839    845.6047 300.2355232 +22.9051785     916.0003     72.27908      1.542     3.30     3.406723     20.41293     92.71947        18     1.161     0.965  71.04   0
        82    521.6254    846.6058 300.1065776 +22.7816620     1520.822      72.3344      1.384     2.64     3.570563     20.41293     190.2096        18     1.038     0.967 -26.19   0
        83    192.2845    845.5229 300.0044959 +22.6825181     488.1278     72.46333      1.570     3.13     3.575565     20.41293     73.93217         8     0.914     0.738 -10.44   0
        84    237.5972    845.4236 300.0186128 +22.6960915     274.1369     72.29753      1.640     3.50     3.564968     20.41293     28.54617         5     1.088     0.324  21.02   0
        85    550.7002    842.6703 300.1169081 +22.7892549     869.4597     72.48173      1.371     2.54     3.545219     20.41293     112.7902        13     0.901     0.852  22.69   0
        86    561.6440    840.9451 300.1208761 +22.7920428     570.5621     72.35284      1.401     3.02     3.501064     20.41293     66.32505        12     0.987     0.806 -54.10   0
        87    881.4921    838.3223 300.2213706 +22.8872027     373.5905     72.50012      1.476     4.28     3.260681     20.41293     32.61533         7     0.999     0.522  29.29   0
        88    667.1763    837.2771 300.1549300 +22.8226430     534.0527     72.35284      1.467     2.99     3.149604     20.41293     62.37986         8     0.848     0.778   3.86   0
        89    704.5731    827.5247 300.1697509 +22.8310588     826.2795      72.3344      1.459     3.05     3.201791     20.41293     85.44021        14     1.096     0.799 -25.85   0
        90    313.4637    824.9054 300.0488753 +22.7129781     30886.71     72.44492      1.479     2.63      3.43135     20.41293     3748.971        74     1.348     1.300 -40.68   0
        91    327.7271    825.3617 300.0531625 +22.7173894     1893.319     72.31597      1.459     2.76     3.357449     20.41293     214.7967        22     1.191     0.959 -85.84   0
        92    203.4223    823.2577 300.0152000 +22.6794779     367.9845     72.35284      2.196     4.84     3.570263     20.41293      37.3323         5     1.024     0.648  21.12   0
        93    836.5201    820.6400 300.2131045 +22.8686441     2731.075      72.3344      1.432     2.55     3.330467     20.41293     302.0185        25     1.147     1.019  36.27   0
        94    324.3642    819.2175 300.0541152 +22.7146181     712.1604     72.35284      1.606     3.55     3.408465     20.41293     82.45436        11     1.183     0.680 -64.84   0
        95    431.0636    816.7725 300.0881002 +22.7459335     428.7179     72.35284      1.281     3.83     3.257654     20.41293      53.0098         9     0.998     0.682  88.01   0
        96    594.5183    816.6793 300.1390045 +22.7949404     906.4644     72.48173      1.393     2.68     3.447628     20.41293     118.2649        15     1.031     0.859 -30.11   0
        97    196.0422    816.6410 300.0150584 +22.6753654     644.0693     72.44492      1.343     2.89      3.56888     20.41293     88.30026        11     0.918     0.760  84.60   0
        98    441.5869    811.5507 300.0930729 +22.7475929     765.2737     72.38969      1.246     2.37     3.343982     20.41293     122.9742        12     0.858     0.817  18.06   0
        99    842.7772    808.2244 300.2190935 +22.8669550     620.8463     72.31597      1.640     3.81     3.400442     20.41293     67.65161        12     1.071     0.946  -2.64   0
       100    589.8611    809.1667 300.1399982 +22.7913877     223.9271     72.37127      1.021     3.44     3.484364     20.41293     45.25764         5     0.904     0.415 -45.86   0
       101    387.5963    806.4570 300.0779327 +22.7299325      413.447     72.31597      1.262     4.61     3.306803     20.41293     60.49588        11     1.258     0.715 -59.22   0
       102    299.2447    806.9407 300.0502970 +22.7035588     298.0787     72.37127      1.432     4.65     3.543421     20.41293     38.78438         7     0.992     0.618  68.31   0
       103    595.9680    805.5706 300.1430693 +22.7921873     236.4703     72.35284      1.158     4.11     3.483258     20.41293     42.25573         7     0.893     0.670  62.87   0
       104     29.4728    805.8072 299.9668297 +22.6222528     537.2563     72.29753      1.654     4.45     3.800255     20.41293     55.52046        11     1.158     0.885 -66.38   0
       105    820.3655    802.9730 300.2138165 +22.8587286     317.6657     72.37127      1.319     4.23     3.508078     20.41293     41.68817         9     1.018     0.700   9.99   0
       106    193.6003    801.0128 300.0193824 +22.6701515      591.026     72.16831      1.398     3.08     3.565192     20.41293     81.92952        10     1.013     0.677 -40.02   0
       107    516.8391    791.3647 300.1230568 +22.7643765     476.9423     72.42652      1.405     3.15     3.564698     20.41293     63.87939        10     0.963     0.717 -39.61   0
       108    486.8288    789.7582 300.1142392 +22.7549133     579.6476     72.37126      1.247     2.06     3.569488     20.41293     92.72942         8     0.749     0.637 -40.76   0
       109    395.8546    788.6257 300.0863012 +22.7272954     255.8661     72.38969      1.322     2.56      3.35964     20.41293     56.55664         7     0.847     0.573  75.26   0
       110    508.4577    787.2057 300.1218008 +22.7606691     1447.637     72.31597      1.380     2.42     3.564405     20.41293     187.0516        17     1.004     0.894  84.32   0
       111    902.9387    785.8834 300.2451149 +22.8785732     4498.219     72.44492      1.411     2.64     3.501609     20.41293     546.5612        30     1.150     1.094 -21.56   0
       112    428.1313    786.5142 300.0970295 +22.7363735     322.7471     72.44492      1.267     3.26     3.370851     20.41293     51.46654         8     0.894     0.631 -54.81   0
       113    659.7448    778.0252 300.1718887 +22.8034082     252.0332     72.37127      1.953     4.63     3.455544     20.41293     30.85502         6     1.096     0.555  66.42   0
       114    891.3873    777.2460 300.2443229 +22.8726305    -986.9333     72.37127      1.373     2.68     3.489135     20.41293     164.8887        19     1.079     0.978 -30.43   0
       115    279.0035    774.7300 300.0544791 +22.6882467     2117.893     72.29753      0.495     0.82     3.551649     20.41293     1470.169         6     0.444     0.280  87.41   0
       116    254.4798    771.4675 300.0479154 +22.6799514     736.8841     72.46333      1.280     2.69     3.544589     20.41293     90.82984        13     0.908     0.875 -31.40   0
       117    717.8327    768.7178 300.1930093 +22.8181540     2571.557      72.3344      1.384     2.37     3.431385     20.41293     337.6841        31     1.464     1.019  12.43   0
       118    922.5919    767.4738 300.2572303 +22.8791764     1622.583     72.31597      1.484     2.90     3.554399     20.41293     149.5114        21     1.155     1.044  62.84   0
       119    799.9994    754.2496 300.2233163 +22.8386336     591.0431      72.3344      1.300     3.16     3.576154     20.41293     74.83311        10     1.024     0.628  54.36   0
       120    103.2094    755.0174 300.0062515 +22.6298309     664.3061     72.29753      1.456     3.36     3.573064     20.41293     70.00215        10     0.989     0.688  71.76   0
       121    836.2014    745.5543 300.2374270 +22.8469884     145683.3     72.35284      1.394     2.43     3.551457     20.41293     18356.62       165     1.447     1.372 -85.01   0
       122    598.5560    749.0859 300.1622457 +22.7767527       329.43      72.3344      1.100     2.94     3.497504     20.41293     50.25241         6     0.768     0.490  81.90   0
       123    983.1097    747.2108 300.2826926 +22.8914920     1362.707     72.29753      1.505     2.94     3.563303     20.41293     128.1315        19     1.084     1.000 -48.01   0
       124    688.3582    745.7391 300.1913007 +22.8027201     659.7096      72.3344      1.213     2.93     3.451915     20.41293     95.39342        11     0.944     0.755  85.42   0
       125    868.9388    738.4706 300.2499352 +22.8547665     446.6838     72.38969      1.262     2.50     3.555667     20.41293     60.50296         8     0.829     0.635 -55.40   0
       126    522.4154    734.4557 300.1432996 +22.7497188     1710.629      72.3344      1.236     2.20      3.54192     20.41293     197.9096        18     0.963     0.901 -32.94   0
       127    703.6901    731.6741 300.2006503 +22.8032791     9204.616     72.51851      1.312     2.27     3.469426     20.41293     1291.588        43     1.159     1.124 -21.89   0
       128    185.2410    733.4184 300.0387653 +22.6482601     296.4474     72.37127      1.575     3.44     3.534464     20.41293     26.58629         5     0.763     0.448  19.47   0
       129    205.1842    727.0441 300.0470365 +22.6524174     4832.064     72.37127      1.403     2.47     3.509549     20.41293     579.1165        35     1.214     1.139  -9.67   0
       130    287.3507    725.0012 300.0732449 +22.6764885     1184.145      72.3344      1.431     2.48     3.499128     20.41293     132.8262        17     1.157     0.876 -14.90   0
       131    162.9001    722.6300 300.0353298 +22.6384613     472.7011     72.29753      1.323     3.45     3.543791     20.41293     68.88035        10     0.966     0.758 -70.31   0
       132    495.4236    720.3787 300.1394758 +22.7375834      688.075     72.35284      1.294     2.54     3.675481     20.41293     92.73306        13     0.937     0.798  38.96   0
       133    487.1227    712.5661 300.1394326 +22.7328517     3219.853     72.35284      1.292     2.21     3.749592     20.41293     446.0254        25     1.042     0.981  67.38   0
       134    477.2322    706.3349 300.1383805 +22.7280971      1487.09     72.35284      1.297     2.49     3.812708     20.41293      188.641        18     1.032     0.935 -21.10   0
       135    406.1961    705.9500 300.1164026 +22.7066789     346.0901     72.35284      1.295     4.33     3.585594     20.41293     43.23557         7     0.739     0.721  -3.61   0
       136    871.1290    704.0919 300.2617969 +22.8455492     438.5411     72.50012      1.266     2.00      3.60528     20.41293     76.05143         8     0.758     0.624 -40.58   0
       137    140.6752    702.6448 300.0349207 +22.6260600     721.7828      72.3344      1.457     3.21     3.563699     20.41293     84.97089        14     1.143     0.831  20.13   0
       138    154.7259    701.2526 300.0397395 +22.6298777     689.8387     72.37127      1.496     2.85     3.541298     20.41293     79.82466        12     0.972     0.783 -21.43   0
       139    924.2088    697.3459 300.2805393 +22.8595182     416.9229     72.35284      1.430     3.06     3.567775     20.41293     62.92962        10     0.901     0.875 -79.60   0
       140    211.9099    698.1328 300.0585266 +22.6461442      311.163     72.50012      1.230     2.15     3.449379     20.41293     60.51984         6     0.735     0.528 -45.31   0
       141    180.8075    697.9167 300.0489296 +22.6367486     628.3998     72.27908      1.464     3.16     3.498204     20.41293      80.7915        13     1.034     0.842   1.13   0
       142    501.2432    696.7747 300.1489614 +22.7325550     520.6589     72.38969      1.279     2.91     3.810223     20.41293     61.57379         7     0.812     0.590  54.67   0
       143    402.1660    696.1152 300.1183463 +22.7026482     1803.505     72.31597      1.280     2.16     3.585326     20.41293     266.8199        19     0.996     0.906 -56.93   0
       144    435.6849    695.5316 300.1289645 +22.7125351     199.3727     72.44492      1.051     3.37     3.711583     20.41293     41.43202         5     0.767     0.428  23.73   0
       145     56.1052    691.2397 300.0123538 +22.5974057     19751.27     72.35284      1.540     2.85     3.876061     20.41293     2018.565        67     1.372     1.358  14.62   0
       146    977.7067    693.2491 300.2985545 +22.8743714     778.3911     72.38969      1.336     3.69     3.563303     20.41293     84.28767        15     1.219     0.887  86.28   0
       147    487.1176    691.4088 300.1463097 +22.7267786     1124.616     72.29753      1.269     2.45     3.919436     20.41293     145.3545        13     0.923     0.821  18.66   0
       148    522.4909    690.5919 300.1575849 +22.7371529     488.7753     72.26064      1.348     2.96     3.744097     20.41293     66.68497         7     0.849     0.641  42.24   0
       149    542.4205    683.7491 300.1660131 +22.7411656     187.1762     72.35284      1.098     2.62     3.664742     20.41293     50.02095         5     0.744     0.435  67.23   0
       150    570.0278    678.7070 300.1762467 +22.7479970     285.1819     72.27908      1.336     3.89      3.59709     20.41293     56.53022         5     1.054     0.661  52.47   0
       151    905.2502    677.4528 300.2810958 +22.8481228     1171.657     72.38969      1.367     2.58     3.596465     20.41293     146.3049        16     0.986     0.929  14.98   0
       152      2.3268    675.2668 300.0008430 +22.5766828     1256.489     61.77535      1.731     5.19     4.158923     20.41293     111.6084        23     1.543     0.942  84.05  24
       153    771.9463    675.7972 300.2400837 +22.8076966     441.4383     72.31597      1.208     2.06     3.615554     20.41293     75.09892         6     0.707     0.538  44.79   0
       154     68.4781    675.8825 300.0211894 +22.5967164     486.5738     72.44492      1.805     3.56     3.824025     20.41293     48.69703        10     0.970     0.841  23.96   0
       155    450.5582    672.0065 300.1412403 +22.7102455      285.295     72.38969      1.154     2.33     3.894881     20.41293     65.09365         8     0.799     0.613   9.45   0
       156    243.5825    671.2399 300.0771147 +22.6479347      413.811     72.37127      1.730     4.78     3.394329     20.41293     41.76617         7     1.048     0.619 -62.64   0
       157    845.3386    670.0436 300.2648273 +22.8280408     885.3112     72.35284      1.729     4.08     3.657974     20.41293     89.80243        12     1.225     0.671  15.45   2
       158    589.6273    668.8550 300.1855517 +22.7510459     296.3813     72.35284      1.476     3.87     3.565499     20.41293     36.50964         5     0.892     0.482 -86.78   0
       159    407.2681    664.2640 300.1302880 +22.6950393     762.3313      72.4081      1.217     2.54     3.653607     20.41293     104.8763        13     0.898     0.850 -71.38   0
       160    555.0997    662.8239 300.1767627 +22.7389615      522.639     72.29753      1.182     2.39     3.723858     20.41293     71.27078         6     0.708     0.567 -53.41   0
       161    572.7743    661.0462 300.1828430 +22.7437510     572.4848     72.37127      1.360     2.57     3.665162     20.41293     94.97454         9     0.886     0.670 -59.53   0
       162    602.3185    661.1891 300.1919953 +22.7526506     448.1772     72.31597      1.293     2.72     3.546636     20.41293     74.76926        10     0.888     0.725  -5.86   0
       163    451.7395    660.1767 300.1454534 +22.7072049     951.2628      72.3344      1.400     3.50     3.923248     20.41293     122.4649        18     1.250     0.998  14.56   0
       164    885.0867    655.5495 300.2819300 +22.8357889     3234.908     72.35284      1.301     2.29     3.638023     20.41293     452.3696        22     1.015     0.952  19.47   0
       165    416.9218    655.6573 300.1360890 +22.6954651     1784.633     72.38969      1.271     1.99     3.710974     20.41293     282.5677        20     1.013     0.923 -53.82   0
       166    983.1807    653.5024 300.3131839 +22.8645920      665.172     72.27908      1.420     2.92     3.597759     20.41293     86.24821        11     0.960     0.767  49.29   0
       167    782.4544    652.3250 300.2509887 +22.8041054     240.6699     72.38969      1.160     4.41     3.636507     20.41293     40.89895         7     0.939     0.825 -77.42   0
       168    767.4000    651.3229 300.2466234 +22.7993055     285.3743     72.22372      1.210     4.55     3.619869     20.41293     32.48673         7     0.933     0.631 -19.87   0
       169    445.9204    646.4805 300.1480947 +22.7015291      289.204     72.48173      1.216     3.02     3.912749     20.41293     54.11908         7     0.890     0.530  84.05   0
       170    924.6737    645.1030 300.2976686 +22.8446497     185.6268     72.48173      1.125     3.99     3.616823     20.41293     39.42924         7     0.737     0.687  88.32   0
       171    280.2922    642.4501 300.0978861 +22.6506900     9043.226     72.38969      1.297     2.30     3.438513     20.41293      1039.13        39     1.145     1.118  75.57   0
       172    402.7767    639.4257 300.1369643 +22.6865646      8871.46     72.31597      1.259     2.17     3.717243     20.41293     1243.988        41     1.137     1.079 -80.66   0
       173    167.9822    636.6131 300.0648706 +22.6153177     281.6505     72.31597      1.585     3.85     3.500494     20.41293     32.45691         5     0.890     0.479  -6.89   0
       174   1007.5219    634.7089 300.3268854 +22.8664842     832.5272     72.50012      1.334     2.86     3.632214     20.41293     106.6566        15     1.012     0.877  29.40   0
       175    814.4126    633.2291 300.2671556 +22.8081987     1937.439     72.35284      1.277     2.24     3.657974     20.41293      231.799        18     1.034     0.841 -81.57   0
       176    899.0734    630.5782 300.2944079 +22.8328064     12416.11     72.35284      1.328     2.28     3.648143     20.41293     1825.108        51     1.244     1.156 -58.83   0
       177    463.3424    629.0302 300.1591879 +22.7017458     11605.87     72.37127      1.251     2.10     4.038286     20.41293     1671.297        45     1.112     1.086 -74.82   0
       178    190.6672    624.6101 300.0758221 +22.6186819     1410.211     72.35284      1.421     2.45     3.460149     20.41293      191.389        19     1.121     0.902 -40.01   0
       179    632.9285    624.7733 300.2133641 +22.7513729     606.2336      72.3344      1.237     2.11     3.580945     20.41293     97.79845        10     0.817     0.715 -89.29   0
       180    348.6271    623.5930 300.1252660 +22.6657792     273.7511     72.35284      1.312     3.62     3.605327     20.41293     47.69173         6     0.886     0.706  85.96   0
       181    437.8304    622.1216 300.1534947 +22.6921120     449.6323     72.35284      1.377     4.06     3.919281     20.41293     48.01432         8     0.923     0.690  56.78   0
       182    395.0815    617.2247 300.1417860 +22.6778855     4422.459      72.3344      1.291     2.14     3.762091     20.41293     645.1405        30     1.061     1.060 -83.12   0
       183    737.9115    616.9329 300.2486136 +22.7805907     857.7856     72.46333      1.271     2.48     3.606926     20.41293     128.8665        11     0.893     0.730  75.07   0
       184    373.3692    615.6215 300.1355527 +22.6709132     1279.771     72.35284      1.267     2.33      3.70205     20.41293     173.9825        16     0.956     0.878  20.21   0
       185    127.4629    614.9385 300.0593231 +22.5969422     824.8082     72.38969      1.491     3.04     3.698567     20.41293     96.02042        14     1.046     0.850  33.21   0
       186    814.8777    612.5613 300.2740182 +22.8024016      1484.65      72.3344      1.344     2.75     3.657974     20.41293     172.0833        17     1.088     0.849 -52.60   0
       187    511.6306    604.7253 300.1821154 +22.7092498     199602.4     72.37127      1.243     2.04     4.194837     20.41293     31496.91       227     1.453     1.438 -66.42   0
       188    335.3557    611.0963 300.1251997 +22.6582125     322.3262     72.37127      1.131     2.57     3.604154     20.41293      55.8575         6     0.737     0.583 -29.11   0
       189    695.2794    609.5202 300.2377415 +22.7656838     805.5175     72.48173      1.199     2.30     3.609276     20.41293     125.9211        14     0.885     0.873 -79.53   0
       190    899.7727    605.9162 300.3026419 +22.8259308     105.2865     72.35284      1.168     4.43     3.685628     20.41293     37.77071         6     0.977     0.572 -67.48   0
       191    197.7492    604.7946 300.0844630 +22.6151228      3447.54      72.3344      1.378     2.36     3.472451     20.41293      479.236        24     1.049     0.992  44.07   0
       192    763.4753    600.7441 300.2618403 +22.7836029     498.5186     72.38969      1.089     1.75     3.641249     20.41293     75.55322         5     0.640     0.469 -66.64   0
       193    377.3192    600.9578 300.1415470 +22.6678899     291.5027      72.3344      1.071     2.12     3.751292     20.41293     47.18168         5     0.819     0.466 -88.90   0
       194    402.2036    585.2805 300.1543829 +22.6708540      2855.13     72.26064      1.347     2.25     3.875827     20.41293     393.6626        27     1.385     0.951 -85.97   0
       195    246.5025    587.3048 300.1053020 +22.6247321     455.0178      72.5369      1.090     3.03      3.52093     20.41293     67.75934         5     0.722     0.450  67.22   0
       196    852.0164    584.8381 300.2946041 +22.8055665     265.8362     72.35284      1.350     2.95     3.774871     20.41293     53.16556         5     1.100     0.457 -68.14   0
       197    820.0044    583.3174 300.2851203 +22.7955375      285.438     72.27908      1.657     3.71     3.744248     20.41293      31.5346         5     0.877     0.465   0.56   0
       198    506.6891    580.1255 300.1885716 +22.7007065     289.1184     72.51851      1.185     2.80     4.253413     20.41293     39.82338         5     0.753     0.423 -72.47   0
       199    719.4745    573.5333 300.2569740 +22.7626007     264.5863     72.42652      0.998     2.61     3.638593     20.41293     54.70197         6     0.823     0.469 -14.66   0
       200    799.1647    571.1234 300.2825880 +22.7857900     1634.493     72.31597      1.246     2.03     3.745594     20.41293     276.2481        18     0.972     0.895  31.46   0
       201    670.4455    568.8201 300.2432327 +22.7465522     2577.797      72.4081      1.203     1.99     3.663774     20.41293     410.0272        21     1.004     0.887  56.61   0
       202    308.9951    568.8006 300.1307460 +22.6381689      295.881     72.16831      1.540     3.89     3.643597     20.41293     24.61843         5     0.840     0.516  56.11   0
       203    914.8254    566.3881 300.3201813 +22.8190835     474.3996     72.35284      1.189     2.84     3.900018     20.41293     84.27919         8     0.886     0.612 -31.85   0
       204    575.3754    565.4030 300.2147375 +22.7170728     525.4554     72.29753      1.179     3.19     4.148407     20.41293     59.08192         7     0.930     0.531  42.73   0
       205    880.0795    565.3992 300.3096696 +22.8083898     329.1975     72.24218      1.220     3.43     3.901603     20.41293     42.37098         6     0.944     0.598 -25.32   0
       206    457.6706    564.6528 300.1783440 +22.6815668      589.543      72.3344      1.180     2.37      4.19822     20.41293     107.3799        11     0.894     0.770 -68.04   0
       207    927.7340    562.7654 300.3253837 +22.8219097     1319.338     72.35284      1.331     2.34     3.916961     20.41293     173.9645        17     0.935     0.932  36.29   0
       208    799.4821    561.1669 300.2859223 +22.7830250     2212.896     72.31597      1.460     2.61     3.769041     20.41293     285.6658        24     1.503     0.860  72.56   0
       209    913.4214    561.8989 300.3212024 +22.8173730     835.2327     72.27908      1.569     2.32     3.920802     20.41293     109.5342        12     0.879     0.809  22.74   0
       210    552.7025    559.1744 300.2097026 +22.7084873      791.576     72.29753      1.489     3.15     4.248637     20.41293     99.70894         9     0.907     0.691 -22.91   0
       211    837.6700    556.2745 300.2994144 +22.7930619     4114.747     72.42652      1.174     2.07     3.880124     20.41293     592.0035        24     0.970     0.950 -43.31   0
       212    391.1699    558.2828 300.1597229 +22.6597965      436.568     72.37127      1.356     3.84     3.897915     20.41293     43.37815         7     0.853     0.601 -27.99   0
       213    478.7413    556.0480 300.1876971 +22.6854148     195.1554      72.4081      1.197     3.95     4.329409     20.41293     32.56048         5     0.867     0.515 -37.20   0
       214    338.4423    559.2695 300.1430010 +22.6442662     278.2873     72.31597      1.169     3.08     3.695237     20.41293     46.90845         7     0.804     0.668 -13.35   0
       215    498.2620    552.4830 300.1949308 +22.6902443     433.1326     72.44492      1.471     2.86     4.334118     20.41293     58.55145         7     0.811     0.659  71.19   0
       216    929.6040    546.9706 300.3310992 +22.8179312     768.8126     72.31597      1.411     3.02     3.998617     20.41293     111.7939        15     1.047     0.934 -22.14   0
       217     69.8159    546.9402 300.0635074 +22.5601407     1021.526     72.31597      1.422     2.18     3.926947     20.41293     150.3969        14     0.971     0.837  72.95   0
       218    730.6251    540.6398 300.2711363 +22.7564947     299.9651     72.38969      1.278     4.12     3.666197     20.41293     42.92942         7     1.079     0.448  59.41   0
       219    117.5676    538.8269 300.0809792 +22.5721419     242.7257     72.35284      1.304     3.70     3.908333     20.41293     51.36239         6     0.941     0.564 -26.58   0
       220     90.3604    538.7585 300.0725481 +22.5639587     216.7784     72.44492      1.231     4.92     3.927393     20.41293     30.93282         5     1.089     0.629  25.61   0
       221    868.7148    544.0139 300.3130756 +22.7988407      330.292     72.29753      1.403     2.30     4.010065     20.41293     47.62716         5     0.759     0.465 -31.82   0
       222    926.0245    535.5079 300.3337076 +22.8135651     233.6203     72.29753      1.246     2.90     4.010065     20.41293     60.18348         6     0.914     0.593  58.80   0
       223    669.8640    530.8587 300.2553862 +22.7354757     574.3089     72.38969      1.250     1.97      3.71924     20.41293     87.87656         8     0.778     0.592 -50.19   0
       224    558.7483    528.5034 300.2215501 +22.7014934     400.0877     72.42652      1.430     2.70     4.318887     20.41293     50.20195         7     0.807     0.629 -80.69   0
       225    610.9931    526.8085 300.2383676 +22.7166675     833.7386     72.20525      1.199     2.26     4.205734     20.41293     116.3342        10     0.828     0.706  70.55   0
       226   1018.4919    524.2562 300.3662026 +22.8380274     1072.802      72.4081      1.461     2.96     3.936146     20.41293     112.2141        16     1.159     0.809 -37.25  16
       227    925.5585    519.0833 300.3388988 +22.8087056      583.165     72.31597      1.308     3.02     4.010065     20.41293     93.55659        11     1.021     0.752  59.61   0
       228    671.9078    519.0073 300.2598732 +22.7326844     852.9375     72.26064      1.203     2.00     3.723331     20.41293     156.2524        11     0.855     0.711  87.91   0
       229    829.0936    515.0935 300.3101214 +22.7786609     875.3806     72.51851      1.192     1.98     3.898286     20.41293     166.0255        14     0.991     0.775 -52.31   0
       230    793.9453    511.6596 300.3002824 +22.7671436     260.2294      72.4081      1.043     2.26     3.800911     20.41293     54.44594         7     0.706     0.637   4.92   0
       231    813.3425    511.3145 300.3064398 +22.7728561     763.0884     72.46333      1.260     2.33     3.848607     20.41293     97.74142         9     0.794     0.689  28.68   0
       232    557.6730    509.6148 300.2273518 +22.6957473     3206.763     72.35284      1.162     2.06     4.380765     20.41293     490.1636        24     1.028     0.896  46.49   0
       233    917.9134    508.1873 300.3400549 +22.8032844      519.011     72.29753      1.299     2.92     4.010065     20.41293      81.2538        10     1.022     0.659  -5.60   0
       234     33.7967    501.0056 300.0672406 +22.5361574     312.4217     72.16831      1.472     3.05     4.014983     20.41293     40.93387         5     0.882     0.637 -62.70   0
       235    562.8440    497.4655 300.2329085 +22.6938087     260.0172      72.3344      1.048     1.82     4.406474     20.41293     57.88155         5     0.681     0.466  21.04   0
       236    397.7066    496.7166 300.1817580 +22.6440851     294.9148      72.5369      1.145     2.63     4.031303     20.41293      45.2854         6     0.719     0.562  45.00   0
       237    329.5164    497.2708 300.1603668 +22.6237959     351.7391     72.48173      1.310     3.02     3.894471     20.41293     40.29338         5     0.731     0.439  65.79   0
       238    968.9731    488.5841 300.3623462 +22.8129439     1272.149     72.37127      1.274     2.45     3.998118     20.41293     196.2504        17     0.977     0.891  -8.46   0
       239    840.9391    488.4486 300.3224697 +22.7745540     557.6485      72.4081      1.306     2.38     3.935546     20.41293     79.16324         8     0.791     0.653 -47.53   0
       240    927.4836    487.1839 300.3498624 +22.8001149     912.2472     72.31597      1.314     2.84     4.010065     20.41293     120.1887        15     1.002     0.895 -51.67   0
       241    577.6687    485.4930 300.2414131 +22.6948142     297.3689     72.48173      0.976     3.05     4.390583     20.41293     47.90715         5     0.721     0.467  18.84   0
       242    668.1932    483.4617 300.2702635 +22.7213617     955.5848     72.31597      1.104     1.99     3.816358     20.41293     169.8326        12     0.836     0.740  57.58   0
       243    463.9642    484.1471 300.2064571 +22.6603425     469.0768     72.37126      1.071     1.99      4.47545     20.41293     86.17085         8     0.730     0.634  27.36   0
       244    172.0100    481.8589 300.1164031 +22.5721317     800.5442     72.31597      1.507     2.94     3.891411     20.41293      80.0809        11     0.871     0.833 -83.06   0
       245     11.8409    480.2298 300.0671693 +22.5236102     263.5107     72.37126      1.577     4.33     4.099441     20.41293     31.05372         5     0.790     0.675  34.12   0
       246    234.5397    477.6534 300.1372059 +22.5896811     3672.092      72.4081      1.329     2.30      3.91307     20.41293     487.8666        28     1.096     1.071  66.31   0
       247    967.6698    475.8303 300.3660828 +22.8088879     4266.886     72.35284      1.307     2.12     3.999849     20.41293     602.8776        30     1.084     1.078  31.35   0
       248    181.7807    472.4011 300.1225118 +22.5723490     7607.907     72.27908      1.323     2.35     3.909422     20.41293     941.0859        36     1.154     1.056  65.44   0
       249    784.0272    473.1987 300.3096857 +22.7531220     121.5934     72.29753      1.032     3.80     3.800464     20.41293     29.59495         5     0.831     0.500  54.22   0
       250    686.5530    472.6430 300.2794965 +22.7237560     311.9723     72.38969      1.320     3.90     3.769134     20.41293     34.12968         6     0.911     0.479  -1.37   0
       251    947.5413    466.8904 300.3627093 +22.8002899     1800.808     72.42652      1.260     1.95     4.000915     20.41293     289.6369        20     1.065     0.883  68.72   0
       252    322.5518    466.5880 300.1681669 +22.6129008     4804.677     72.37127      1.240     2.13      3.93905     20.41293     693.0239        32     1.057     1.042   2.67   0
       253    566.7369    463.2098 300.2452475 +22.6851383     18267.82     72.29753      1.211     1.96     4.430851     20.41293     2949.192        54     1.169     1.059  70.77   0
       254    584.4423    463.2327 300.2507527 +22.6904516     826.0528      72.4081      1.823     6.09     4.362957     20.41293      71.0825        14     1.580     0.659 -36.55   0
       255    763.7861    453.5177 300.3097709 +22.7414032     450.0471      72.3344      1.439     3.55      3.78766     20.41293     57.25593         7     0.864     0.605 -81.21   0
       256    186.8907    450.0807 300.1313492 +22.5674770     374.3312     72.46333      1.516     5.23     3.940891     20.41293     38.90958         7     1.237     0.626 -26.21   0
       257    900.3336    445.4508 300.3549526 +22.7799890     803.3507     72.37127      1.312     2.80     4.006578     20.41293     126.7716        13     1.102     0.699 -68.71   0
       258    121.4872    443.6090 300.1131250 +22.5460014      2007.12     72.27908      1.359     2.40     3.951773     20.41293     249.1897        22     1.149     0.989  54.56   0
       259    610.2133    443.7255 300.2651130 +22.6925726     204.2811     72.37127      1.016     3.62     4.227295     20.41293     46.19992         5     0.934     0.404  85.25   0
       260    777.3604    434.8141 300.3200755 +22.7400959     292.8557     72.37126      0.989     2.26     3.795982     20.41293       50.949         5     0.738     0.412 -66.26   0
       261    507.4042    432.6798 300.2366928 +22.6585867     6476.917     72.26064      1.187     2.08      4.54656     20.41293     976.1363        34     1.122     0.984  84.81   0
       262    920.9952    432.8466 300.3654887 +22.7825546     1371.191      72.3344      1.378     2.09     4.002627     20.41293     211.5165        17     1.034     0.872   4.66   0
       263    222.2525    432.4518 300.1480662 +22.5730241      688.209     72.38969      1.194     2.15     3.968915     20.41293     114.4135         8     0.803     0.637 -69.72   0
       264     80.1338    425.2371 300.1062422 +22.5283248     565.5037      72.3344      1.355     3.66     3.962507     20.41293     66.47079        10     1.094     0.618 -46.24   0
       265    711.5705    421.5084 300.3038978 +22.7165624     1237.757     72.31597      1.276     2.32     3.742055     20.41293     165.6388        15     1.089     0.758  75.97   0
       266    620.9909    422.8166 300.2752596 +22.6897967       612.28     72.27908      1.370     2.38     4.109667     20.41293     83.90284         8     0.802     0.634 -41.52   0
       267    414.0022    419.0008 300.2120688 +22.6266599     6166.921     72.13135      1.270     2.09      4.07142     20.41293     978.6108        30     1.080     0.982  88.64   0
       268    998.6192    420.1310 300.3938273 +22.8021451     160.3704     72.35284      1.070     3.38     3.933792     20.41293     32.56987         5     0.798     0.416 -68.35   0
       269    805.9549    413.2504 300.3359898 +22.7424656     1524.118     72.37127      1.233     1.90     3.825081     20.41293     259.2696        17     0.899     0.881 -57.07   0
       270    903.3408    413.1400 300.3663839 +22.7716030     745.2534     72.42652      1.382     2.59     4.004014     20.41293     96.25061         9     0.866     0.698 -75.22   0
       271    398.6453    407.7419 300.2109469 +22.6188234     595.0017     72.38969      1.211     2.42     4.032295     20.41293     78.77708         5     0.698     0.461  75.89   0
       272    342.9129    406.0175 300.1941699 +22.6016191      2811.84     72.29753      0.451     2.05     3.994923     20.41293     2124.516         8     0.407     0.321  25.22   0
       273    481.0539    405.0665 300.2374586 +22.6427587     1410.089     72.38969      0.436     2.07      4.44388     20.41293     1098.768         8     0.367     0.359 -23.40   0
       274    759.6757    404.1320 300.3245287 +22.7259818     245.3979     72.42652      0.954     2.36     3.782804     20.41293     50.60601         5     0.756     0.402 -67.96   0
       275    461.4265    403.6371 300.2318145 +22.6364649     434.5473     72.37127      1.683     4.73      4.30714     20.41293     49.10259         7     1.240     0.610 -29.70   0
       276    778.7988    400.8845 300.3315423 +22.7307773     514.6826     72.24218      1.207     1.90     3.792105     20.41293     91.35332         8     0.724     0.640 -39.40   0
       277    283.3126    400.8590 300.1773094 +22.5822676     226.7306     72.42652      1.273     2.38     3.928104     20.41293     45.55001         6     0.833     0.692  82.64   0
       278    301.6264    398.2211 300.1838610 +22.5870019     2507.706      72.3344      1.231     2.15     3.947963     20.41293     359.2603        22     1.003     0.963  83.42   0
       279     19.9485    395.4994 300.0972022 +22.5017377     968.7634     72.44492      1.435     2.97     3.889884     20.41293     117.6663        16     1.110     0.901 -36.68   0
       280    648.9860    392.1642 300.2939320 +22.6893802     221.8328     72.35284      1.031     2.91     3.866321     20.41293     46.07798         5     0.668     0.550  89.08   0
       281    270.9507    387.6934 300.1777402 +22.5747817      29598.7     72.38969      1.323     2.18     3.994424     20.41293     4473.103        76     1.294     1.183  74.30   0
       282    805.5870    384.8613 300.3450938 +22.7341971     1261.376     72.31597      1.155     2.03     3.812543     20.41293     217.9865        15     0.958     0.815 -69.46   0
       283    761.0378    382.5448 300.3319629 +22.7201868     229.4167     72.35284      0.994     2.99     3.779476     20.41293     46.91403         6     0.911     0.481  77.20   0
       284    844.5239    374.0652 300.3607357 +22.7427566     370.8445     72.44492      1.773     3.96     3.943271     20.41293     31.21279         5     1.360     0.330 -40.19   0
       285    720.9869    373.9366 300.3222789 +22.7057152     507.8391     72.31597      1.273     2.68     3.765459     20.41293     76.04875        10     0.858     0.742 -25.50   0
       286    369.3286    373.1281 300.2130655 +22.6000963     662.6736      72.4081      1.535     2.86     3.986192     20.41293     70.44859        10     0.917     0.685 -53.69   0
       287    145.2634    373.7441 300.1431986 +22.5330857     412.7187      72.4081      1.400     3.32     3.984964     20.41293     61.90438         9     1.013     0.675  48.82   0
       288    681.3590    367.2478 300.3121055 +22.6919213     1983.422      72.4081      1.268     2.05     3.761686     20.41293     296.0154        21     1.032     0.942  67.19   0
       289    489.4477    361.9726 300.2540631 +22.6328987     323.2329     72.37127      0.994     2.49     4.118412     20.41293       55.426         6     0.754     0.493 -83.43   0
       290    896.4539    360.0154 300.3814869 +22.7542703     607.6606     72.35284      1.357     2.34     4.013139     20.41293     93.23989        11     0.859     0.783 -22.42   0
       291    760.7552    361.1842 300.3388103 +22.7139639     322.1993     72.37127      1.507     4.43     3.775424     20.41293     27.31567         5     0.774     0.721  52.82   0
       292    749.9814    353.6461 300.3379006 +22.7085704     241.9296     72.38969      1.045     4.18     3.772411     20.41293     36.60684         6     1.208     0.413 -12.28   0
       293    343.0861    351.9996 300.2117620 +22.5861627     1990.487     72.22372      1.370     2.79     4.032429     20.41293     259.8224        19     1.156     0.845  64.46   0
       294    555.2984    350.5920 300.2782561 +22.6493646     284.5023     72.22372      1.076     3.40      4.24913     20.41293     35.70326         5     0.738     0.454 -18.95   0
       295    781.9945    344.6771 300.3507882 +22.7155819      560.744     72.26064      1.255     2.37     3.796998     20.41293     98.20699        11     0.847     0.799  35.12   0
       296    774.6683    345.2491 300.3483194 +22.7135519     215.9509     72.35284      1.225     3.44     3.796647     20.41293     39.57012         5     0.762     0.449 -76.62   0
       297    664.5491    342.1167 300.3150285 +22.6796644     492.3264     72.37127      1.310     4.04     3.827777     20.41293     59.72488         6     0.939     0.497 -88.54   0
       298    632.7219    341.4734 300.3053246 +22.6699441     231.4877     72.46333      1.091     2.92     3.901557     20.41293     53.21856         6     0.877     0.447 -88.16   0
       299    419.0154    331.4539 300.2420526 +22.6030239     1290.922     72.35284      1.308     2.40     3.838041     20.41293     167.0925        15     0.925     0.849 -52.33   0
       300    503.9588    328.9094 300.2693132 +22.6277513     151.6868     72.35284      1.064     2.41      4.18357     20.41293     42.68379         5     0.616     0.579 -85.13   0
       301    930.5043    326.6950 300.4029219 +22.7548875     282.9081     72.51851      1.132     3.13     4.028968     20.41293     52.88334         9     0.882     0.763 -87.52   0
       302    802.2214    324.2387 300.3637270 +22.7157659      219.809     72.37127      1.198     3.88     3.848084     20.41293     41.56399         6     0.788     0.549  44.04   0
       303    663.7410    323.1435 300.3209360 +22.6739708     2031.915     72.42652      1.150     1.91     3.874667     20.41293     389.8202        16     0.915     0.794  85.49   0
       304    925.0219    317.3718 300.4042389 +22.7505655         3158     72.35284      1.253     2.08     4.034062     20.41293     500.2602        23     1.022     0.956 -82.52   0
       305    746.7725    314.0090 300.3497683 +22.6962182     217.9253     72.35284      1.286     3.85      3.88584     20.41293     24.09609         5     0.834     0.510 -35.31   0
       306    986.5944    311.9532 300.4252007 +22.7674422     379.3448      72.3344      1.218     3.76     4.046108     20.41293     56.32195         8     0.889     0.674  77.12   0
       307    372.1712    306.9234 300.2354413 +22.5819384     608.2727      72.3344      1.222     2.64     4.044437     20.41293     84.28712        11     0.836     0.818  20.37   0
       308    994.5292    305.1714 300.4298772 +22.7678676     1578.488     72.35284      1.225     2.42     4.055673     20.41293     213.3476        18     1.035     0.886 -59.84   0
       309     77.7246    301.1107 300.1457896 +22.4919853     495.4977     72.50012      1.303     3.44      4.13446     20.41293     72.14953        11     1.084     0.764  71.06   0
       310     47.0396    301.4146 300.1361584 +22.4828693     1552.262     72.37127      1.688     3.48     3.978938     20.41293     170.1918        23     1.331     1.048 -13.74   0
       311    940.6423    297.9521 300.4154137 +22.7496590     553.2381     72.38969      1.412     2.13     4.048811     20.41293     90.38805         6     0.690     0.635 -56.07   0
       312    987.1859    296.3685 300.4304440 +22.7631379     129.5735     72.35284      1.080     3.48     4.064031     20.41293     28.44851         5     0.780     0.448  16.26   0
       313    784.7609    294.7138 300.3678692 +22.7020504      358.252      72.3344      1.499     3.50     3.919783     20.41293     41.97081         6     0.776     0.524  46.85   0
       314    130.9737    293.0883 300.1649388 +22.5056522     502.5809     72.31597      1.443     4.87     4.267445     20.41293     53.35269         9     0.997     0.675  51.84   0
       315    925.7383    290.1056 300.4133129 +22.7429407     293.6318     72.44492      1.132     4.17     4.049216     20.41293     41.96115         7     0.717     0.707 -88.59   0
       316    806.9224    286.5979 300.3774102 +22.7063545     359.8859     72.26064      1.260     3.28     3.948866     20.41293     56.76362         7     0.962     0.600 -16.02   0
       317    735.3429    284.3626 300.3558298 +22.6842745     574.9724     72.35284      1.091     2.45     3.972477     20.41293     82.39291         7     0.828     0.535  68.61   0
       318    325.7501    284.1007 300.2284093 +22.5614699      300.218     72.44492      1.091     3.09     4.183137     20.41293     55.45346         7     0.748     0.643 -77.70   0
       319    826.1486    277.5386 300.3863431 +22.7095079     284.3409      72.4081      1.073     3.22     4.040386     20.41293     56.32213         6     0.903     0.549  67.63   0
       320    833.5427    273.6183 300.3899202 +22.7105951     1997.429      72.3344      1.218     2.16     4.077529     20.41293     270.6971        17     0.994     0.832  48.31   0
       321    252.1239    271.0628 300.2097449 +22.5356548     2145.008      72.4081      1.305     2.31     4.272583     20.41293     298.6827        20     1.045     0.891  67.96   0
       322    329.8707    266.0952 300.2355342 +22.5575347     1133.335     72.46333      1.507     2.62     4.183137     20.41293     141.0657        16     1.044     0.942  80.82   0
       323     82.1578    266.5901 300.1583699 +22.4834077     303.0344     72.35284      1.179     2.57     4.364695     20.41293     45.69441         5     0.709     0.461 -18.54   0
       324    732.0433    264.8844 300.3611235 +22.6776880     568.6182     72.31597      1.295     2.43     4.000458     20.41293     95.07743        11     0.882     0.765 -53.53   0
       325    838.8730    262.1731 300.3952963 +22.7089009     303.7834     72.35284      1.107     1.94     4.159762     20.41293     69.39446         6     0.711     0.513 -61.15   0
       326    146.7996    258.2774 300.1811538 +22.5004059     752.2294     72.22372      1.530     3.37     4.352972     20.41293     93.25253        16     1.135     0.987  29.38   0
       327    264.5945    257.8093 300.2179233 +22.5355881     318.0491     72.20525      1.361     3.65     4.241156     20.41293     30.87848         5     0.997     0.384  -5.26   0
       328    684.6093    255.0099 300.3495504 +22.6606428      1667.22     72.24218      1.215     2.08     4.003822     20.41293     272.1609        16     0.911     0.815  80.68   0
       329    749.5095    254.4859 300.3699403 +22.6799302     511.9216     72.51851      1.042     2.16     4.051237     20.41293      99.8833         8     0.810     0.602 -87.50   0
       330    168.0609    251.2426 300.1900444 +22.5047614     627.1099      72.3344      1.367     2.89     4.340973     20.41293     96.52856        12     1.062     0.716 -74.84   0
       331    956.0471    247.4699 300.4366024 +22.7397548     903.1511      72.3344      1.247     2.25     4.095523     20.41293     130.5219        14     0.936     0.796  45.85   0
       332    688.5889    246.3227 300.3536092 +22.6593381     710.2523     72.35284      1.227     2.47     4.017768     20.41293     105.2918        11     0.946     0.725  89.93   0
       333    609.1460    245.6671 300.3290786 +22.6353532     1240.311     72.38969      1.285     2.65     4.017698     20.41293     204.8831        16     1.027     0.808  75.29   0
       334    458.1777    247.5959 300.2814556 +22.5906754     309.0534     72.31597      1.217     2.21     4.242176     20.41293     54.05582         5     0.699     0.449 -21.62   0
       335    430.0606    242.1158 300.2744843 +22.5806756     382.5828     72.46333      1.283     2.92     4.217288     20.41293     52.70448         9     0.798     0.749  39.32   0
       336    804.5824    237.3425 300.3926662 +22.6914946     1308.035      72.3344      1.118     2.04     4.306415     20.41293     205.3984        16     0.911     0.843  34.84   0
       337    535.2159    237.5555 300.3086922 +22.6108741      919.728     72.37127      1.185     2.40     4.293419     20.41293     127.2144        12     0.865     0.765  61.89   0
       338    816.6620    236.0220 300.3968596 +22.6947321      818.545      72.3344      1.250     3.52     4.317178     20.41293     105.6207        13     1.024     0.799 -77.19   0
       339      1.6974    236.4121 300.1431682 +22.4506164     253.4344     58.28813      1.536     4.15     4.955671     20.41293     29.38067         6     0.902     0.545  41.93  24
       340    863.1981    235.0363 300.4116858 +22.7083825     314.7952     72.35284      1.225     2.88     4.336427     20.41293     40.40794         6     0.876     0.460 -53.37   0
       341    977.5212    226.9709 300.4499522 +22.7402878     1657.958     72.35284      1.317     2.45     4.112468     20.41293     223.1306        19     0.995     0.973 -31.49   0
       342    933.4101    226.5435 300.4363337 +22.7269605     1020.484      72.3344      1.150     2.18     4.111951     20.41293     162.9212        14     0.877     0.829  80.20   0
       343    167.4888    220.2610 300.1999192 +22.4956957     809.3934     72.42652      1.508     2.85     4.380793     20.41293     94.56987        13     1.015     0.821  33.21   0
       344     49.6378    218.9779 300.1637158 +22.4599902     288.6826     72.37127      1.409     2.68     4.904167     20.41293     39.85316         5     0.849     0.474  83.62   0
       345     29.3485    214.7568 300.1587827 +22.4526942     2162.743     72.38969      1.459     2.59     5.029027     20.41293     244.4281        20     1.026     0.986  12.50   0
       346    852.3684    211.1564 300.4160583 +22.6982741     610.3391      72.4081      1.072     2.33     4.409066     20.41293     97.36587         7     0.711     0.625 -87.87   0
       347    186.7246    207.9654 300.2098873 +22.4979326     5634.803     72.35284      1.376     2.31     4.384341     20.41293       758.79        34     1.197     1.074  64.79   0
       348    170.0218    198.7229 300.2076942 +22.4902716     584.1322     72.35284      1.379     3.38     4.403112     20.41293     74.19053        12     1.157     0.688  83.26   0
       349    985.5781    195.1537 300.4627892 +22.7335485     18101.55     72.38969      1.325     2.32     4.213911     20.41293     2052.638        58     1.250     1.164 -89.23   0
       350    830.8419    189.2263 300.4164634 +22.6855237      3363.38     72.38969      1.243     2.17     4.437728     20.41293     483.6566        25     1.072     0.929 -63.97   0
       351    934.5344    187.8842 300.4492280 +22.7161795     2667.626     72.46333      1.296     2.40     4.305236     20.41293     389.4694        22     1.126     0.888 -76.12   0
       352    380.2931    184.9333 300.2775530 +22.5493365      636.758     72.50012      1.167     2.74     4.333899     20.41293     90.19168         9     0.906     0.635  62.05   0
       353    133.0817    185.2430 300.2005866 +22.4753268     310.0997     72.31597      1.292     4.83     4.600482     20.41293     49.66224         7     1.013     0.844 -53.56   0
       354    304.1888    176.6231 300.2565768 +22.5241423     733.0632     72.35284      1.588     2.50     4.307792     20.41293     61.50045         9     0.806     0.698  66.95   0
       355     70.5160    173.5514 300.1849386 +22.4532117     689.2007     72.33441      1.351     3.11     4.941901     20.41293     89.24278        13     1.044     0.863 -58.20   0
       356    431.6494    171.8667 300.2977706 +22.5609717     1764.886      72.3344      1.270     2.25      4.36498     20.41293      258.455        20     1.006     0.916  50.25   0
       357    359.4942    172.4087 300.2751458 +22.5395062     492.7661     72.27908      1.097     2.39     4.354245     20.41293     71.21665         9     0.833     0.702 -18.94   0
       358    493.1927    171.3263 300.3170990 +22.5792552       392.47     72.29753      1.270     2.87       4.3253     20.41293     51.69257         6     0.711     0.637 -75.58   0
       359    255.6588    167.4928 300.2444474 +22.5069750     201.7023      72.4081      1.344     4.68     4.379444     20.41293     29.13083         6     1.039     0.599  61.15   0
       360    175.2538    167.2906 300.2195169 +22.4828154     438.8079      72.4081      1.199     3.02     4.439162     20.41293     60.24365         7     0.918     0.584  20.70   0
       361    720.1407    161.3246 300.3910168 +22.6443557     322.5894      72.4081      1.272     2.78     4.622843     20.41293     60.74231         6     0.742     0.583 -46.22   0
       362    371.9553    160.0391 300.2830347 +22.5396871     2178.932     72.42651      0.842     2.75     4.385738     20.41293      724.759        10     0.840     0.427 -81.08   0
       363     76.8103    158.0393 300.1919258 +22.4506459     198.3023     72.35284      1.122     3.82     4.987538     20.41293     31.58808         5     0.837     0.500 -29.18   0
       364    567.2937    157.5839 300.3446248 +22.5975042     266.8125     72.27908      1.324     3.50     4.323907     20.41293     33.80547         5     0.772     0.457 -17.18   0
       365    865.7803    155.4897 300.4382996 +22.6862824     299.2317     72.29753      1.292     3.99     4.461973     20.41293     47.25896         6     0.870     0.522  40.12   0
       366    996.0253    152.4931 300.4798881 +22.7244045     3617.577     72.29753      1.373     2.23     4.304949     20.41293     517.8429        29     1.152     1.029  71.88   2
       367    205.6856    151.9258 300.2339603 +22.4875258     6071.574     72.46333      1.390     2.39     4.504071     20.41293     796.5158        39     1.264     1.112  52.57   0
       368    712.1718    152.1544 300.3915088 +22.6393332     328.5298     72.38969      1.154     2.75     4.660998     20.41293     61.48223         7     0.972     0.486 -21.03   0
       369     56.7404    151.1558 300.1879232 +22.4426524     837.7744     72.37127      1.701     3.17     4.997337     20.41293     93.63419        14     1.060     0.896   9.90   0
       370    378.0819    150.4899 300.2880382 +22.5387799     1660.527     72.46333      0.935     3.42     4.374352     20.41293      532.269         7     0.877     0.385 -34.55   0
       371    835.0869    149.1956 300.4307731 +22.6752841     388.0731     72.27908      1.242     2.92      4.48131     20.41293     65.33212         8     1.011     0.498  54.79   0
       372    177.3063    145.9561 300.2270750 +22.4773048     376.8119     72.37127      1.491     4.03     4.546366     20.41293     35.94682         7     0.731     0.690 -51.99   0
       373    220.8667    142.8578 300.2416209 +22.4894722     409.3355     72.38969      1.375     5.20     4.563616     20.41293     49.79965        10     1.265     0.728  82.00   0
       374    451.6828    137.0631 300.3152941 +22.5569746     6227.298     72.44492      1.292     2.22     4.316339     20.41293     908.6831        32     1.121     1.006  73.27   0
       375    337.0728    136.9314 300.2796792 +22.5225966     584.9698     72.42651      1.260     2.76     4.351891     20.41293     95.91131        12     1.020     0.754 -74.26   0
       376    508.6692    131.8837 300.3347103 +22.5725580     384.2617     72.46333      1.278     2.33     4.318262     20.41293     55.73227         6     0.719     0.585 -19.15   0
       377    704.2443    126.8131 300.3972588 +22.6296742      917.571     72.35284      1.652     2.95     4.741323     20.41293     103.2173        14     1.046     0.837  76.24   2
       378    205.2756    131.3459 300.2405078 +22.4814931     281.4322     72.38969      1.034     2.49      4.64528     20.41293      48.4981         6     0.667     0.645 -61.51   0
       379    645.4774    128.3486 300.3784548 +22.6125178     338.3654      72.3344      1.208     3.69     4.588493     20.41293     44.74292         6     0.939     0.417  70.94   0
       380    412.0245    127.3345 300.3061089 +22.5422978     3501.475      72.3344      0.596     1.70     4.348165     20.41293     1685.636         5     0.615     0.152 -87.14   0
       381    796.7017    125.5819 300.4264683 +22.6570025     411.2642     72.27908      1.143     2.50     4.556878     20.41293     74.34435         8     0.885     0.568 -72.43   0
       382    144.5588    120.5649 300.2251320 +22.4601975     560.4239      72.4081      1.579     4.33      4.78437     20.41293     56.68344        12     1.007     0.933 -82.37   0
       383    503.1575    119.5514 300.3369945 +22.5673631      647.786     72.37127      1.391     1.90     4.298278     20.41293     76.61454         7     0.749     0.559 -76.77   0
       384    580.1442    117.1491 300.3617413 +22.5897323     6245.494     72.38969      1.269     2.16     4.399299     20.41293     932.5983        35     1.135     1.014  83.51   0
       385    355.0525    116.2150 300.2919908 +22.5220332      1468.45      72.3344      1.283     2.22     4.335641     20.41293     207.5467        17     1.009     0.838  89.65   0
       386    621.4129    114.3914 300.3754869 +22.6012991     899.4374     72.24218      1.313     2.70     4.473696     20.41293     128.6103        14     0.956     0.873 -37.84   0
       387    690.6995    112.0788 300.3978181 +22.6213825     436.9803     72.48173      1.467     3.23     4.788021     20.41293     47.05846         7     0.834     0.610  73.14   0
       388    637.1136    110.3398 300.3816908 +22.6048364     589.8364     72.44492      1.157     2.27     4.579804     20.41293     86.12302         8     0.747     0.666 -44.14   0
       389    103.8305    108.4269 300.2164118 +22.4445032     745.9897     72.35284      1.727     3.20     4.979533     20.41293     82.29126        13     1.111     0.822  76.88   0
       390    906.9444    107.8542 300.4665852 +22.6849040      582.989     72.38969      1.362     2.11     4.398507     20.41293     96.20512         8     0.773     0.632 -48.83   0
       391    675.5442    105.9259 300.3950925 +22.6150756       525.23     72.38969      1.247     2.47     4.806244     20.41293     76.29078        10     0.948     0.602 -30.65   0
       392    624.2487    102.0159 300.3803836 +22.5985911     2630.078     72.38969      1.242     2.14      4.51898     20.41293     410.0995        21     1.035     0.877 -82.52   0
       393    265.1238    102.9762 300.2683156 +22.4912824     407.5297     72.37126      1.317     3.06     4.510137     20.41293     57.08112         7     0.866     0.610  73.59   0
       394    639.3314    100.8572 300.3854569 +22.6027747     1055.132     72.37126      1.874     4.53     4.611965     20.41293     100.2911        15     1.367     0.755  60.27   0
       395    710.7540     93.5689 300.4100689 +22.6220657     1489.793      72.4081      1.230     2.16      4.83701     20.41293     236.3414        16     0.984     0.833  51.06   0
       396    871.0354     91.9041 300.4605620 +22.6695687      275.179     72.35284      1.113     2.28     4.439924     20.41293     58.98428         6     0.720     0.548 -55.80   0
       397    789.0537     88.0381 300.4362610 +22.6439170     278.8738     72.35284      1.272     3.01      4.70183     20.41293     40.30701         5     0.648     0.567 -88.80   0
       398    648.8457     86.6244 300.3930359 +22.6015323     664.6768     72.37126      1.191     2.46     4.724486     20.41293     111.4404        11     0.872     0.778 -68.19   0
       399    454.3255     86.2208 300.3326055 +22.5431573     1037.394     72.35284      1.210     2.39     4.237988     20.41293      154.179        14     0.913     0.818  74.47   0
       400     26.9164     85.4690 300.1999610 +22.4148535     590.7607     72.46333      1.552     5.61     5.013077     20.41293     56.52568        12     1.497     0.672  77.22   0
       401    358.2554     84.3032 300.3033360 +22.5138251     823.9377     72.44492      1.313     2.51     4.311308     20.41293     111.7396        11     0.852     0.757  88.75   0
       402    740.5628     82.8696 300.4228262 +22.6279140     446.2766      72.3344      1.270     3.07     4.868206     20.41293     64.51301         6     0.737     0.632 -29.43   0
       403   1001.1486     80.8365 300.5047279 +22.7053235     2255.213     72.37126      1.354     2.26     4.300225     20.41293     333.3377        22     1.090     0.989  58.09   0
       404    697.7373     74.9278 300.4120587 +22.6128088     599.2935     72.38969      1.347     2.83     4.902909     20.41293     83.82991        10     0.971     0.657  80.89   0
       405    129.6531     74.4640 300.2354493 +22.4424917     3712.528     72.38969      1.408     2.43     4.944179     20.41293     410.2296        30     1.221     1.054  33.27   0
       406    552.1057     71.0984 300.3679455 +22.5680989     330.8927      72.5369      1.412     4.46     4.672875     20.41293     34.83387         8     0.847     0.667 -44.36   0
       407    455.5869     71.3688 300.3378141 +22.5392674     298.9157      72.3344      1.194     3.56     4.222894     20.41293     44.41055         6     0.817     0.548  49.66   0
       408    690.7504     66.7304 300.4125403 +22.6083600     924.5631     72.35284      1.330     2.38     4.929147     20.41293     147.6246        14     1.019     0.771  74.70   0
       409    245.5025     66.6425 300.2739966 +22.4749662     1149.306     72.35284      1.331     2.42     4.688062     20.41293     147.2283        17     0.968     0.961  61.42   0
       410    656.9974     65.6210 300.4023858 +22.5979349      364.446     72.29753      1.362     3.56     4.852896     20.41293     42.18152         7     0.760     0.635 -23.11   0
       411    472.1443     63.0472 300.3456654 +22.5418355      289.878     72.38969      1.397     4.86     4.180055     20.41293     39.25751         7     1.097     0.610  89.24   0
       412    728.7002     61.5510 300.4260431 +22.6182326     739.3478      72.4081      1.573     3.07     4.956666     20.41293     78.24112        10     1.029     0.610  79.88   0
       413    652.0474     61.4444 300.4021983 +22.5952520     430.2404     72.38969      1.088     2.42     4.850317     20.41293      74.6515         8     0.867     0.621  77.57   0
       414    748.7243     57.9164 300.4334609 +22.6231821     2171.899     72.44492      1.245     2.07     4.957376     20.41293     345.4733        18     1.015     0.829  69.95   0
       415    454.1220     56.2193 300.3422705 +22.5344750     556.4458     72.35284      1.244     3.31     4.216591     20.41293     71.65208         9     0.936     0.714  44.20   0
       416    132.1535     53.4113 300.2430523 +22.4371956     1108.703     72.37126      1.661     3.24     4.944863     20.41293      87.4744        15     1.063     0.911  62.93   0
       417    923.7942     51.0272 300.4902680 +22.6736004     790.1395     72.35284      1.434     3.06     4.305982     20.41293     87.57565        10     0.871     0.789 -45.98   0
       418    697.0169     50.5726 300.4197317 +22.6055904     952.9017     72.37127      1.296     2.18     4.986176     20.41293      139.892        14     0.951     0.802 -64.00   0
       419    119.2163     48.5229 300.2406168 +22.4319141     294.4689     72.35284      1.446     3.63     4.978169     20.41293     49.27325         5     1.036     0.520 -59.14   0
       420    610.6551     42.4381 300.3954695 +22.5773938     6899.144     72.35284      1.635     5.49     4.779238     20.41293     1038.877        19     1.859     0.457 -72.83   0
       421    454.3976     43.0004 300.3466422 +22.5307587     348.6138     72.13135      1.283     3.85     4.207319     20.41293     39.52257         7     0.940     0.588  38.37   0
       422    281.8953     40.1633 300.2938981 +22.4782650     516.0443     72.35284      1.422     2.93     4.364692     20.41293     51.67462         8     0.800     0.671  40.25   0
       423    549.6034     35.2506 300.3787897 +22.5570455     847.9369     72.35284      1.199     2.47     5.002184     20.41293     113.7535        14     0.930     0.834  87.87   0
       424    284.1501     32.9804 300.2969280 +22.4768771     275.8637      72.3344      1.186     2.32     4.345489     20.41293      54.5693         6     0.848     0.450  56.51   0
       425    159.1429     32.6014 300.2581870 +22.4393083     543.0125     72.29753      1.547     2.49     4.879027     20.41293     65.49792         7     0.785     0.591  22.38   0
       426    712.7768     30.1754 300.4312550 +22.6044435     663.0544     72.31597      1.249     2.57     5.067544     20.41293     113.4783        11     0.930     0.704 -83.24   0
       427    521.3191     28.4351 300.3721940 +22.5466160      2088.81     72.29753      1.331     2.15     4.722674     20.41293     281.7811        21     1.095     0.870 -64.11   0
       428    244.0683     25.8516 300.2867757 +22.4628193     574.1458      72.3344      1.313     2.74     4.703222     20.41293     88.54317        11     0.884     0.805  49.26   0
       429    478.5892     22.1624 300.3609270 +22.5320158     1273.136      72.3344      1.300     2.51     4.120657     20.41293      186.583        17     1.065     0.891  66.92   0
       430    584.2148     18.8755 300.3948752 +22.5627028     1156.596     72.37127      1.212     2.25     5.011049     20.41293     204.7544        14     0.926     0.812 -89.88   0
       431    490.3286   1018.8083 300.0407964 +22.8216646     274.7189      72.3344      1.394     5.53     2.096535     20.41293     33.56669         9     1.117     0.773  88.77  16
       432    228.0727     15.9821 300.2850019 +22.4551912     365.7544     72.35284      1.177     2.39     4.846754     20.41293     62.93684         7     0.811     0.536  49.92   0
       433    202.0715   1018.2629 299.9513260 +22.7349709     556.7148     72.38969      1.585     3.64      10.0467     20.41293     56.46419        13     1.023     0.928 -23.11  16
       434     51.1095    997.0266 299.9113348 +22.6835470     1395.135     72.31597      9.261    10.81     37.91928     20.41293     52.98777        29     2.078     1.567 -83.10   3
       435    519.1540   1015.0018 300.0510066 +22.8292238     1603.461     72.35284      1.634     3.38     2.155023     20.41293     124.2436        21     1.158     1.087 -30.14   0
       436    192.7612   1022.7832 299.9469609 +22.7334704     1426.939     61.18979      7.620    12.09     12.12646     20.41293     59.84669        35     2.603     1.731  -2.82  27
       437    409.5228     16.7357 300.3411932 +22.5097692     278.3339     72.44492      1.192     3.32     4.297396     20.41293      40.7002         5     0.745     0.430  65.27   0
