#   1 NUMBER                 Running object number                                     
#   2 X_IMAGE                Object position along x                                    [pixel]
#   3 Y_IMAGE                Object position along y                                    [pixel]
#   4 ALPHA_J2000            Right ascension of barycenter (J2000)                      [deg]
#   5 DELTA_J2000            Declination of barycenter (J2000)                          [deg]
#   6 FLUX_APER              Flux vector within fixed circular aperture(s)              [count]
#   7 FLUXERR_APER           RMS error vector for aperture flux(es)                     [count]
#   8 FLUX_RADIUS            Fraction-of-light radii                                    [pixel]
#   9 FWHM_IMAGE             FWHM assuming a gaussian core                              [pixel]
#  10 BACKGROUND             Background at centroid position                            [count]
#  11 THRESHOLD              Detection threshold above background                       [count]
#  12 FLUX_MAX               Peak flux above background                                 [count]
#  13 ISOAREA_IMAGE          Isophotal area above Analysis threshold                    [pixel**2]
#  14 A_IMAGE                Profile RMS along major axis                               [pixel]
#  15 B_IMAGE                Profile RMS along minor axis                               [pixel]
#  16 THETA_IMAGE            Position angle (CCW/x)                                     [deg]
#  17 FLAGS                  Extraction flags                                          
         1    684.8195     16.1175 300.3928334 +22.6016765     758.2908     71.96841      1.454     2.88      6.45281     20.31483     93.96025        12     0.917     0.861 -61.69   0
         2    490.5550     15.2417 300.3325807 +22.5433058     1141.984     72.07843      1.575     3.50     5.875228     20.31483     119.5233        18     1.210     0.923  52.60   0
         3     63.5430     14.8878 300.1998100 +22.4153743     589.5048     72.07843      1.717     4.50     6.213853     20.31483     76.00866        12     1.354     0.694 -32.48   0
         4    394.1247     12.8718 300.3033177 +22.5137667     822.7521     72.07843      1.659     4.65     5.908372     20.31483     84.04657        15     1.342     0.920  83.96   0
         5    733.7911      3.8958 300.4120602 +22.6128079     579.2554     68.10287      1.516     4.51     6.496498     20.31483      56.5098        12     1.072     0.947 -28.63  16
         6    165.6559      3.2060 300.2353480 +22.4425959     3391.345     65.49319      1.569     3.08     6.760385     20.31483     376.8059        29     1.282     1.136  11.95  24
         7    171.0308    998.0613 299.9141747 +22.7297442     1858.147     72.04178      4.570    15.50     82.72102     20.31483     62.05892        46     3.796     1.761  63.76   3
         8     78.5928   1010.0467 299.8815356 +22.7054418     5344.087     72.02345     16.908    92.95     73.88639     20.31483      159.989      2337    18.502    15.705  32.20  27
         9     70.1272    945.8024 299.8997932 +22.6844864     5652.531     71.91335     34.312   125.16     21.77561     20.31483     1180.981      5376    24.421    17.798 -54.46  27
        10      3.3414    998.7624 299.8618160 +22.6796232     1909.334     66.01537     15.468    20.48    -16.67177     20.31483       46.833        93     3.830     3.043  31.15  27
        11    920.0955    970.5334 300.1564656 +22.9464201     655.9094     72.13338      2.067     6.27     4.310227     20.31483     39.96476        14     1.638     0.894 -21.04   0
        12    213.0010    984.2415 299.9317223 +22.7383740     4882.622      72.0051      8.140    24.49     65.89243     20.31483     99.72054       375     6.038     4.761 -57.63   3
        13     33.6823   1003.8312 299.8695972 +22.6901822      1153.56      72.0051     10.214    10.60     17.65865     20.31483     41.87737        19     2.936     1.066  51.52  16
        14    140.2862    954.2991 299.9188435 +22.7079734     2315.701     72.16998     12.055    16.14     42.15388     20.31483     94.25433        47     2.953     2.508   5.23   3
        15    645.7618    953.3426 300.0765091 +22.8592811     6983.586      72.0051      2.043     4.77     4.311069     20.31483      382.551        48     1.568     1.540  13.65   0
        16    232.0619    972.6619 299.9414167 +22.7407720      7212.22     72.04178      7.889    31.33     48.93799     20.31483     146.0748       673    10.102     4.867  62.40  18
        17    201.9859    959.9055 299.9362090 +22.7280916     2195.431      71.9317      0.414     2.22     44.19554     20.31483     2158.398         5     0.415     0.363  72.63   0
        18    525.2656    947.8892 300.0407400 +22.8215959     514.9862     72.11507      2.065     5.35     4.343748     20.31483      43.0459         9     1.220     0.852  25.99   0
        19    798.9995    947.2119 300.1262747 +22.9034432     433.9094     71.82146      2.823     5.18     4.425833     20.31483     25.51157         5     1.184     0.641  89.97   0
        20    159.9511    945.7789 299.9277288 +22.7114305     1104.265      72.0051      6.507     9.18     35.85933     20.31483     35.14663        15     2.277     1.033 -84.38   2
        21    554.3296    943.9975 300.0510588 +22.8291921     1545.239     71.95006      2.006     5.15      4.37573     20.31483     105.5128        29     1.579     1.250 -53.08   0
        22    448.1511    940.5245 300.0191188 +22.7963625      1077.73      72.0051      2.049     5.00     4.324971     20.31483     73.92601        23     1.425     1.360 -16.85   0
        23    224.2651   1000.1250 299.9300610 +22.7463075     882.9527      72.0601      2.107     6.70     80.28078     20.31483      57.3816        19     1.608     1.099 -39.09   0
        24    165.5579    995.6589 299.9132540 +22.7274133     3044.669     71.98676      6.618    27.20      81.2938     20.31483     63.39768       164     5.361     3.832 -79.03  18
        25    378.6553    938.4083 299.9981707 +22.7749164     6665.523      72.0051      2.005     4.69     4.550863     20.31483     461.3084        48     1.580     1.517  13.43   0
        26    411.3334    925.1118 300.0126665 +22.7809010      809.454     72.11507      2.093     5.91     4.300508     20.31483     39.11483        19     1.358     1.123  63.87   0
        27    926.3126    918.6529 300.1752752 +22.9333827     988.8889     72.04178      1.363     3.86     4.610635     20.31483     94.62451        12     1.022     0.799 -67.70   3
        28    924.0008    917.6182 300.1748903 +22.9323930     1529.768      71.9317      1.893     6.98     4.610676     20.31483      92.3122        20     1.889     1.072 -53.00   3
        29    575.0356    914.7708 300.0670118 +22.8270115     467.5104     72.02345      1.953     5.11      4.55229     20.31483     33.52359         7     0.988     0.748 -86.17   0
        30    605.9194    911.8126 300.0775960 +22.8354195     323.9861     71.98676      1.650     2.35     4.572585     20.31483     34.00655         5     0.903     0.712  -2.15   0
        31    350.1607    997.9064 299.9699551 +22.7834364     533.5677     72.02345      1.870     4.44     4.908344     20.31483     44.30756         6     0.921     0.609  70.11   0
        32    713.8287    905.8630 300.1131622 +22.8660511     748.9491      72.0051      2.011     6.01      4.58887     20.31483     44.96994        14     1.364     0.895  19.11   0
        33      4.2746   1016.3973 299.8563714 +22.6849571       2422.8      69.3709     19.137    34.52    -19.63675     20.31483     59.10862       249     6.695     4.941 -71.07  27
        34    194.0432    985.5105 299.9254130 +22.7330503     3964.244     72.02345      8.164    35.05      69.5388     20.31483     86.70242       313     7.409     4.602 -86.29  19
        35    209.5806    904.1924 299.9566837 +22.7143939     761.4869     71.96841      4.616     5.32     11.03029     20.31483     29.76923         6     1.529     0.524 -18.27   0
        36    770.9218    894.0550 300.1348015 +22.8797679     11676.26     72.04178      1.972     4.72     4.609528     20.31483     709.4124        58     1.554     1.525  -7.91   0
        37    748.8865    900.5895 300.1258065 +22.8750418     1115.317     71.95006      1.872     5.96     4.608995     20.31483     61.54457        19     1.284     1.075   7.26   0
        38    816.3862    893.8673 300.1490408 +22.8933352     502.2686      72.0051      2.121     7.24     4.610079     20.31483     32.92004        10     1.293     1.136  43.40   0
        39    540.9506    990.8446 300.0316578 +22.8386237     2448.378     72.04178      2.023     4.95     3.911119     20.31483     142.7701        34     1.521     1.390 -21.11   0
        40    961.6439    893.4247 300.1945026 +22.9367185     460.3091     72.04178      1.840     5.90     4.548438     20.31483     38.30544         7     1.670     0.586  54.57   0
        41    115.1992    892.4924 299.9311354 +22.6827261     1038.132      71.8766      4.630     4.46     10.69679     20.31483     34.46031         5     1.196     0.472 -85.95   3
        42    213.0103    952.8595 299.9419290 +22.7293785     3931.904     71.96841      0.506     1.08     36.29115     20.31483     2309.156        13     0.759     0.370  67.49   2
        43    633.1202    983.9819 300.0626062 +22.8642854     9298.243      72.0051      2.102     5.15     3.998006     20.31483     491.6069        49     1.608     1.495  29.30   3
        44    905.0013    888.2327 300.1785155 +22.9182621      295.494     71.96841      1.600     3.88     4.611063     20.31483     24.21035         5     0.837     0.515  55.01   0
        45    728.9657    987.1688 300.0914442 +22.8939275     675.9392     72.02345      2.527     5.06     4.150916     20.31483     44.89027         9     1.347     0.695  64.06   2
        46      5.7866    982.0165 299.8680211 +22.6755579     1754.837     71.95006     17.966    24.78    -9.834556     20.31483     42.24019        94     5.151     3.311 -77.16  27
        47    822.6846    882.7840 300.1546081 +22.8920392     434.9608     71.96841      1.915     7.32     4.610885     20.31483     34.58351         8     1.477     1.015  52.36   0
        48    475.9548    882.2405 300.0467244 +22.7879750     481.0511     72.07843      1.816     5.71     4.539223     20.31483     41.13744        10     1.045     0.878  17.71   0
        49    160.9680    975.5742 299.9183575 +22.7202781     2164.971      72.0051      7.236    18.34     63.39681     20.31483     52.39734        80     4.206     2.222  70.84   3
        50    779.3744    876.3532 300.1431917 +22.8772174     1481.849     72.02345      1.910     5.37     4.610898     20.31483     91.58928        26     1.435     1.236   5.31   0
        51     73.2980    876.2014 299.9234035 +22.6654843     648.2468     71.91335      2.153     3.38      6.09104     20.31483     41.44897         5     0.782     0.424  74.76   0
        52    631.9254    873.2595 300.0982325 +22.8321474     257.7166      72.0601      1.217     3.96     4.583759     20.31483     38.10118         5     1.305     0.344 -66.68   0
        53    817.4264    869.5875 300.1572579 +22.8866743     888.2045      72.0051      2.218     5.57     4.611485     20.31483     65.94765        18     1.454     1.166  55.09   0
        54    866.3631    860.9443 300.1753317 +22.8988511     602.4733      72.0051      1.968     6.36     4.623303     20.31483     46.17776        13     1.237     1.041 -31.33   0
        55    717.3998    859.8847 300.1292216 +22.8539205     935.3073      71.8766      2.128     5.87     4.604029     20.31483     47.72731        19     1.447     1.068   9.91   0
        56    429.9580    856.1271 300.0408892 +22.7666923     4372.841     71.98676      1.907     3.92     4.494818     20.31483     333.5152        42     1.458     1.431  12.68   0
        57    728.5380    857.4160 300.1334964 +22.8565488     571.8792     71.96841      1.740     6.30     4.606438     20.31483     52.25816        13     1.199     0.929  23.55   0
        58    155.5147    841.8396 299.9601341 +22.6802951     739.5294     71.98676      1.880     6.59     7.659599     20.31483     59.89478        16     1.498     0.911 -44.65   0
        59    132.2244    838.7307 299.9539019 +22.6724174     1667.014      72.0051      2.062     5.59     6.575682     20.31483     123.1242        28     1.455     1.404 -30.97   0
        60    492.2071    975.8207 300.0213614 +22.8196986     362.1807     71.98676      1.713     4.79     4.186666     20.31483     28.95016         7     1.813     0.359 -47.01   0
        61   1004.1366    828.1718 300.2289758 +22.9306971     2210.268      72.0051      2.094     5.38     4.471514     20.31483     118.2248        35     1.533     1.480  60.83   0
        62    959.3067    827.6434 300.2151556 +22.9171214      1563.63      72.0051      1.868     5.34     4.547412     20.31483     112.9518        22     1.566     1.086 -71.07   3
        63    957.0000    826.9813 300.2146508 +22.9162404     1347.131     71.91335      1.634     4.67     4.550594     20.31483     134.0731        15     1.609     0.798 -76.50   3
        64    663.7668    826.9650 300.1232027 +22.8283985     452.0294      72.0601      1.819     6.17     4.450918     20.31483     40.68984         7     1.323     0.808  80.07   0
        65    741.7455    820.0266 300.1497661 +22.8497696     511.8132     72.02345      1.677     6.51     4.608311     20.31483     42.67575        15     1.165     1.021  59.06   0
        66    165.1946    820.0730 299.9702177 +22.6769560     458.9726     71.95006      1.349     5.40     6.274314     20.31483     53.46441         8     1.509     0.545  51.40   0
        67    609.9216    814.3011 300.1105377 +22.8086280     4744.553     72.13338      1.737     3.77     4.571208     20.31483      380.895        38     1.355     1.321  75.28   0
        68    412.3420    811.4634 300.0499194 +22.7485947     572.1841      72.0601      1.681     5.19     4.499604     20.31483     60.11127        11     1.200     0.960 -35.87   0
        69    159.9859    807.8696 299.9725632 +22.6718937     1426.413     72.02345      2.024     4.30     5.504762     20.31483     116.0553        33     1.569     1.434 -36.53   0
        70    630.5535    806.5087 300.1194993 +22.8125733     675.4773     71.98676      1.677     4.19     4.492268     20.31483     65.46714        15     1.191     0.888  62.59   0
        71    179.9822    804.5771 299.9798520 +22.6769467     444.7526     71.98676      1.796     4.35     5.237388     20.31483     34.56401         7     0.900     0.599  78.19   2
        72    786.0813    794.1050 300.1720144 +22.8556066     4332.738     72.16998      1.849     4.14     4.621572     20.31483     271.2365        34     1.392     1.322 -45.73   0
        73   1002.9852    794.5608 300.2395395 +22.9206948     1137.863     72.02345      1.930     5.30     4.472336     20.31483     68.80823        21     1.335     1.131  -4.54   0
        74    194.5490    788.5398 299.9895934 +22.6767153     491.0688      72.0601      1.852     6.13     5.003913     20.31483     38.62587        10     1.299     1.033 -31.32   0
        75    502.9028    786.2886 300.0863002 +22.7685147     603.7422     72.18828      1.625     4.36     4.618711     20.31483     57.24496        11     1.271     0.857  67.82   0
        76    149.1232    784.4003 299.9768106 +22.6619045     978.2438      71.8766      1.842     4.55     5.010047     20.31483     85.53482        20     1.510     1.039  25.20   0
        77    299.0097    776.4741 300.0260125 +22.7045776     54263.66      72.0051      1.830     3.75      4.94369     20.31483     5018.886       109     1.633     1.519  14.04   0
        78    564.7045    779.8618 300.1076399 +22.7851911     460.5297     72.09675      1.489     4.93     4.620387     20.31483     51.25193        11     1.003     0.816  30.31   0
        79    557.0466    775.7286 300.1065971 +22.7817097      1598.12     71.98676      1.692     4.00     4.621123     20.31483     130.3044        22     1.186     1.158 -63.29   0
        80    971.0000    774.9876 300.2359165 +22.9054939     649.0159     71.80308      1.603     4.06     4.555161     20.31483     48.85653         8     0.916     0.683 -88.59   3
        81    968.6672    775.3306 300.2350770 +22.9048940     171.3417      72.0601      1.292     3.80     4.560816     20.31483     55.82312         9     1.071     0.670  72.67   3
        82    227.9596    774.3331 300.0046020 +22.6826592      315.938     71.96841      1.118     2.65     4.974727     20.31483     51.53012         5     0.782     0.473 -56.84   0
        83    586.2272    771.5933 300.1170321 +22.7892668     1144.108      72.0051      1.892     6.27     4.662319     20.31483     74.64338        22     1.543     1.188  41.77   0
        84    597.1266    770.0807 300.1209196 +22.7920985     516.6399     72.11507      1.590     4.30     4.682055     20.31483     60.79274        13     1.101     0.911  -6.57   0
        85    916.6046    767.4020 300.2214064 +22.8870267     285.5981     71.82146      1.458     4.70      4.72335     20.31483     33.37325         6     1.078     0.580  32.43   0
        86    702.5059    766.7717 300.1548377 +22.8227209     449.3102     71.91335      1.958     5.51     4.567014     20.31483     36.63227         9     1.051     0.862  19.66   0
        87    497.6737    763.5864 300.0920477 +22.7604310     374.5378     72.02345      2.111     5.60     4.690568     20.31483     32.72625         6     1.490     0.593 -73.41   0
        88    739.9647    756.7093 300.1697852 +22.8310523     826.4822     71.96841      1.705     4.73     4.699311     20.31483     56.35054        14     1.100     0.985 -60.64   0
        89    348.7699    753.7224 300.0488905 +22.7129675     31748.84     71.98676      1.744     3.83     4.948695     20.31483     2725.314        73     1.479     1.437  19.26   0
        90    362.9780    754.2606 300.0531381 +22.7173812      1960.21     71.96841      1.717     3.68     4.916896     20.31483     185.3806        28     1.303     1.236 -20.80   0
        91    239.0387    752.3807 300.0151804 +22.6796836     303.8268     72.04178      1.578     3.91      4.92561     20.31483     29.07623         5     1.272     0.344 -47.68   0
        92    872.0252    749.9579 300.2131654 +22.8686656     2777.978      72.0601      1.775     4.01     4.828133     20.31483     193.8352        30     1.338     1.278   9.50   0
        93    359.7526    748.4440 300.0540237 +22.7147451     792.5613     72.04178      2.737     5.39     4.952632     20.31483     51.81997        10     1.026     0.800   6.52   0
        94    629.6250    745.8889 300.1389063 +22.7948897     1078.966     71.96841      1.805     4.63     4.718682     20.31483     77.79334        16     1.205     1.051 -44.49   0
        95    466.1883    745.8026 300.0880196 +22.7458900     597.5384     71.82146      1.881     4.89     4.778907     20.31483     35.75316         7     1.265     0.536  42.48   0
        96    231.2366    745.4308 300.0150109 +22.6753503      851.656     72.02345      1.842     5.02     4.917022     20.31483     75.38812        16     1.192     1.064 -20.47   0
        97     36.8890    741.5832 299.9558265 +22.6159613     483.1805      71.9317      1.633     3.10     4.971725     20.31483     51.84262         7     0.969     0.570 -88.90   0
        98    476.9175    740.6016 300.0930505 +22.7476126     973.8303     71.91335      1.750     3.82     4.800438     20.31483     86.12209        18     1.140     1.049  -7.00   0
        99    877.7395    737.6750 300.2189387 +22.8668480      585.427      72.0601      1.884     5.86     4.835754     20.31483     41.06126        13     1.448     0.820  22.80   0
       100    335.3929    735.6124 300.0506101 +22.7037604     540.6397     71.89497      1.967     4.51     4.974037     20.31483      44.3251         7     1.305     0.576  73.69   0
       101    422.7229    735.6624 300.0777793 +22.7299522     374.2268     72.07843      1.577     3.88     4.819454     20.31483     44.97263         6     0.929     0.465   5.95   0
       102     65.4166    734.7252 299.9669218 +22.6225513     398.9657      72.0051      1.447     4.00     4.958765     20.31483     42.99202         6     0.854     0.535  52.43   0
       103    855.4490    732.3724 300.2137076 +22.8586495     345.8519     72.02345      1.657     5.29     4.870969     20.31483     32.60338         6     1.135     0.696  16.52   0
       104    228.9406    730.0043 300.0193077 +22.6702360     532.2329     71.96841      1.715     4.57     4.907883     20.31483      62.8916        13     1.140     1.103   1.05   0
       105    552.1313    720.5715 300.1229850 +22.7644015     443.7289     71.98676      1.481     3.88      4.77578     20.31483     55.24996         8     1.098     0.790  10.45   0
       106    521.9781    718.7677 300.1141778 +22.7548483     580.4636      72.0051      1.495     3.76     4.818963     20.31483     62.28782        12     1.048     0.848  62.50   0
       107    431.5884    717.8218 300.0863350 +22.7274885     300.4503     71.98676      1.262     3.40      4.88675     20.31483      44.9818         6     0.939     0.489  85.83   0
       108    938.3845    715.2435 300.2451483 +22.8785613     4530.157     72.02345      1.803     3.92     4.942404     20.31483     328.0848        40     1.450     1.332  25.86   0
       109    543.8580    715.9771 300.1219000 +22.7606034     1395.065      72.0051      1.721     4.39     4.794388     20.31483     114.6038        26     1.397     1.139 -52.73   0
       110    464.1449    715.4363 300.0972476 +22.7365609     324.0029     72.02345      1.428     3.54     4.910738     20.31483     47.91443         5     0.770     0.469  15.29   0
       111    624.8405    711.5891 300.1485577 +22.7836070     240.8243      72.0051      1.310     4.59     4.865428     20.31483     39.72523         7     1.105     0.541 -26.36   0
       112    926.8417    706.6501 300.2443379 +22.8726360     1670.413     72.02345      1.817     4.27     5.069118     20.31483     109.7759        27     1.344     1.241  79.31   0
       113    289.5794    700.1768 300.0478628 +22.6798577     776.8011      72.0051      1.617     4.27     4.855846     20.31483     84.55436        16     1.172     1.084 -22.63   0
       114    753.2589    697.8239 300.1930597 +22.8181206     2571.201      72.0051      1.742     3.69     4.861859     20.31483     188.2754        33     1.326     1.294  -3.48   0
       115    957.8812    696.7377 300.2572441 +22.8790803     1677.418     72.11507      1.791     4.01     4.954204     20.31483     120.0438        27     1.313     1.257  -3.92   0
       116    835.1958    683.5347 300.2232542 +22.8385534     423.7771     72.02345      1.524     4.48     5.213635     20.31483      52.0233         9     1.129     0.668  69.79   0
       117    138.4532    684.1382 300.0060605 +22.6299448     627.0765      72.0601      1.711     4.25      5.03783     20.31483      57.2023        12     1.304     0.741  -0.60   0
       118    871.6464    674.8304 300.2374520 +22.8469668     148771.2     72.02345      1.725     3.68     5.357712     20.31483     10720.56       156     1.580     1.508 -52.81   0
       119    634.0750    678.4786 300.1621900 +22.7768648     416.5121     72.11507      1.455     2.48     4.951711     20.31483     69.51949         9     0.838     0.770 -85.12   0
       120   1018.4873    676.7444 300.2826552 +22.8914765     1272.804      72.0601      1.872     5.02     4.608046     20.31483     84.00145        20     1.392     1.025  14.15  16
       121    724.1996    675.1291 300.1913706 +22.8028982     676.9721     71.89497      1.497     4.02      4.83325     20.31483     72.00099        14     1.127     0.985 -27.41   0
       122    904.5844    667.8459 300.2499970 +22.8548215     392.1829     72.02345      1.587     4.58     5.377236     20.31483     36.69601         6     1.025     0.580  29.66   0
       123    739.0957    660.9031 300.2006352 +22.8032729     9444.601     72.18828      1.582     3.22     4.884759     20.31483     810.9075        47     1.352     1.273  60.38   0
       124    557.8713    663.3746 300.1433506 +22.7496982      1628.37      72.0051      1.584     3.20     5.155223     20.31483     180.3379        22     1.202     1.116   7.98   0
       125    240.6317    655.7523 300.0470604 +22.6524359     4987.041     72.04178      1.707     3.34     4.961278     20.31483     505.5062        39     1.338     1.291  21.72   0
       126    322.6725    653.8541 300.0732052 +22.6764836     1165.898      72.0051      1.665     4.39     4.961525     20.31483     124.4836        20     1.293     1.103  72.22   0
       127    198.6785    651.5914 300.0353606 +22.6386645     418.1659     71.96841      1.631     3.48     5.032547     20.31483     50.21352         7     0.882     0.800 -39.72   0
       128    530.9731    649.5727 300.1394533 +22.7376762     829.3566     71.96841      1.566     3.30     5.269703     20.31483     87.75674        16     1.139     0.939   8.06   0
       129    522.5217    641.6215 300.1394027 +22.7328609     3179.385      72.0051      1.601     3.29     5.333953     20.31483     336.1265        31     1.218     1.187  52.49   0
       130    512.8635    635.2532 300.1384622 +22.7281386     1461.334      72.0601      1.557     3.35     5.381872     20.31483     150.7086        22     1.247     1.083  59.78   0
       131    906.4210    633.2958 300.2617905 +22.8454423     398.4644     71.91335      1.411     4.43     5.397358     20.31483     42.74175         8     1.101     0.507  31.96   0
       132    176.0776    631.5372 300.0348426 +22.6261343      693.947     72.07843      1.722     3.87      5.11667     20.31483     84.81849        14     1.162     0.924 -25.16   0
       133    190.4548    629.7393 300.0398981 +22.6299288     572.8146      72.0601      1.567     4.85      5.09904     20.31483     71.75875        14     1.310     0.905  15.39   0
       134    959.2404    627.2179 300.2802469 +22.8595068     432.3365     72.02345      1.533     3.58     5.413284     20.31483     52.41538         5     0.892     0.414  44.44   0
       135    216.1310    626.8826 300.0488126 +22.6368065     496.9738     72.11507      1.453     4.10      5.06305     20.31483     61.34405        10     0.984     0.811 -23.34   0
       136    536.8263    625.7171 300.1490231 +22.7325795     462.8999     71.98676      1.433     4.78      5.48781     20.31483     48.13782        10     1.155     0.696 -30.91   0
       137    437.5299    624.9348 300.1183513 +22.7026039     1815.277     72.04178      1.559     3.51     5.168136     20.31483     167.4357        23     1.243     1.073 -80.68   0
       138   1013.3157    622.8741 300.2985360 +22.8744436     654.2065     72.09675      1.547     5.03     5.502723     20.31483     51.06661        14     1.207     0.954  58.90   0
       139     91.5465    619.8143 300.0123624 +22.5974261     19952.76     72.02345      1.848     3.89     5.603602     20.31483     1667.057        67     1.567     1.481  34.76   0
       140    522.5402    620.4645 300.1462784 +22.7267912     1022.681     72.04178      1.540     2.99     5.517034     20.31483     121.8087        17     1.134     0.921 -65.14   0
       141     12.2700    621.4254 299.9871957 +22.5741153     781.2061      72.0051      1.815     4.94     6.148662     20.31483     74.19424        16     1.396     1.251 -43.18   0
       142    558.0168    619.8279 300.1575369 +22.7372366     397.1946      72.0051      1.361     3.27      5.55733     20.31483      42.1304         6     0.897     0.460 -34.71   0
       143    275.6583    612.4676 300.0720130 +22.6505134     321.6957     72.04178      1.426     4.25       4.9752     20.31483         37.9         7     0.974     0.529 -56.43   0
       144    940.4626    606.7711 300.2810262 +22.8480091     1037.495      72.0051      1.688     4.22     5.453334     20.31483     85.84721        18     1.166     1.088 -85.30   0
       145     37.6569    603.8417 300.0007951 +22.5766846     1524.286     71.98676      2.119     5.86     5.978861     20.31483     102.6881        30     1.755     1.284  74.87   0
       146    807.2558    604.9730 300.2400524 +22.8076142     534.0981      72.0051      1.559     2.78     5.379895     20.31483      59.7036         9     0.899     0.637  13.08   0
       147    104.5822    604.7740 300.0212984 +22.5970197     419.4388     72.02345      1.307     2.21     5.611887     20.31483     52.42151         5     0.699     0.444  66.67   0
       148    485.8693    600.7280 300.1412646 +22.7101372     442.9652     72.07843      1.461     3.72     5.544375     20.31483     50.81096         8     1.018     0.712 -74.53   0
       149    879.6678    599.5523 300.2644004 +22.8277356     892.6511      72.0051      2.392     7.85     5.410504     20.31483     70.49312        19     2.031     0.853   4.20   0
       150    688.5927    597.0139 300.2056366 +22.7697944     981.3742     71.89497      0.611     2.33     5.100421     20.31483     449.3432         5     0.561     0.292   1.42   0
       151    624.7924    597.6854 300.1855331 +22.7508793     282.7362      71.9317      1.438     4.21     5.530255     20.31483     33.04463         6     1.109     0.455  -5.28   0
       152    442.7231    593.3472 300.1302242 +22.6950906     624.8956     72.04178      1.556     3.12     5.322417     20.31483     81.00349         9     0.961     0.675  15.45   0
       153    591.5782    591.2867 300.1772605 +22.7390929     1328.102      71.9317      0.747     4.16     5.713682     20.31483     816.9392        12     0.867     0.569 -26.29   0
       154    638.0076    590.5153 300.1919796 +22.7527778     402.1706      71.9317      1.501     5.15     5.446299     20.31483     47.73966         8     1.087     0.689 -33.48   0
       155    608.3414    590.1479 300.1828537 +22.7437868     512.3082      72.0601      1.336     3.13      5.68882     20.31483     70.36481        10     0.990     0.666  25.19   0
       156    486.7661    589.0881 300.1453229 +22.7070635     886.2423     71.96841      1.709     3.39     5.580754     20.31483     92.69843        15     1.114     0.989 -19.31   0
       157    674.5194    587.9312 300.2041986 +22.7629705     246.1523     72.11507      1.212     5.32     5.185683     20.31483     30.46971         5     1.414     0.565  48.87   0
       158    920.6677    584.8839 300.2819556 +22.8357928     3232.706     72.11507      1.637     3.53     5.404672     20.31483     252.8205        32     1.295     1.247 -36.72   0
       159    452.2797    584.5651 300.1360512 +22.6954324     1824.633     71.95006      1.686     3.14     5.411971     20.31483     189.3257        24     1.274     1.130   5.80   0
       160   1018.7089    583.2783 300.3130765 +22.8646747     751.4374     72.15168      1.802     5.05     5.763699     20.31483     53.74062        16     1.208     1.054 -43.30  16
       161    817.4061    581.9874 300.2506811 +22.8040481     319.7405      71.8766      1.483     4.06     5.395202     20.31483     28.92466         5     1.061     0.445  24.70   0
       162     14.3160    577.8460 300.0019792 +22.5622280     4960.278     71.98676      1.945     4.12     6.150184     20.31483     412.8964        46     1.561     1.473  22.40   0
       163    481.8053    575.6653 300.1481355 +22.7017227     402.3827      72.0051      1.821     4.29     5.592569     20.31483     39.68751         9     0.911     0.865 -36.91   0
       164    315.7543    571.2638 300.0978672 +22.6507037     9154.529     72.02345      1.614     3.25     5.209536     20.31483     854.5303        39     1.301     1.243  51.85   0
       165     77.6101    570.7598 300.0239544 +22.5791736     252.2019      72.0051      1.155     3.48     5.808177     20.31483     30.22781         5     0.754     0.465  75.50   0
       166    438.2799    568.3783 300.1369465 +22.6865900      9136.57     71.96841      1.526     2.86     5.431836     20.31483     1004.922        41     1.269     1.214  51.77   0
       167    849.9593    562.4996 300.2671621 +22.8081931     1888.194     71.98676      1.555     3.25     5.408865     20.31483     191.0623        23     1.206     1.098  77.44   0
       168    934.6628    559.9532 300.2944167 +22.8328156     12461.08     72.02345      1.673     3.42     5.420732     20.31483     1005.853        51     1.407     1.330 -67.31   0
       169    498.8774    557.9761 300.1591951 +22.7017573     11757.41      72.0051      1.505     3.12     5.742475     20.31483     1173.821        48     1.291     1.234  87.55   0
       170    668.3166    553.5505 300.2134265 +22.7512359     628.0191      72.0051      1.678     4.07     5.525446     20.31483     62.83133        12     1.056     0.841 -45.18   0
       171    226.2635    553.1528 300.0759003 +22.6186840     1457.355     72.02345      1.758     3.54      5.36371     20.31483     155.8059        26     1.348     1.265  29.39   0
       172    384.3348    552.8790 300.1251820 +22.6659765     282.4495     72.11507      1.402     3.37     5.383872     20.31483     38.39446         6     0.751     0.617  12.48   0
       173    473.0254    551.2277 300.1533340 +22.6920747     326.9291     71.98676      1.467     4.47     5.623519     20.31483     33.74187         6     0.814     0.699  -1.95   0
       174    430.5840    546.1295 300.1417723 +22.6778956     4489.821     72.02345      1.531     2.89     5.537498     20.31483     479.5287        34     1.250     1.177  64.54   0
       175    773.3185    546.6303 300.2484097 +22.7806881       881.91      72.0051      1.532     3.17     5.481797     20.31483     85.45477        13     0.970     0.861 -18.94   0
       176    408.8835    544.5797 300.1355187 +22.6709489     1319.928     71.95006      1.587     3.04     5.491701     20.31483     142.8692        19     1.087     1.030 -31.63   0
       177    163.3076    543.8604 300.0593336 +22.5971464     682.1025     72.07843      1.599     3.66     5.656244     20.31483     76.08048        12     1.149     0.785 -17.62   0
       178    850.3959    541.8903 300.2739885 +22.8024005     1684.251     71.91335      1.649     3.42     5.411156     20.31483     137.6819        24     1.226     1.117 -14.72   0
       179     97.1050    542.2897 300.0392566 +22.5768496     317.3253     72.18828      1.269     3.82     5.735972     20.31483     36.35046         5     1.227     0.340 -47.89   0
       180    950.2327    540.7822 300.3054990 +22.8319645     307.8321     71.98676      1.605     4.86     5.476376     20.31483     24.68599         5     1.272     0.526 -27.10   0
       181    547.1911    533.7097 300.1821218 +22.7092600     207837.1      71.9317      1.496     2.79     6.177773     20.31483     23852.18       192     1.518     1.434 -20.52   0
       182    371.1531    540.0154 300.1252538 +22.6583334     333.5024     72.02345      1.246     3.45     5.414228     20.31483     50.57658         8     0.974     0.665 -67.40   0
       183    824.3698    538.2648 300.2670470 +22.7935675     292.7002     72.02345      1.469     4.90     5.411156     20.31483     32.80634         5     1.113     0.611  56.74   0
       184    730.8720    538.7650 300.2377273 +22.7657193     759.1034      72.0051      1.421     3.45     5.610702     20.31483     98.53313        12     0.973     0.875  48.17   0
       185    233.1758    533.5466 300.0844144 +22.6151283     3491.639     72.02345      1.615     2.88      5.47242     20.31483      429.806        31     1.286     1.193  59.23   0
       186    799.0978    530.0734 300.2618237 +22.7836479       556.78     72.13338      1.634     3.66     5.418219     20.31483      56.5614        10     1.033     0.722  35.28   0
       187    578.6884    520.2328 300.1963093 +22.7148225     172.2258     71.96841      1.226     4.58      6.08502     20.31483     49.24287         5     1.310     0.455  32.47   0
       188    437.8664    514.1121 300.1544319 +22.6708831      2859.01     72.11507      1.575     2.92     5.676563     20.31483     332.3608        31     1.482     1.058  89.59   0
       189    281.9646    516.4847 300.1051322 +22.6248522     356.1485     71.98676      1.534     4.55      5.57781     20.31483     38.91845         7     1.101     0.535 -27.75   0
       190    594.2889    512.1559 300.2037918 +22.7171745     416.0199     72.02345      2.746     4.01     6.057607     20.31483      36.1147         5     1.151     0.659  69.47   0
       191    849.5001    510.6810 300.2838393 +22.7931620     311.8803     72.13338      1.236     3.72     5.411156     20.31483     48.77002         6     0.953     0.417 -71.23   0
       192    754.8653    502.7132 300.2569100 +22.7625428      422.878     72.09675      1.434     4.57     5.630719     20.31483     50.38242        10     0.991     0.834  34.94   0
       193    834.8034    500.4599 300.2825721 +22.7858250     1748.993     71.98676      1.575     3.00     5.411156     20.31483     197.4179        22     1.135     1.087 -77.71   0
       194    706.0228    497.9926 300.2432136 +22.7465632     2648.991     71.98676      1.460     2.91     5.731348     20.31483       298.14        25     1.139     1.070   2.80   0
       195    610.8660    495.0212 300.2145184 +22.7172163     405.6028     71.98676      1.268     2.38     6.087503     20.31483     71.53854         7     0.856     0.550  12.48   0
       196    493.3737    494.0238 300.1782378 +22.6817412      666.442     71.96841      1.388     2.56     6.147621     20.31483     99.97673         9     0.895     0.633 -19.23   0
       197    963.3842    492.0909 300.3254078 +22.8219014     1472.986      71.9317      1.709     3.56     5.506081     20.31483     126.6934        21     1.201     1.125  76.35   0
       198    948.9932    491.2536 300.3211882 +22.8173543     924.9374      72.0051      2.602     3.63     5.433701     20.31483     69.58215        14     1.144     0.922  56.97   0
       199    835.0467    490.3078 300.2859428 +22.7829797     2214.135     72.02345      1.846     4.38     5.411156     20.31483     188.1641        31     1.786     1.023  71.76   0
       200    588.4946    488.3352 300.2097170 +22.7085960      649.183     72.11507      1.475     3.01     6.248324     20.31483     63.26789        13     0.969     0.855  46.09   2
       201    588.0397    484.7678 300.2107330 +22.7074349     541.6825     72.04178      1.936     5.50     6.268216     20.31483     41.48512        10     1.167     0.732 -55.21   3
       202    374.1079    488.5029 300.1428918 +22.6444277     299.9365     72.18828      1.174     4.15     5.566059     20.31483     53.89933         6     1.002     0.491   6.35   0
       203    873.2533    485.5938 300.2993915 +22.7930602     4360.308     71.96841      1.559     2.94     5.400444     20.31483     453.2556        32     1.223     1.183 -72.66   0
       204    427.1009    487.1729 300.1598223 +22.6599216     328.1772     71.95006      1.413     3.93     5.684815     20.31483     43.51926         8     0.852     0.722 -26.64   0
       205    533.9367    481.5808 300.1949109 +22.6903164     348.1405     71.98676      1.347     3.15     6.435863     20.31483      52.7718         7     0.858     0.567 -35.80   0
       206    965.1112    476.3220 300.3310644 +22.8178843     725.6515     72.13338      1.558     3.61     5.500956     20.31483     90.98597        10     1.034     0.734  54.58   0
       207    105.2372    475.2877 300.0635287 +22.5600600     1029.266     71.98676      1.881     3.94     5.789049     20.31483     131.3885        18     1.322     1.055  57.46   0
       208     98.4903    465.5810 300.0645804 +22.5552518     418.4456      71.9317      1.538     4.31     5.720043     20.31483     53.25213         7     1.111     0.477 -43.75   0
       209    705.5971    460.2168 300.2553397 +22.7355802     529.9376     71.91335      1.443     2.73     5.801443     20.31483     74.02408        10     0.834     0.831 -33.26   0
       210    314.0073    458.6759 300.1338632 +22.6178564     309.9229     71.95006      1.464     4.98     5.763727     20.31483     38.10707         7     1.063     0.661   4.24   0
       211    594.9557    457.9705 300.2215837 +22.7018070     246.7303     72.04178      1.416     3.67     6.160679     20.31483     29.16434         5     0.624     0.622 -44.28   0
       212    646.7565    456.1354 300.2383225 +22.7167906     672.4962     71.98676      1.352     3.02     5.935621     20.31483     79.58201        13     1.065     0.771  40.75   0
       213    435.4685    454.3526 300.1730777 +22.6530021      291.623     71.98676      1.068     4.03     5.797364     20.31483     39.51791         5     0.968     0.499 -45.51   0
       214    961.3655    448.5524 300.3389067 +22.8087786     551.7662     72.04178      1.451     3.17      5.43295     20.31483     61.45689        12     0.973     0.849 -24.69   0
       215    707.4670    448.0139 300.2598823 +22.7326331     893.7023     71.98676      1.464     3.24     5.811894     20.31483     89.30951        13     0.974     0.904  27.30   0
       216    181.9930    448.3954 300.0961246 +22.5753464     1491.221     71.85823      0.611     0.77     5.834022     20.31483     768.4263         6     0.489     0.358  88.03   0
       217    864.8400    444.6198 300.3100631 +22.7787631      989.897     72.04178      1.450     2.80     5.359809     20.31483     123.6283        17     1.054     1.029  -5.27   0
       218    849.1526    440.8798 300.3063827 +22.7729930     769.5203     72.02345      1.697     3.50     5.364787     20.31483      74.4044        12     0.965     0.915  83.94   0
       219    593.2969    438.6921 300.2273221 +22.6957713     3225.307     72.18828      1.437     2.67     6.085483     20.31483     391.2666        27     1.149     1.059  34.08   0
       220    953.9784    437.4696 300.3401973 +22.8033814     648.6779      72.0051      1.825     5.25     5.391587     20.31483     46.76206        12     1.105     0.950 -26.03   0
       221     70.3713    429.1293 300.0676641 +22.5363617     435.0744      72.0051      2.829     4.66      5.67524     20.31483     40.37317         5     0.955     0.646  14.44   0
       222    433.2820    425.8321 300.1816503 +22.6441555     395.4122      72.0051      1.259     2.26       5.8185     20.31483     60.63753         6     0.714     0.552 -30.96   0
       223   1004.6085    417.8950 300.3623517 +22.8129005     1418.985     71.89497      1.750     3.91      5.45785     20.31483     123.1758        24     1.292     1.158  18.90   0
       224    876.5306    417.5805 300.3224835 +22.7744878     623.9035      72.0051      1.810     4.29     5.321032     20.31483     68.24408        10     1.135     0.668 -18.92   0
       225    963.1448    416.6561 300.3498113 +22.8001389     929.0459      72.0601      1.731     3.80     5.379715     20.31483     80.19914        18     1.142     1.100 -64.06   0
       226    613.2725    414.3996 300.2414283 +22.6947723     326.0225      71.8766      1.523     3.05     5.918249     20.31483      49.0514         6     0.852     0.492 -47.42   0
       227    499.8731    413.5936 300.2063595 +22.6605840     447.0834     71.95006      1.436     3.28     5.947128     20.31483     53.03698         8     0.965     0.590  16.21   0
       228    703.9853    412.6284 300.2702777 +22.7214210     1066.042     72.02345      1.385     2.43     5.849936     20.31483     168.0819        16     1.013     0.931 -85.02   0
       229    208.1466    410.5984 300.1165221 +22.5723331     531.9356     71.96841      1.436     2.45     5.852552     20.31483       73.978        10     0.877     0.721  67.14   0
       230    270.1366    406.2684 300.1372134 +22.5896639     3683.627      72.0601      1.537     3.02     5.847157     20.31483     401.3853        29     1.281     1.118  71.50   0
       231   1003.4037    405.1985 300.3660948 +22.8088885     4464.276     71.78468      1.661     3.40     5.446818     20.31483     414.7589        37     1.332     1.291  67.99   0
       232    217.4517    401.1037 300.1224969 +22.5723954     7633.118     72.07843      1.580     2.87     5.872283     20.31483     822.1114        41     1.334     1.258  66.31   0
       233    983.5119    396.1671 300.3628156 +22.8003402     2014.786     71.96841      1.791     3.42     5.421875     20.31483     189.9006        26     1.365     1.142 -66.63   0
       234    358.1720    395.3802 300.1681445 +22.6129109     4871.539      72.0051      1.505     2.79     5.778126     20.31483     568.1769        34     1.251     1.154  73.02   0
       235    602.4935    392.2400 300.2452581 +22.6851774     18548.45     72.02345      1.434     2.59     5.924468     20.31483     2209.485        51     1.256     1.196  87.47   0
       236    620.0311    392.4526 300.2506544 +22.6904892     938.1137     72.02345      2.002     6.88     5.913638     20.31483     65.98303        17     1.703     0.778 -29.49   0
       237   1001.7073    393.0044 300.3695213 +22.8048740     213.0247     71.89497      1.211     3.45     5.442418     20.31483      39.4117         5     0.808     0.501  32.11   0
       238    845.9860    389.1409 300.3221808 +22.7571704      197.885     71.98676      1.041     2.80     5.393029     20.31483     45.81536         6     0.897     0.437  36.78   0
       239    799.5840    382.6974 300.3097974 +22.7414315     502.1372     71.91335      1.616     3.13     5.433375     20.31483        64.91         9     1.059     0.579   8.22   0
       240    222.5255    379.4454 300.1311006 +22.5676971      436.174     71.98676      1.359     3.39     5.915691     20.31483     54.91051         8     1.049     0.492  -4.19   0
       241    936.0237    374.7793 300.3549325 +22.7799818     808.9264      72.0051      1.650     4.87     5.398031     20.31483     64.71935        17     1.235     1.002 -55.61   0
       242    645.6039    373.4032 300.2648037 +22.6926706     273.8774     71.80308      1.431     4.23     5.909217     20.31483     34.65621         5     1.040     0.491  -0.26   0
       243    157.0670    372.0865 300.1131259 +22.5459704     2114.272     72.11507      1.674     3.35     5.921225     20.31483     198.1946        25     1.283     1.151   7.58   0
       244    543.1354    361.6415 300.2366885 +22.6586124     6718.676     71.96841      1.452     2.75     5.772014     20.31483     782.7217        38     1.227     1.171 -85.02   0
       245    956.9231    362.3036 300.3655018 +22.7826465     1294.609     72.13338      1.653     3.42     5.423607     20.31483     137.6595        20     1.133     1.104 -30.68   0
       246    258.2298    360.7753 300.1482647 +22.5730332     576.9303      72.0051      1.421     2.75     5.894234     20.31483     88.26347        12     0.988     0.815 -89.04   0
       247    115.5524    353.9644 300.1060929 +22.5283275     435.6255     72.02345      1.347     3.29      5.96884     20.31483     63.39136         9     0.886     0.745  52.75   0
       248    802.7993    353.6428 300.3202246 +22.7340406     242.9628      72.0051      1.136     3.24     5.459819     20.31483     45.30665         5     0.739     0.448  16.82   0
       249    656.5832    352.4437 300.2750241 +22.6899333     439.1717     72.02345      1.319     3.02     5.907046     20.31483     60.49109         8     0.815     0.756 -71.11   0
       250    747.2755    350.7950 300.3038328 +22.7166051     1270.028     71.91335      1.659     3.37     5.827474     20.31483     111.7242        19     1.247     0.933  45.39   0
       251    449.7219    347.8825 300.2120548 +22.6266872     6223.402     72.09675      1.463     2.71     5.751206     20.31483     805.5468        37     1.253     1.142  26.36   0
       252    938.9634    342.6891 300.3662588 +22.7716324      498.693     71.98676      1.437     4.76     5.442926     20.31483     65.23968        12     1.149     0.817  89.23   0
       253    841.8316    342.4699 300.3360235 +22.7425081     1479.572      72.0051      1.614     2.71     5.466547     20.31483     163.5544        21     1.162     1.037 -78.87   0
       254    517.2803    334.6627 300.2373840 +22.6431188     469.2093     72.11507      1.393     3.13     5.707429     20.31483     52.50142         9     0.934     0.681 -84.09   0
       255    814.5011    330.3853 300.3314177 +22.7308552     604.6425     71.91335      1.352     3.08     5.464958     20.31483     69.64217         9     0.957     0.637   6.58   0
       256    337.2804    326.9012 300.1838517 +22.5869846     2526.904     72.13338      1.526     3.10      5.82478     20.31483     277.1382        30     1.302     1.111  84.73   0
       257     55.8300    324.3012 300.0971435 +22.5019148     1137.682     71.95006      1.732     3.54     6.007406     20.31483     99.29856        17     1.122     1.019  63.20   0
       258    306.6219    316.3924 300.1777173 +22.5747831     30249.29     71.98676      1.592     2.86     5.883711     20.31483      3709.78        71     1.405     1.294  68.21   0
       259    841.3955    314.1964 300.3450570 +22.7342475     1380.701     71.82146      1.590     2.97     5.480215     20.31483     159.9418        20     1.091     1.084 -83.82   0
       260      3.1161    304.1415 300.0872945 +22.4803300     4656.607      65.1495      1.708     3.46     6.016472     20.31483     481.5724        35     1.377     1.285  79.89  24
       261    756.5923    303.3867 300.3221131 +22.7057637     623.4064     71.89497      1.456     4.00     5.759606     20.31483     65.97012        11     1.147     0.767  -1.78   0
       262    180.9755    303.0182 300.1429607 +22.5333030      636.094     72.02345      1.798     5.23      6.01959     20.31483     53.42252        14     1.388     0.807 -30.96   0
       263    405.0425    302.1542 300.2129715 +22.6001699     556.6754      72.0601      1.370     3.75     5.839907     20.31483     67.42455        11     1.047     0.763 -26.59   0
       264    717.1624    296.3372 300.3121046 +22.6919370     1918.642     72.02345      1.483     3.12     5.899189     20.31483     221.6504        22     1.206     1.031  88.85   0
       265    525.8148    291.3226 300.2540970 +22.6332198     403.9162     72.02345      1.519     5.44     5.704843     20.31483     36.56142        11     1.321     0.632   6.78   0
       266    932.3800    289.2893 300.3815220 +22.7543043     478.2566     71.95006      1.293     4.06     5.507768     20.31483     69.27428        11     1.160     0.806   9.19   0
       267    378.8444    280.7676 300.2117495 +22.5861803     2175.979      72.0601      1.647     4.16     5.829867     20.31483     205.3502        27     1.440     1.025  69.59   0
       268    818.0068    273.9422 300.3508145 +22.7156738     728.0038     71.98676      1.462     3.88     5.568615     20.31483     89.49138        10     1.077     0.718  82.92   0
       269    700.2319    271.5067 300.3148775 +22.6797315     457.2338      71.9317      1.497     3.36     5.910325     20.31483     45.53755         9     0.862     0.757  30.47   0
       270    540.6378    268.2235 300.2662043 +22.6310190     131.6973     72.02345      1.107     3.49     5.682012     20.31483     35.16224         5     0.761     0.462 -77.49   0
       271    454.8044    260.1845 300.2420749 +22.6030116     1157.138     71.85823      1.446     2.90     5.783186     20.31483     141.9289        19     1.170     0.970  88.71   0
       272    261.8991    260.6314 300.1818795 +22.5453714     320.5346     71.98676      1.892     4.42     5.984038     20.31483     33.65903         5     1.142     0.487  54.87   0
       273     27.4373    260.8909 300.1088765 +22.4752031     348.4641     71.98676      2.503     3.48     6.351875     20.31483     38.76957         5     0.759     0.462 -72.57   0
       274    540.3359    258.0230 300.2694174 +22.6279970      246.528     71.98676      1.229     3.97     5.679826     20.31483     34.98073         5     1.028     0.439 -24.46   0
       275    966.2231    256.9467 300.4025713 +22.7551238     252.1422     72.02345      1.042     3.86     5.667779     20.31483     35.02448         5     0.818     0.521  30.86   0
       276    838.3642    253.9864 300.3636349 +22.7160255     202.4632      72.0051      0.986     2.33     5.689192     20.31483     47.74387         5     0.740     0.544  -1.98   0
       277    699.6912    252.2025 300.3209677 +22.6740197     2198.446     71.91335      1.436     2.70     5.919579     20.31483     292.0266        24     1.233     1.010  74.74   0
       278    961.0331    246.7101 300.4042703 +22.7506267      3211.05     71.96841      1.595     3.22     5.728953     20.31483     322.1924        33     1.295     1.263 -33.48   0
       279   1021.8299    241.7377 300.4248603 +22.7673786     401.7389     65.31146      1.472     4.32     5.794932     20.31483     46.25021        10     1.042     0.839  45.86  16
       280    407.9037    235.9984 300.2353111 +22.5820191     672.9308     71.91335      1.500     3.78     5.802167     20.31483      71.5976        11     0.943     0.809 -53.87   0
       281    113.5108    230.2741 300.1455620 +22.4922023      638.244     72.16998      1.640     4.13     6.063118     20.31483     62.23941        14     1.174     1.003  38.61   0
       282     82.8896    230.1138 300.1360925 +22.4829821     1398.697     72.16998      1.851     4.40     6.208718     20.31483     116.5427        23     1.507     1.002 -38.91   0
       283    976.4012    227.4411 300.4153140 +22.7496795     520.1049      72.0051      1.501     5.60     5.868701     20.31483     48.38431        10     1.142     0.774  54.32   0
       284    166.6319    222.5654 300.1645815 +22.5059022     543.7158     72.02345      1.803     3.79     6.001756     20.31483     48.38514         9     1.084     0.751 -32.69   0
       285    771.2834    213.9782 300.3556824 +22.6844504     678.7982     71.96841      1.414     2.94     5.899189     20.31483     81.23298        12     0.968     0.806  30.52   0
       286    362.1014    213.3200 300.2284026 +22.5617884     292.7334     72.13338      1.276     3.11     5.811756     20.31483     42.05749         7     0.850     0.566 -32.52   0
       287    862.2238    207.4546 300.3861630 +22.7097796     319.1058     72.02345      1.389     2.86     5.891244     20.31483     47.16007         5     0.780     0.667  42.48   0
       288    869.4676    202.6980 300.3899649 +22.7105782     2162.177     72.09675      1.608     2.96     5.903175     20.31483     232.7602        25     1.258     1.088  68.19   0
       289    287.8879    199.7435 300.2097038 +22.5356645     2146.222      72.0601      1.577     3.48     5.988052     20.31483     210.7597        28     1.256     1.183 -82.95   0
       290    365.8204    195.2253 300.2354252 +22.5577028     1029.328      72.0051      1.548     3.42     5.844218     20.31483     100.3578        19     1.207     0.984 -34.70   0
       291    767.7719    194.6970 300.3608371 +22.6778548     564.1182     71.95006      1.434     3.07     5.867333     20.31483     74.99216        10     0.947     0.780  10.32   0
       292    117.6466    195.1958 300.1582178 +22.4833679     462.4022     71.98676      1.664     4.58       6.0796     20.31483     39.61054         8     1.176     0.507 -24.32   0
       293    807.9312    194.0686 300.3735657 +22.6896883     153.5285      72.0601      1.210     3.81     5.962722     20.31483      29.5421         5     1.030     0.404 -59.77   0
       294    875.0460    191.6221 300.3952954 +22.7090607     336.3352     72.04178      1.347     3.96      5.94209     20.31483     39.36929         7     0.926     0.723 -44.04   0
       295    300.4559    187.1651 300.2176919 +22.5358144     361.1446     72.02345      1.691     5.54     5.967423     20.31483     30.33842        10     1.152     0.751  -5.71   0
       296    182.6563    187.0617 300.1810731 +22.5005051     661.4404     72.07843      1.405     3.22     6.033716     20.31483      81.6653        13     1.055     0.826  18.88   0
       297    720.5561    184.1132 300.3495447 +22.6606847     1632.759     71.98676      1.439     2.74     5.719844     20.31483     216.9618        21     1.206     0.972  69.40   0
       298    785.6570    183.9744 300.3698903 +22.6801217     443.2001      72.0051      1.277     2.56     5.925763     20.31483     74.16898         9     0.867     0.661 -12.42   0
       299    204.4377    180.8383 300.1898657 +22.5052413     584.8195     72.07843      1.902     4.58     6.019205     20.31483     50.45718        10     1.117     0.815  18.55   0
       300    992.3197    176.8185 300.4366922 +22.7398746      852.534      72.0051      1.525     3.22     5.904418     20.31483      99.7139        14     1.038     0.889 -27.45   0
       301    724.7758    175.6916 300.3535898 +22.6595254     757.0623     71.95006      1.570     3.24     5.678434     20.31483     89.35848        10     0.902     0.807  72.21   0
       302    494.4796    176.4442 300.2815763 +22.5908229      312.451     71.98676      1.284     4.14     5.842656     20.31483     49.52042         6     1.101     0.445 -35.53   0
       303    645.1379    174.8419 300.3290387 +22.6354522     1204.503     71.98676      1.367     2.70     5.723739     20.31483     161.3635        16     1.007     0.898 -39.97   0
       304    466.1491    171.3774 300.2743944 +22.5808862      400.065      72.0051      2.042     4.32     5.875213     20.31483     44.13267         8     1.080     0.632   9.16   0
       305    840.5309    166.5465 300.3926549 +22.6915237     1389.343     72.02345      1.477     2.34     6.031291     20.31483     179.9105        19     1.083     0.998   6.16   0
       306    571.4259    166.3572 300.3088170 +22.6109537     926.8645     72.02345      1.434     2.85     5.828278     20.31483     117.6261        15     1.112     0.841  76.43   0
       307    852.4990    165.6449 300.3966807 +22.6948441     779.1668     72.02345      1.511     3.75     6.035662     20.31483     97.78316        15     1.287     0.805  43.76   0
       308    898.9330    164.7905 300.4114450 +22.7084864     292.2937      72.0051      1.334     3.58     6.033796     20.31483     36.55217         7     0.738     0.684 -12.14   0
       309   1013.5983    156.4986 300.4499205 +22.7403901     1658.571     71.89497      1.592     3.28     5.853358     20.31483     186.2438        22     1.185     1.103 -24.71   0
       310    969.2155    156.0356 300.4362161 +22.7269856     1032.027      72.0051      1.373     3.01     5.947105     20.31483     110.8349        15     1.070     0.844  17.21   0
       311    203.2506    148.6741 300.1999196 +22.4956465     906.9796     72.02345      1.734     3.75     6.020825     20.31483     92.82725        14     1.036     0.975 -50.88   0
       312     65.1513    143.2240 300.1587371 +22.4527169     2295.112      72.0051      1.817     3.31     6.391509     20.31483     253.3823        32     1.392     1.288  44.58   0
       313    888.3908    140.5169 300.4160221 +22.6983501     724.5889     71.95006      1.630     4.67     6.041503     20.31483     79.70482        17     1.338     1.024  39.14   0
       314     15.0119    140.3145 300.1440930 +22.4368607     419.7123     71.95006      1.343     4.14     6.699981     20.31483     58.33881         7     0.940     0.632 -15.48   0
       315    222.6131    136.5663 300.2098667 +22.4979669     5748.048     71.98676      1.660     3.02     5.973614     20.31483     684.2234        40     1.407     1.216  69.32   0
       316      7.0875    130.9477 300.1446648 +22.4317969     1258.225     72.04178      1.752     4.06     6.666344     20.31483     115.2471        21     1.318     1.121 -54.97  16
       317   1021.5718    124.5419 300.4627659 +22.7335774     17998.34     66.43414      1.713     3.30     5.812932     20.31483     1773.714        54     1.531     1.296 -88.35  24
       318    206.3529    127.7579 300.2076621 +22.4905669     557.9564     72.04178      1.464     3.02      5.99901     20.31483     63.24237         8     0.865     0.656 -65.20   0
       319    866.9271    118.5835 300.4164328 +22.6856206     3742.208      72.0051      1.604     2.88     6.073627     20.31483     424.3198        34     1.309     1.268 -71.76   0
       320    970.5084    117.2504 300.4491884 +22.7162116     2888.129     72.02345      1.719     3.13     5.883284     20.31483     314.7227        33     1.436     1.192  78.90   0
       321    416.0233    113.5327 300.2775288 +22.5492558     686.4923     71.98676      1.435     4.63     5.920492     20.31483     89.55714        12     1.168     0.821  46.50   0
       322    341.9729    104.9729 300.2572479 +22.5246281     887.4185     71.96841      2.175     7.68     5.910389     20.31483     71.97904        19     2.251     0.734 -19.85   0
       323    874.7974    104.5009 300.4234513 +22.6839227     236.3085     71.89497      1.282     4.48     6.059326     20.31483     28.91024         6     0.972     0.586  65.19   0
       324    467.6379    100.7764 300.2977354 +22.5610384     1679.726     72.02345      1.544     2.89      5.88271     20.31483     202.5255        22     1.187     1.016  85.44   0
       325    395.6582    101.2995 300.2751512 +22.5396436      516.847     72.09675      1.507     3.95     5.909977     20.31483     67.50078        11     1.130     0.766 -42.91   0
       326    106.7377    102.3457 300.1849122 +22.4534331     754.3405      72.0601      1.957     3.67      6.29609     20.31483     70.21359        10     1.134     0.694 -30.36   0
       327      4.0392    101.6015 300.1532250 +22.4224567      334.906     68.66292      1.566     3.86     6.399738     20.31483     29.83231         5     0.881     0.484  -5.83  16
       328    529.0604     99.9629 300.3171317 +22.5791871     412.8646     72.02345      1.387     4.47     5.874972     20.31483      38.1465         7     1.070     0.531  59.09   0
       329    211.2065     96.5510 300.2192828 +22.4830549     413.0631      72.0051      1.567     2.67     5.960047     20.31483     41.73392         5     0.727     0.429 -25.36   0
       330    756.0380     90.7883 300.3908505 +22.6444584     307.2701      72.0051      1.234     4.20      6.11553     20.31483     45.69901         7     0.784     0.640   0.83   0
       331    603.0988     86.4510 300.3445786 +22.5974570     256.9429     72.09675      1.247     4.22      5.90685     20.31483     38.26649         5     0.792     0.642  74.90   0
       332    241.6351     80.5531 300.2339326 +22.4875699     6002.029     72.02345      1.635     2.94     5.920651     20.31483     743.2557        41     1.352     1.266  68.43   0
       333    748.1295     81.5370 300.3913816 +22.6394316     328.5474     72.04178      1.564     3.96     6.154842     20.31483     43.24745         6     0.988     0.496   3.41   0
       334     92.8115     80.3128 300.1877195 +22.4429334     624.2783     71.95006      1.521     3.19     6.405452     20.31483     67.55205         9     0.975     0.626  -6.38   0
       335    213.4622     74.4846 300.2271331 +22.4773905     437.9219     72.11507      1.629     4.75     5.987946     20.31483     46.57522         8     1.063     0.636   8.44   0
       336    257.0143     72.4506 300.2413427 +22.4898464     299.2439     72.02345      1.320     4.31     5.920651     20.31483     34.34246         6     0.989     0.535 -75.92   0
       337    718.0241     71.2073 300.3853409 +22.6274551     342.2756      72.0051      1.701     4.50     6.194983     20.31483     46.51259         7     1.374     0.701 -60.41   0
       338      3.0846     71.0769 300.1628166 +22.4134047     397.6905     65.02776      1.571     3.83     6.041605     20.31483     54.53303         5     1.186     0.546  10.78  24
       339    487.7221     65.9639 300.3152690 +22.5570413     6282.374     71.96841      1.495     2.95     5.875228     20.31483     691.1676        36     1.268     1.176  82.68   0
       340    372.9660     65.8924 300.2795568 +22.5226743     614.7222     71.95006      1.408     4.47     5.908372     20.31483     80.03108        11     1.207     0.725  50.36   0
       341    544.9877     60.8676 300.3347593 +22.5727126     255.8008      72.0051      1.180     2.31     5.875228     20.31483     55.00707         6     0.767     0.611  -7.72   0
       342    740.3699     56.0311 300.3972247 +22.6297737     683.4699      72.0051      1.604     3.06      6.26841     20.31483     76.24809        10     0.994     0.743 -33.01   0
       343    833.1232     55.2954 300.4263915 +22.6573026     329.0975     72.11507      1.091     2.57     6.327298     20.31483     58.90029         7     0.804     0.581 -24.11   0
       344    180.8024     50.1257 300.2248634 +22.4606123     492.0655     71.91335      1.555     3.68      6.29568     20.31483     65.88954        11     1.026     0.848 -77.78   0
       345    539.0488     48.8259 300.3368096 +22.5674731     335.7745     72.02345      1.174     3.72     5.875228     20.31483     51.06708         7     0.907     0.605 -21.50   0
       346    616.1974     46.1363 300.3617206 +22.5897826      6277.69     71.98676      1.520     2.85     6.093076     20.31483     714.3146        38     1.294     1.194 -81.84   0
       347    390.9846     45.0763 300.2919095 +22.5220843     1886.764      72.0051      2.210     3.16     5.908372     20.31483     388.5195        23     1.163     1.060  66.05   0
       348    657.3748     43.8290 300.3753022 +22.6014377     806.4313      72.0051      1.387     2.90     6.253627     20.31483     101.5872        14     0.945     0.916 -31.76   0
       349    726.8550     41.3635 300.3977619 +22.6215120     279.8957     72.02345      1.356     3.38     6.333054     20.31483     31.84066         5     0.779     0.424 -20.27   0
       350    673.1863     39.7112 300.3815649 +22.6049833     631.9209     71.95006      1.698     3.11     6.333392     20.31483     70.66436        11     1.054     0.865  -9.65   0
       351    140.0085     37.2932 300.2163313 +22.4447099     646.3683     71.91335      1.555     3.58     6.572352     20.31483     67.56653        13     1.203     0.844 -63.08   0
       352    943.1188     37.4463 300.4664944 +22.6850561     552.1351     71.98676      1.508     3.59     5.907946     20.31483     61.65406        10     1.128     0.602   7.10   0
       353    982.5947     36.3600 300.4791676 +22.6965450     330.3754     72.02345      1.922     4.47     5.842687     20.31483     30.55399         6     1.108     0.679  21.77   0
       354    711.4981     35.1890 300.3949737 +22.6151425     578.8964     71.89497      1.707     3.70     6.359568     20.31483     65.80234        10     1.005     0.861 -88.89   0
       355    660.3889     31.0746 300.3803731 +22.5986709     2993.995     72.02345      1.499     2.72     6.327667     20.31483     305.6848        30     1.261     1.105  85.97   0
       356    301.1530     32.1674 300.2681269 +22.4914844     363.7255     72.04178      1.542     3.68     5.918349     20.31483     58.20172         8     1.092     0.644 -48.18   0
       357    675.2678     29.9871 300.3853635 +22.6028089      792.263     72.02345      1.725     5.75     6.384015     20.31483     66.95543        12     1.294     0.788  52.83   0
       358    746.8274     22.7917 300.4100052 +22.6221430     1552.014      72.0051      1.548     2.88     6.412553     20.31483     173.4215        24     1.265     1.069  73.00   0
       359     17.4539   1019.1636 299.8595675 +22.6897055     915.8297     72.02345      4.426     5.03    -2.828428     20.31483     36.48207         5     1.183     0.606  39.13  17
       360    627.6035    986.3407 300.0601200 +22.8633087      8769.66     71.96841      2.112     5.18     3.972552     20.31483     418.2486        50     1.653     1.523  19.53   3
       361    290.4352   1011.5626 299.9469276 +22.7694377     845.6705     72.07843      1.799     5.40      6.66089     20.31483     60.70816        13     1.317     0.786 -82.23   3
       362    287.5211   1011.5260 299.9460328 +22.7685531     245.8204     72.11507      1.555     6.21     8.019074     20.31483     39.63309        10     1.453     0.746 -89.00   3
       363    776.8979     12.4492 300.4227326 +22.6281606     272.8866      72.0601      1.118     3.67     6.460601     20.31483     50.33488         6     0.794     0.488   9.04   0
       364    125.9326   1006.3298 299.8974621 +22.7185825     1144.879     72.04178      2.586    10.15     91.47971     20.31483      47.5291        20     2.159     1.331 -88.25   2
