#   1 NUMBER                 Running object number                                     
#   2 X_IMAGE                Object position along x                                    [pixel]
#   3 Y_IMAGE                Object position along y                                    [pixel]
#   4 ALPHA_J2000            Right ascension of barycenter (J2000)                      [deg]
#   5 DELTA_J2000            Declination of barycenter (J2000)                          [deg]
#   6 FLUX_APER              Flux vector within fixed circular aperture(s)              [count]
#   7 FLUXERR_APER           RMS error vector for aperture flux(es)                     [count]
#   8 FLUX_RADIUS            Fraction-of-light radii                                    [pixel]
#   9 FWHM_IMAGE             FWHM assuming a gaussian core                              [pixel]
#  10 BACKGROUND             Background at centroid position                            [count]
#  11 THRESHOLD              Detection threshold above background                       [count]
#  12 FLUX_MAX               Peak flux above background                                 [count]
#  13 ISOAREA_IMAGE          Isophotal area above Analysis threshold                    [pixel**2]
#  14 A_IMAGE                Profile RMS along major axis                               [pixel]
#  15 B_IMAGE                Profile RMS along minor axis                               [pixel]
#  16 THETA_IMAGE            Position angle (CCW/x)                                     [deg]
#  17 FLAGS                  Extraction flags                                          
         1    225.3417     18.8242 300.2353850 +22.4424758     3837.172     72.39363      1.558     2.79     5.158386     20.42444     431.6579        33     1.273     1.144  84.54   0
         2    786.7394     11.4235 300.4125333 +22.6084451     830.7778     72.37519      1.392     2.93     4.601199     20.42444     107.6547        15     1.059     0.846  75.42   0
         3    341.2787     10.6784 300.2740776 +22.4748655     1382.191     72.52259      1.676     3.27     5.273455     20.42444     145.2465        20     1.267     0.940  60.24   0
         4    273.7779     11.2539 300.2528978 +22.4548116     250.7914     72.41206      1.318     3.77     5.255222     20.42444     28.96293         5     0.919     0.443 -45.74   0
         5    824.3093      6.2683 300.4259133 +22.6182049     670.7643     72.52259      1.519     4.10     4.575067     20.42444     67.41398        11     1.095     0.720  76.48  16
         6    747.8858      6.1729 300.4021264 +22.5953077     542.3339     72.39363      1.625     3.19     4.482644     20.42444     57.12627         8     0.895     0.653  28.31  16
         7    844.5631      2.6556 300.4333972 +22.6232261     2097.999     63.38821      1.370     2.71     4.509053     20.42444     267.6667        20     1.090     0.960  -5.50  24
         8    550.0229      1.3657 300.3420550 +22.5346988     249.3932     56.48383      0.968     2.02     5.052816     20.42444     62.79701         6     0.739     0.480  -3.73  24
         9    787.5671   1003.2000 300.0908114 +22.8935997     556.0156     72.33829      1.675     5.85     2.936545     20.42444     39.69241        10     1.297     0.744 -10.97   0
        10    256.6822   1018.2361 299.9206860 +22.7386252     2282.585     72.35674      5.887    25.33      72.6496     20.42444      62.4064       165     4.945     3.602   8.52  27
        11    254.0275   1001.5198 299.9252985 +22.7330373     4281.482     72.41206      7.986    23.23     61.77892     20.42444     85.07685       274     5.166     4.857  26.06  19
        12    272.8169   1000.6875 299.9314107 +22.7384391     4872.843     72.31983      8.971    26.77     60.34867     20.42444     94.57627       395     6.711     4.937 -39.09  19
        13    292.3080    988.7656 299.9413487 +22.7408726     7247.496     72.33829      7.474    28.72     48.83221     20.42444     150.3284       565     9.234     4.392  61.64  18
        14    219.8234    988.4316 299.9189234 +22.7190181     1976.588     72.39363      7.523    13.88     53.83588     20.42444     56.04412        55     3.849     1.392  76.44   3
        15    226.1436   1012.7426 299.9129800 +22.7278828     3768.474     72.46735      8.271    29.82     69.96771     20.42444     76.61728       320     6.315     5.414  75.18  19
        16    231.6797   1014.1340 299.9142482 +22.7299435     2493.394     72.50418      5.760    13.96     70.47744     20.42444     88.15492        56     3.284     2.090  31.39  19
        17    194.1420   1021.5313 299.9001744 +22.7207935     1122.404     66.93237      2.626     9.79     75.80812     20.42444     39.54971        15     2.284     1.171  65.07  27
        18    202.9703   1022.4930 299.9026054 +22.7237197     1296.682     62.60416      4.415    10.98     75.80812     20.42444     55.23148        27     2.383     1.410 -19.43  27
        19    184.9310   1022.2155 299.8970892 +22.7182240     1964.151     63.97514      3.496    14.48     75.80812     20.42444     63.40402        59     3.213     1.814 -31.78  26
        20    135.6086   1013.7017 299.8845321 +22.7009748     5414.038     72.26443     13.441    60.60     54.79013     20.42444     123.4799      1185    13.302     7.676  23.11  27
        21    130.4462    962.6105 299.8995459 +22.6847850     5104.449     72.41206     28.963   109.66      27.0512     20.42444     165.7004      4552    21.819    18.239 -80.27  27
        22    198.8060    971.7485 299.9178171 +22.7079272     1902.122     72.37519      6.399    11.81     43.49601     20.42444     55.18872        39     2.230     1.743  25.93   2
        23    471.5173    940.7083 300.0127228 +22.7808738     306.6525     72.54099      1.369     4.53     3.415155     20.42444     41.85044         8     1.153     0.506  50.04   0
        24    824.9128    937.4709 300.1238301 +22.8859349     1704.661     72.54099      0.651     1.00     3.078346     20.42444     790.3246         7     0.523     0.382  87.54   0
        25    705.9549    968.9839 300.0765154 +22.8593077      6744.88     72.41206      1.878     4.02     3.163006     20.42444     404.3696        47     1.467     1.415  46.38   0
        26    223.4954    993.0740 299.9185547 +22.7214509     2047.078     72.54099      4.824    17.36     57.06709     20.42444     51.03799        67     3.533     2.370 -57.98   3
        27    985.0981    932.9056 300.1752560 +22.9326413     2086.116     72.57779      1.937     4.73     3.279019     20.42444     117.5699        31     1.429     1.353  25.71   0
        28    980.4750    985.5837 300.1566792 +22.9463791      712.263     72.39363      2.017     7.61     3.047105     20.42444     43.20197        19     1.456     1.239  44.85   0
        29    614.4193    959.5992 300.0510606 +22.8291613     1531.409     72.31983      1.806     4.79      3.31478     20.42444     97.44453        22     1.332     1.126 -46.49   0
        30    635.3005    931.0079 300.0668617 +22.8272221     335.0553     72.30138      1.883     4.37     3.445297     20.42444     37.23765         6     1.058     0.514   9.36   0
        31    483.5322    929.2985 300.0201723 +22.7812063     280.5411     72.48577      1.589     4.99     3.422617     20.42444     24.88037         6     0.989     0.713 -23.68   0
        32    668.0000    927.1843 300.0782886 +22.8359321     234.9926     72.22749      1.329     4.34     3.465559     20.42444     30.68596         5     1.029     0.521  33.87   0
        33    773.8847    921.4649 300.1131339 +22.8660420     901.2943     72.48577      2.182     7.53     3.136583     20.42444     50.26439        20     1.489     1.162  50.01   0
        34    808.8395    916.3203 300.1256995 +22.8750456     1060.108     72.37519      1.696     4.47     3.115937     20.42444     70.20627        19     1.251     1.026 -40.67   0
        35    754.9579    917.4080 300.1085560 +22.8592028     295.4775     72.41206      2.121     4.46     3.195508     20.42444     27.24592         5     1.393     0.406 -12.00   0
        36    586.2147    916.6266 300.0562547 +22.8083740     295.1598     72.41206      1.558     5.85     3.361621     20.42444     44.86779         9     1.170     0.885 -63.70   0
        37    508.2145    956.2465 300.0190895 +22.7963400     1037.239     72.41206      1.724     4.75     3.251985     20.42444     79.97399        18     1.342     0.952 -33.18   0
        38     18.5142    913.2545 299.8808261 +22.6370338      564.962     72.44893      1.983     5.68     3.427485     20.42444     42.28888        11     1.224     0.744 -46.79   0
        39    831.1021    909.6472 300.1348079 +22.8798045     11249.46      72.4305      1.805     3.91     3.176994     20.42444     711.3588        54     1.462     1.427  62.91   0
        40    877.0508    909.7518 300.1490962 +22.8936088     388.8828      72.4305      1.458     5.02     3.251051     20.42444     46.02992         8     1.119     0.636  51.17   0
        41    964.1307    903.4595 300.1782935 +22.9179029     198.3505     72.41206      1.257     4.57     3.372024     20.42444      29.1301         5     0.843     0.704 -47.10   0
        42    142.2102    900.9962 299.9232372 +22.6706593     943.7189     72.22749      3.888     6.64     9.670449     20.42444     57.96056        19     1.590     1.020  19.58   0
        43    535.9818    897.5734 300.0468128 +22.7878408     428.1754     72.41206      1.431     4.71      3.28417     20.42444     41.89362         8     1.020     0.616 -43.16   0
        44    839.6213    891.8118 300.1432630 +22.8772389     1413.803     72.37519      1.783     4.00     3.252001     20.42444     94.70265        21     1.234     1.094  31.58   0
        45      8.4303    974.4688 299.8577882 +22.6515433      831.763     72.37519      5.433     7.38    -2.129221     20.42444     46.34773        15     1.568     1.309 -56.69  16
        46    691.5381    889.2339 300.0979610 +22.8321013     655.4555     72.41206      2.239     6.68     3.433948     20.42444     50.78472        12     1.336     0.937  19.63   0
        47    877.7460    885.4340 300.1572208 +22.8868363     749.9055     72.41206      1.996     5.49     3.319924     20.42444     44.35542        16     1.184     1.083  71.10   0
        48    985.8492    882.6387 300.1918375 +22.9184334      246.262     72.41206      1.693     4.42      3.43702     20.42444     45.76075         7     1.042     0.824  10.57   0
        49    926.0158    877.1357 300.1749682 +22.8989217     560.9019     72.37519      1.931     6.86     3.445497     20.42444     43.37781        12     1.364     0.967  85.15   0
        50    777.4171    875.8224 300.1290767 +22.8540015     775.0574     72.37519      1.754     4.59     3.336426     20.42444     60.19972        15     1.138     0.990 -78.99   0
        51     37.0033    874.1904 299.8992689 +22.6313919     337.1011       72.209      1.352     4.37     4.012294     20.42444     32.00395         6     1.266     0.430 -54.66   0
        52    490.0933    871.8150 300.0409058 +22.7666870     4247.018     72.31983      1.680     3.30     3.419479     20.42444     385.2108        36     1.392     1.263 -60.04   0
        53    788.6833    872.5740 300.1336436 +22.8564467     674.8178     72.37519      1.751     5.59     3.327873     20.42444     52.63358        13     1.177     0.908 -38.26   0
        54    268.6325    860.7689 299.9756102 +22.6970731     424.0778     72.41206      1.633     4.78     4.957796     20.42444     43.62416         6     1.117     0.579 -65.93   0
        55    532.8853    860.0452 300.0580509 +22.7761465     365.0264     72.37519      1.354     4.40     3.365744     20.42444     49.93121         7     0.781     0.706  15.15   0
        56    585.9583    963.2266 300.0410193 +22.8216646     427.1765      72.4305      1.612     5.76        3.246     20.42444     47.47082         9     1.124     0.831 -55.13   0
        57    215.5528    857.5225 299.9601647 +22.6802125     774.1624     72.39363      1.826     3.99     5.968354     20.42444     64.52583        16     1.136     1.050 -47.74   0
        58    124.2816    856.2715 299.9322070 +22.6524585     322.6792     72.52259      1.311     3.68     4.750178     20.42444      47.7569         5     0.914     0.439 -83.12   0
        59    192.5309    854.5150 299.9539868 +22.6724407     1332.118     72.48577      1.682     3.83     5.837258     20.42444     142.4157        24     1.397     1.066 -47.14   0
        60   1018.3989    842.2657 300.2151171 +22.9165931     2273.522     72.37519      1.904     4.49     3.490607     20.42444      136.696        29     1.418     1.245 -34.68  16
        61    438.8568    954.1201 299.9981984 +22.7749205     6465.676      72.4305      1.781     3.80     3.549319     20.42444     479.9815        42     1.397     1.362 -39.29   0
        62    723.4641    842.5093 300.1230979 +22.8282647     532.0297     72.48577      2.393     4.15     3.452802     20.42444     49.42144         7     0.907     0.668 -17.77   0
        63    802.2563    836.0337 300.1497534 +22.8500268     546.7011     72.41206      1.650     4.87     3.344587     20.42444     58.79756        13     1.074     0.879 -34.71   0
        64    225.3038    836.3548 299.9700768 +22.6770704     378.9583     72.41206      1.229     2.44     5.337027     20.42444     55.75434         5     0.719     0.450  80.08   0
        65    670.1256    829.8809 300.1105888 +22.8086482     4927.425     72.50418      1.624     3.21     3.408676     20.42444     408.4763        38     1.360     1.259 -49.77   0
        66    160.2305    830.9220 299.9516178 +22.6559827      370.743     72.37519      1.690     4.94     4.806331     20.42444     31.84921         8     1.054     0.655 -76.48   0
        67    472.4828    827.0209 300.0499879 +22.7485552     608.6514     72.35674      1.490     3.64      3.50653     20.42444     67.38102        11     1.054     0.734   4.77   0
        68    220.3316    823.5944 299.9726791 +22.6719197     1375.883     72.35674      1.656     3.63     4.952105     20.42444     152.2205        24     1.335     1.096  29.19   0
        69    690.8629    822.4545 300.1194620 +22.8127345     723.5159     72.44893      1.417     3.71     3.412707     20.42444      82.0225        16     1.287     0.811  23.10   0
        70    489.5495    821.7745 300.0570045 +22.7521693     304.5276     72.41206      1.971     4.29     3.434222     20.42444     29.88875         5     1.103     0.476  31.34   0
        71    239.3777    820.8982 299.9794760 +22.6768624     414.0759     72.31983      1.428     3.81       4.7817     20.42444     48.94357         8     1.097     0.617 -43.35   0
        72    607.2194    813.3533 300.0963715 +22.7850427     184.4266      72.4305      1.089     3.39     3.409049     20.42444      34.8206         5     0.771     0.432  18.64   0
        73    846.1575    809.6775 300.1720039 +22.8556192     4316.458     72.37519      1.682     3.56     3.438632     20.42444     305.7301        39     1.354     1.307   8.75   0
        74    255.1444    804.0617 299.9898499 +22.6767661     427.2574     72.46735      1.887     4.79     4.365406     20.42444     34.75396         7     1.063     0.612 -89.19   0
        75    562.9493    802.2393 300.0862009 +22.7685781     547.5914     72.41206      1.456     4.09     3.400694     20.42444     55.06684        14     1.056     0.971 -79.22   0
        76    209.5860    800.1608 299.9769555 +22.6619763      1000.71     72.41206      1.745     3.82     4.143928     20.42444     93.65964        17     1.122     1.012 -84.05   0
        77    624.8289    795.4959 300.1076592 +22.7851985     442.3086     72.31983      1.611     3.62     3.389989     20.42444     47.92242         8     0.900     0.643  52.35   0
        78    359.1225    792.2195 300.0260322 +22.7045672      53342.2     72.39363      1.590     3.05     4.184919     20.42444      5086.83       103     1.462     1.426  38.38   0
        79    617.0028    791.3102 300.1065828 +22.7816507      1708.07     72.30138      1.565     3.27     3.392064     20.42444     141.2062        20     1.131     1.050  88.68   0
        80    287.4463    790.2031 300.0043973 +22.6824844     489.4299     72.37519      1.388     3.74     4.277542     20.42444     55.66302        11     0.987     0.846  13.83   0
        81    646.1631    787.3431 300.1169528 +22.7892555     1016.539     72.39363      1.439     2.95     3.385574     20.42444     103.3537        11     0.890     0.777  34.62   0
        82     45.4135    786.6148 299.9303467 +22.6088185     847.1974     72.31983      2.008     4.89      3.66854     20.42444     83.52655        14     1.360     1.050 -77.67   0
        83     12.8377    787.3927 299.9199765 +22.5992624     719.5084     72.41206      1.997     3.13     3.713122     20.42444     61.34731        11     0.952     0.780 -68.89   2
        84    656.9391    785.7637 300.1208222 +22.7920331     569.9545     72.41206      1.482     5.01     3.384698     20.42444     55.00031        14     1.134     0.990 -52.06   0
        85    762.2100    781.8780 300.1548784 +22.8224763     377.2354     72.35674      1.463     5.17     3.420666     20.42444     56.28042        10     1.098     0.687 -23.33   0
        86    799.9381    772.3450 300.1697333 +22.8310480     758.3947     72.46735      1.452     3.08     3.345541     20.42444      73.3558        14     1.016     0.861  87.49   0
        87    408.8634    769.4340 300.0489102 +22.7129527     31201.11     72.39363      1.565     3.06     3.927963     20.42444     2832.966        73     1.350     1.346 -54.27   0
        88    423.1525    769.9169 300.0531988 +22.7173773      1879.35     72.39363      1.453     3.04     3.851749     20.42444     203.7898        21     1.162     0.984  47.07   0
        89    931.9625    765.4065 300.2131440 +22.8686206     2634.432      72.4305      1.607     3.33     3.678608     20.42444     216.9004        26     1.216     1.148   2.68   0
        90    420.0565    763.8721 300.0542000 +22.7147146       584.07     72.41206      1.528     3.55     3.826048     20.42444     55.24358        10     0.896     0.766  81.68   0
        91    689.9534    761.4344 300.1390122 +22.7949477     853.0143      72.4305      1.429     3.01     3.437737     20.42444     89.67204        13     0.951     0.866 -12.34   0
        92    291.3243    761.1014 300.0150607 +22.6753021     863.3407     72.52259      1.605     3.50     4.187652     20.42444     101.9024        15     1.147     0.950 -30.13   0
        93    526.3733    761.3323 300.0881104 +22.7458718     493.7703     72.37519      1.674     4.03     3.355816     20.42444     58.83312         8     0.986     0.771  66.27   0
        94    584.6548    759.8244 300.1067437 +22.7629156      358.845      72.4305      1.611     4.29     3.362404     20.42444     30.60295         5     1.119     0.469  33.48   0
        95    536.9930    756.2317 300.0930736 +22.7475928     956.3444     72.39363      1.503     3.36     3.341896     20.42444     89.01771        15     1.096     0.887  65.22   0
        96     96.4426    756.6626 299.9559319 +22.6155496     470.4409     72.39363      1.522     4.39     3.615754     20.42444     46.70722         8     0.886     0.744  33.50   0
        97    938.2605    753.0601 300.2191205 +22.8669618     550.2266      72.4305      1.892     5.92     3.737754     20.42444      43.2705        10     1.182     0.834 -59.71   0
        98    482.8286    751.4962 300.0777542 +22.7299909     458.1205     72.33829      1.512     4.98     3.366264     20.42444     50.66687        10     1.025     0.875 -80.48   0
        99    439.3449    752.8326 300.0637888 +22.7173328     412.4881     72.41206      1.390     3.71     3.622085     20.42444     43.92887         7     0.849     0.624  -7.53   0
       100    394.8294    752.5652 300.0500262 +22.7039041     331.1126     72.41206      1.462     4.09     3.903813     20.42444     31.05793         5     1.168     0.410 -14.79   0
       101    691.4165    750.9401 300.1428784 +22.7923740     466.7175     72.35674      2.063     4.74     3.451555     20.42444     35.27933         7     1.367     0.466 -11.41   0
       102    125.4704    750.6328 299.9669101 +22.6225329     511.6089     72.39363      2.068     2.84     3.601171     20.42444     46.79709         5     0.695     0.479 -74.01   0
       103    915.7778    748.1985 300.2136901 +22.8588291        420.1     72.31983      1.477     3.14     3.708777     20.42444     48.08736         8     0.796     0.689  29.01   0
       104    289.4000    745.5533 300.0195148 +22.6702656     470.8534     72.37519      1.359     3.73     4.139493     20.42444     53.53421         6     0.955     0.470  55.34   0
       105    581.7675    734.8466 300.1139617 +22.7548816     520.4139      72.4305      1.539     6.48     3.351732     20.42444     53.08778        13     1.324     0.890 -86.07   0
       106    612.5842    736.0425 300.1231683 +22.7644644     398.4914     72.41206      1.457     3.53     3.373235     20.42444     46.54976         9     0.884     0.765  -9.91   0
       107    998.4379    730.7883 300.2451258 +22.8785938     4484.732     72.39363      1.693     3.59     3.838679     20.42444     341.6343        41     1.385     1.321 -65.07   0
       108    491.8170    733.5705 300.0863765 +22.7275430     359.8914     72.39363      1.536     4.55      3.35227     20.42444     41.92916         6     1.032     0.570  59.92   0
       109    603.8131    731.8382 300.1218033 +22.7606280     1333.146     72.41206      1.404     2.83     3.394128     20.42444     178.4495        19     1.073     1.002  18.41   0
       110    523.7203    731.5606 300.0969592 +22.7365333     231.4556     72.37519      1.227     2.51     3.344746     20.42444     52.86901         5     0.684     0.493   7.03   0
       111    986.7900    722.1453 300.2443015 +22.8726216     1643.332     72.39363      1.629     3.49      3.87103     20.42444     128.6927        25     1.238     1.179  40.21   0
       112    349.8438    715.8655 300.0479582 +22.6798826     963.2369     72.37519      1.532     3.98     4.120814     20.42444     89.76937        15     1.169     0.942 -66.82   0
       113    813.2881    713.4266 300.1930407 +22.8181319      2602.03     72.37519      1.631     3.02     3.330163     20.42444     249.7758        26     1.373     1.026  -2.03   0
       114   1017.9059    712.2722 300.2572153 +22.8791066     1693.718     72.50418      1.696     3.72     3.906975     20.42444     118.4003        24     1.246     1.139 -29.46  16
       115     35.6009    703.5460 299.9542901 +22.5820618     786.0032     72.33829      1.636     3.79      4.11315     20.42444     72.85101        16     1.189     0.999  -3.02   0
       116    895.4737    699.2892 300.2232528 +22.8386986     634.7097     72.55939      1.650     4.63     3.737846     20.42444     56.54797        13     1.247     0.826  46.09   0
       117    198.3958    699.7389 300.0061088 +22.6298230     443.7068     72.37519      1.484     3.80      3.57803     20.42444     72.98246        13     1.192     0.875  30.81   0
       118    931.6671    690.3708 300.2374355 +22.8469807     147937.9     72.39363      1.627     3.13     3.986055     20.42444     13146.07       179     1.532     1.524 -37.07   0
       119    693.7814    694.1215 300.1620776 +22.7767720     363.4827     72.39363      1.282     4.03     3.677275     20.42444     48.70093        10     1.031     0.807  -4.20   0
       120    784.1094    690.7706 300.1913088 +22.8028820     852.0453     72.35674      1.621     3.25     3.317348     20.42444     94.21524        13     1.055     0.836  67.66   0
       121    964.7647    683.5040 300.2499878 +22.8549235     481.0499     72.39363      1.568     4.61     4.007622     20.42444     46.96808         8     1.099     0.645   1.75   0
       122    617.8098    679.1372 300.1432848 +22.7496974     1730.481     72.31983      1.440     2.86     3.826405     20.42444     189.4306        21     1.123     0.976  69.16   0
       123    799.1851    676.4676 300.2006538 +22.8032926     9411.093     72.37519      1.478     2.83     3.205351     20.42444     960.7257        43     1.248     1.197 -77.55   0
       124    280.6572    677.4514 300.0389225 +22.6481097     302.2834     72.44893      1.187     3.30     3.603007     20.42444     40.55279         5     1.008     0.313  68.15   0
       125    300.6147    671.4712 300.0470709 +22.6523810     5046.156     72.39363      1.562     2.89     3.660342     20.42444     562.2963        37     1.251     1.207  43.52   0
       126     14.4160    669.6884 299.9587089 +22.5659974     1479.902     72.31983      1.722     3.69     4.376225     20.42444     166.8553        24     1.298     1.174  61.84   0
       127    382.4946    669.4423 300.0731961 +22.6763576     1282.176     72.41207      1.597     4.88     3.872072     20.42444     151.3005        19     1.303     0.922  41.26   0
       128    258.2956    667.4004 300.0352348 +22.6385187     501.4749     72.26443      1.673     3.18     3.606488     20.42444     57.80216         6     0.736     0.609 -34.29   0
       129    590.8807    665.3706 300.1393720 +22.7376730      770.275     72.41206      1.438     2.74     3.864523     20.42444     94.41029        12     0.960     0.778 -64.16   0
       130    582.6293    657.2425 300.1394432 +22.7328662     3126.472      72.4305      1.381     2.53     3.899696     20.42444     364.6146        26     1.142     1.027  69.31   0
       131    572.8185    651.0034 300.1384155 +22.7281342     1414.863     72.31983      1.401     2.87     3.915412     20.42444     157.0005        19     1.047     0.964 -48.33   0
       132    767.8094    650.0052 300.1994731 +22.7862913     232.1751     72.24596      1.278     2.81     3.607906     20.42444     35.46211         5     0.784     0.487  31.25   0
       133    501.3553    650.2559 300.1164127 +22.7064946     222.7352     72.41206      1.028     3.72     3.796445     20.42444     44.94536         5     0.935     0.426  43.40   0
       134    966.8776    649.0157 300.2618512 +22.8456487     372.8935     72.39363      1.401     4.91     4.203516     20.42444     49.23476         8     1.192     0.572  16.16   0
       135    236.3503    647.3722 300.0349178 +22.6261907     523.6641     72.41206      1.376     3.82     3.763417     20.42444     74.95768        12     1.068     0.812 -50.86   0
       136    250.4084    645.5715 300.0398731 +22.6298913     577.2678     72.37519      1.393     3.12     3.739373     20.42444     86.12953        13     0.988     0.894 -74.33   0
       137   1020.0032    642.5965 300.2805067 +22.8597167     317.1966     71.52172      1.422     4.14     4.392183     20.42444     53.90936        10     1.029     0.735  64.52  16
       138    276.2809    642.3198 300.0489734 +22.6367194     605.4592     72.52259      1.374     3.58     3.697095     20.42444     69.26118        13     1.068     0.868 -72.01   0
       139    596.8789    641.5813 300.1489673 +22.7326423      345.877     72.39363      1.237     4.24     4.064425     20.42444     44.71331         8     0.905     0.656  56.10   0
       140    497.5582    640.6652 300.1183462 +22.7026036     1751.421     72.37519      1.378     2.43     3.863138     20.42444     247.5726        18     1.046     0.913 -76.87   0
       141    307.1522    642.3628 300.0585589 +22.6459916     364.1757      72.4305      1.506     3.21     3.761332     20.42444     46.03218         6     0.808     0.603  34.00   0
       142    151.5368    635.6047 300.0123782 +22.5973713     19647.06     72.35674      1.646     2.99      3.76462     20.42444     2207.559        64     1.398     1.349  31.12   0
       143    582.4888    636.1038 300.1462660 +22.7267562     1035.582     72.57779      1.342     2.72     4.067928     20.42444     111.6388        15     1.009     0.858  53.58   0
       144    499.4134    632.7859 300.1214829 +22.7008984     262.0794     72.31983      1.383     2.61     3.925968     20.42444     34.31136         5     0.710     0.457 -70.25   0
       145    637.3622    628.4359 300.1658434 +22.7410033     324.9102     72.46735      1.170     3.78     4.203655     20.42444     34.84914         7     1.028     0.632 -70.41   0
       146    335.6374    627.1313 300.0723648 +22.6501651     407.8529     72.37519      1.485     3.88     3.930234     20.42444      48.9852         5     0.909     0.474  84.21   0
       147   1000.5912    622.2885 300.2810483 +22.8480677     1042.952     72.31983      1.628     3.33      4.54254     20.42444     97.63718        21     1.142     1.094 -42.03   0
       148     97.5679    619.6631 300.0007862 +22.5766069     1458.114     72.39363      1.827     4.44     4.055717     20.42444     124.8684        22     1.471     0.983  88.64   0
       149    867.7135    620.2262 300.2402831 +22.8076724     607.7872     72.37519      2.105     5.48     3.702993     20.42444     52.46421        11     1.096     1.008 -54.66   0
       150     72.4827    637.2312 299.9872873 +22.5741175     705.5031     72.39363      1.698     4.33     4.066044     20.42444     58.22181        14     1.095     0.999  89.44   0
       151    545.8353    616.6844 300.1411622 +22.7101941     456.3187     72.37519      1.360     3.18     4.141836     20.42444     64.24435         9     0.860     0.740  56.86   0
       152    940.7603    615.0894 300.2647267 +22.8280787     835.6335     72.37519      1.986     4.19     4.283156     20.42444      68.5671        15     1.215     0.960  75.67   2
       153    502.6703    608.8934 300.1302566 +22.6950173     751.1406     72.52259      1.395     2.96     4.120061     20.42444     106.3181        13     0.968     0.889 -58.85   0
       154    650.6144    607.6052 300.1767363 +22.7389946     488.4857     72.26443      1.356     3.09     4.348317     20.42444     60.92894        11     0.945     0.826 -45.87   0
       155    668.7215    605.9972 300.1828981 +22.7439597     643.2928     72.30138      1.517     2.54     4.357851     20.42444     78.81512        11     0.861     0.792  50.61   0
       156    698.1132    605.8295 300.1921077 +22.7527199     406.2875     72.39363      1.285     3.31     4.313287     20.42444     62.41461         9     0.885     0.814  59.26   0
       157    546.9365    604.8347 300.1453536 +22.7071227     933.5683     72.39363      1.452     2.85     4.244763     20.42444     115.0412        18     1.131     1.040  -0.44   0
       158    980.6907    600.3703 300.2819603 +22.8358097     3223.065     72.35674      1.552     2.95     4.558558     20.42444     318.2415        28     1.211     1.113  50.22   0
       159    512.4398    600.2089 300.1361178 +22.6954534      1672.86     72.39363      1.351     2.53     4.180109     20.42444     199.9452        20     1.035     0.994 -58.14   0
       160    862.1859    596.8857 300.2461408 +22.7993118     295.4592     72.33829      1.672     4.84     3.815534     20.42444     36.91337         6     1.562     0.424 -48.28   0
       161    877.7737    597.8436 300.2506891 +22.8042566     357.0269     72.41206      1.531     3.58     3.905487     20.42444      37.7429         5     1.023     0.361  -2.22   0
       162    488.0297    595.8672 300.1299304 +22.6868892     304.1685     72.37519      1.343     3.06     4.122911     20.42444     50.26419         7     0.875     0.535  49.76   0
       163     74.3600    593.7299 300.0019977 +22.5622067     4975.801     72.37519      1.688     2.89     4.134707     20.42444     585.0468        39     1.333     1.277  29.73   0
       164   1019.8163    590.0612 300.2975125 +22.8445651     273.5073     72.00536      1.233     4.55     4.734947     20.42444     41.53576         8     0.870     0.719  61.63  16
       165    375.8477    586.9554 300.0979194 +22.6506958     9016.975     72.41206      1.428     2.63     3.986385     20.42444     1121.782        45     1.250     1.180  82.62   0
       166    633.4637    588.1929 300.1776995 +22.7282807     273.2364     72.37519      1.291     4.50     4.457602     20.42444     31.10156         6     0.913     0.653   7.71   0
       167    498.2587    584.0554 300.1369498 +22.6865654     8924.388     72.46735      1.373     2.44     4.195918     20.42444     1063.957        43     1.209     1.120  75.19   0
       168    136.8299    586.3593 300.0238006 +22.5788354      248.835     72.41206      1.372     3.76     3.915004     20.42444     39.04175         5     0.891     0.539  50.10   0
       169    577.2371    581.6056 300.1623306 +22.7095370     109.1679      72.4305      1.201     3.68      4.44718     20.42444     35.61469         5     0.949     0.411  82.59   0
       170    909.9628    578.0681 300.2671472 +22.8082176     1806.186     72.37519      1.432     3.00     4.295995     20.42444     183.9376        23     1.084     1.067 -72.41   0
       171    994.6397    575.4641 300.2943998 +22.8328307     12422.11     72.35674      1.590     2.97     4.626292     20.42444     1221.085        48     1.319     1.279 -87.65   0
       172    558.8716    573.6490 300.1591966 +22.7017479     11442.91     72.37519      1.362     2.41     4.469238     20.42444     1598.317        43     1.177     1.120  80.65   0
       173    728.4136    569.6923 300.2132830 +22.7514221     495.4439     72.31983      1.154     2.44     4.318859     20.42444     64.49185         8     0.863     0.582  21.15   0
       174    286.3246    569.0720 300.0758839 +22.6187178     1425.608     72.46735      1.425     2.75       3.9226     20.42444     147.2047        19     1.089     0.997  45.26   0
       175    444.2125    568.1948 300.1252809 +22.6658100     379.0284     72.26443      1.442     4.24     4.088958     20.42444     44.61071         7     0.876     0.584 -37.06   0
       176    533.2820    566.3789 300.1535913 +22.6919903     396.6243     72.35674      1.105     2.52     4.439039     20.42444      61.2643         6     0.736     0.537  53.42   0
       177    490.4234    561.7343 300.1417594 +22.6778094     4440.994     72.37519      1.408     2.50     4.229117     20.42444     594.6143        33     1.312     1.045  30.37   0
       178    833.4049    561.8823 300.2485368 +22.7806347     714.1865     72.31983      1.299     2.77     4.155299     20.42444     99.07335        13     0.972     0.798  33.18   0
       179    468.9689    560.2520 300.1355638 +22.6709522     1282.318     72.41206      1.424     2.43     4.166348     20.42444      156.909        19     1.094     0.977  70.61   0
       180    223.2431    559.5602 300.0593599 +22.5970695     733.7316     72.48577      1.450     3.04     4.025435     20.42444     100.0278        13     1.074     0.776  31.23   0
       181    910.4953    557.4871 300.2739967 +22.8024641     1707.901     72.57779      1.551     3.17     4.445093     20.42444     164.6915        21     1.201     0.998 -27.22   0
       182    607.1616    549.3677 300.1821164 +22.7092501       199809      72.4305      1.361     2.41     4.689621     20.42444     24610.31       206     1.456     1.428  -4.19   0
       183    156.8267    557.1786 300.0394897 +22.5764644     287.7147     72.37519      1.418     5.11     3.842117     20.42444     33.81066         8     0.981     0.752   6.49   0
       184     37.2903    557.2178 300.0023380 +22.5406137     945.3688     72.31983      0.687     1.41     4.217024     20.42444     446.4572         6     0.586     0.385 -19.79   0
       185    790.8642    554.2844 300.2377455 +22.7657079      774.236     72.48577      1.305     2.75     4.241691     20.42444     101.4759        13     1.001     0.778 -77.53   0
       186    430.8080    555.2151 300.1253246 +22.6580658     357.4715     72.30138      1.411     4.42     4.136034     20.42444     46.08414         7     0.925     0.601  36.29   0
       187    293.2224    549.3306 300.0844387 +22.6151222     3458.437     72.41206      1.426     2.59      3.99967     20.42444     383.8043        30     1.194     1.140 -85.89   0
       188    993.8170    550.6982 300.3021856 +22.8254675     239.8492     72.31983      1.374     4.93     4.621212     20.42444     28.38565         5     1.090     0.632  65.14   0
       189    860.2333    549.9967 300.2607590 +22.7852569     339.4901     72.39363      1.265     3.76     4.267905     20.42444     29.04966         5     1.039     0.391  85.38   3
       190    859.2349    545.7470 300.2618277 +22.7837370     455.1824     72.41206      1.269     2.66     4.306266     20.42444     61.62771        10     0.925     0.672   1.17   2
       191    638.4880    536.1388 300.1961670 +22.7148396     243.2506     72.46735      1.023     2.06     4.687112     20.42444     51.09581         5     0.695     0.477  72.75   0
       192     39.8903    535.2379 300.0102815 +22.5350905     946.2745     72.37519      0.524    -1.28     4.180212     20.42444     615.8223         5     0.502     0.306 -80.63   0
       193    497.7833    529.9163 300.1543809 +22.6708819     2887.129     72.35674      1.493     2.57      4.31757     20.42444     382.4179        31     1.468     1.016 -87.47   0
       194    341.9332    532.2216 300.1051422 +22.6248195     367.6345     72.37519      1.146     2.34     4.111439     20.42444     70.47797         6     0.728     0.530 -33.17   0
       195     65.9152    531.3717 300.0196209 +22.5417897     1487.882     72.39363      0.648     1.33     4.052099     20.42444     757.8657         6     0.515     0.352  88.73   0
       196    909.7261    526.0037 300.2839797 +22.7931877     501.6767     72.30138      1.746     3.21     4.547277     20.42444     54.57997         9     0.890     0.769 -10.31   0
       197    728.3419    525.3678 300.2276529 +22.7386703     261.1815     72.41206      1.189     4.27     4.382201     20.42444     38.32993         7     0.942     0.552  61.30   0
       198    814.9390    518.3970 300.2569008 +22.7626109     331.9086     72.37519      1.141     4.15     4.335754     20.42444     50.46212         7     0.791     0.623   2.28   0
       199    894.7738    516.0048 300.2825641 +22.7858365      1732.31     72.35674      1.363     2.51     4.511485     20.42444     202.6659        21     1.024     0.988  53.83   0
       200    781.4538    515.8237 300.2473006 +22.7518408     288.2747     72.41206      1.650     4.73     4.324993     20.42444      31.8546         7     1.012     0.627 -65.78   0
       201    765.9335    513.5916 300.2431890 +22.7465500     2421.317     72.39363      1.349     2.57     4.334896     20.42444     327.7039        23     1.053     0.985  55.62   0
       202     24.8348    514.5392 300.0123246 +22.5246374     713.6768     72.41206      1.508     3.11     4.207706     20.42444     77.43023        12     0.997     0.797 -42.00   0
       203    125.6315    513.7896 300.0438820 +22.5546608     346.0691     72.39363      1.792     3.37     3.874756     20.42444     30.33981         5     0.739     0.450  72.83   0
       204   1010.0906    511.0504 300.3201351 +22.8189462     378.8851     72.39363      1.398     3.74     4.611538     20.42444     56.79245        10     1.019     0.745   6.49   0
       205    670.6013    510.3125 300.2145536 +22.7170458     412.6474     72.30138      1.331     3.93     4.655022     20.42444     58.20971        11     1.084     0.856 -76.26   0
       206    975.4393    510.6571 300.3094546 +22.8084572     249.6159     72.39363      1.140     3.92     4.611538     20.42444      40.4001         6     0.926     0.474   1.57   0
       207    553.0704    509.4301 300.1782415 +22.6815716      713.967     72.39363      1.405     2.64     4.538285     20.42444     81.52993         9     0.893     0.640  47.95   0
       208   1023.0540    507.8624 300.3252140 +22.8219115     1010.217     59.79027      1.274     2.76     4.610734     20.42444     140.0672        13     0.916     0.852  73.35  24
       209    895.0402    505.9984 300.2858958 +22.7830410     2220.927     72.41206      1.680     3.80     4.529597     20.42444     226.3154        30     1.614     1.064  78.54   0
       210   1009.0417    506.9370 300.3211434 +22.8174499     837.7797     72.37519      1.736     3.60     4.610466     20.42444     73.22038        11     1.036     0.720  13.54   1
       211    648.1969    504.2748 300.2095357 +22.7085985     505.0221     72.30138      1.276     3.61     4.677388     20.42444     75.10757        12     1.086     0.767  -7.31   2
       212    648.0391    500.2357 300.2107978 +22.7073913     281.5653     72.46735      1.235     4.72     4.677388     20.42444     42.14289         6     0.929     0.679  82.67   3
       213    434.2567    503.6833 300.1431280 +22.6443083     337.6114     72.48577      1.418     4.11     4.210855     20.42444     47.97104         7     0.952     0.742  64.11   0
       214    486.3427    502.2076 300.1598157 +22.6594980     1050.719     72.37519      0.733    -0.72     4.240844     20.42444     582.0532        10     0.772     0.536  58.68   0
       215    933.2471    501.0617 300.2994117 +22.7930648     4323.006      72.4305      1.447     2.82     4.608859     20.42444      473.398        31     1.157     1.143 -30.89   0
       216    670.4304    497.7152 300.2185900 +22.7133766     228.4751     72.41206      1.300     4.32     4.655994     20.42444     43.35955         6     1.103     0.575  63.88   0
       217    593.8077    496.9913 300.1949628 +22.6902086     338.0088     72.24596      1.365     3.06     4.657899     20.42444      46.0154         5     0.789     0.485 -25.59   0
       218   1023.8936    491.1109 300.3309143 +22.8173481     292.3796     55.09605      1.296     3.59     4.606179     20.42444     52.41466         6     1.270     0.293  85.55  24
       219    165.3052    491.3005 300.0635111 +22.5601093     930.6459     72.57779      1.481     2.76     3.850649     20.42444     111.8162        15     1.045     0.817 -52.71   0
       220    964.5485    488.9832 300.3130943 +22.7989671     161.7477     72.39363      1.212     4.11     4.605643     20.42444     28.50497         5     1.101     0.439  27.02   0
       221    826.0172    485.1955 300.2711324 +22.7563907     331.2505     72.33829      1.397     2.40     4.401566     20.42444     42.86858         5     0.826     0.645  45.08   0
       222    431.7415    484.6573 300.1485214 +22.6380928     204.9429     72.46735      1.315     3.47     4.218251     20.42444      35.7475         5     0.766     0.455  12.61   0
       223    157.9207    481.4014 300.0644292 +22.5550545     374.8744     72.28291      1.426     3.86     3.838408     20.42444      44.6832         6     0.903     0.624 -86.53   0
       224   1020.9085    480.3814 300.3334662 +22.8133703     474.4965     69.14933      1.400     3.23     4.601564     20.42444     55.19818         7     0.884     0.572  31.73  16
       225    765.7416    475.7579 300.2554112 +22.7356242     460.3794     72.37519      1.419     4.55     4.355841     20.42444      53.6447        10     1.005     0.714  65.12   0
       226    654.4126    473.2419 300.2215454 +22.7015484     222.6139     72.39363      1.015     3.43     4.630349     20.42444     40.96664         5     0.757     0.448  70.50   0
       227    706.6282    471.4049 300.2384064 +22.7166649     709.1686     72.35674      1.309     2.57     4.484258     20.42444     108.5648        13     0.941     0.829 -75.16   0
       228    495.7181    469.7427 300.1732719 +22.6529874     301.5145     72.44893      1.532     3.91     4.256763     20.42444     31.93259         5     0.937     0.467  44.51   0
       229     65.9777    465.1772 300.0411267 +22.5228223     385.4486     72.39363      2.048     4.13     4.030262     20.42444     34.81625         5     1.363     0.358  -5.78   0
       230   1021.4260    464.2256 300.3388721 +22.8088815     416.4883     67.27056      1.248     2.89     4.570592     20.42444     59.59034        10     0.888     0.727   6.86  16
       231    767.2592    463.6725 300.2598070 +22.7326069     880.5532      72.4305      1.419     3.13     4.345956     20.42444     114.6173        15     1.023     0.967 -31.84   0
       232    924.7876    459.8996 300.3101358 +22.7787025      980.424     72.30138      1.436     3.74      4.58356     20.42444     107.7041        19     1.262     0.969  10.06   0
       233    889.3910    456.5401 300.3001896 +22.7671372     363.3101     72.35674      1.573     3.91     4.562252     20.42444     42.18915         6     0.899     0.487  88.10   0
       234    908.8603    456.3397 300.3063250 +22.7729099     623.5012      72.4305      1.273     2.92     4.572196     20.42444     84.03468         8     0.755     0.686   6.66   0
       235    653.2141    454.3045 300.2273189 +22.6957502     3162.607     72.31983      1.285     2.30     4.533723     20.42444     387.2248        25     1.049     0.999  68.63   0
       236   1013.4582    453.3549 300.3399151 +22.8033712     449.6084      72.4305      1.492     3.39     4.551962     20.42444     68.08041         9     0.913     0.762  77.14   0
       237    129.1871    445.6604 300.0670998 +22.5361827     367.8966     72.35674      1.246     3.69     4.092055     20.42444     44.25543         7     0.849     0.630 -78.91   0
       238    493.0968    441.2847 300.1816925 +22.6440309     432.1341     72.55939      1.182     2.51     4.229601     20.42444     61.53013         8     0.871     0.599  66.30   0
       239    424.8546    442.1893 300.1601625 +22.6238370     256.2266     72.39363      1.216     2.80     4.267531     20.42444     44.70382         5     0.916     0.334  45.57   0
       240    936.6253    433.2303 300.3224834 +22.7745824     448.3724     72.39363      1.265     2.85     4.558527     20.42444     59.25422         9     0.875     0.651  12.86   0
       241   1022.7331    432.0970 300.3497081 +22.8000372     897.5544     61.52878      1.433     3.20     4.507483     20.42444     96.21168        13     0.982     0.836  26.61  24
       242    763.8330    428.3769 300.2701950 +22.7214403     1092.115     72.39363      1.378     2.40      4.32036     20.42444     141.6869        16     0.993     0.849 -42.67   0
       243    559.3533    428.5791 300.2064405 +22.6602380     539.6685      72.4305      1.460     2.92     4.322814     20.42444     53.20223         9     0.861     0.738 -10.74   0
       244    267.8203    426.4967 300.1164113 +22.5722561     720.1194     72.30138      1.410     3.13     4.373631     20.42444     80.49041        11     0.977     0.755  40.71   0
       245    330.1706    422.1396 300.1372146 +22.5896985     3747.144      72.4305      1.347     2.60     4.379345     20.42444     433.8782        28     1.242     0.990  47.21   0
       246    107.6173    423.9884 300.0674302 +22.5234959       259.95     72.35674      1.346     5.59     4.135567     20.42444     29.21724         6     1.075     0.818  -4.08   0
       247    277.3467    416.8653 300.1224988 +22.5723480     7602.455      72.4305      1.403     2.51     4.399762     20.42444     965.3523        36     1.213     1.087  69.07   0
       248    662.4056    407.8597 300.2452548 +22.6851631     18840.14     72.35674      1.339     2.29     4.258478     20.42444     2526.374        58     1.313     1.120  57.76   0
       249    418.1091    411.0826 300.1681584 +22.6128845     4772.007     72.52259      1.330     2.48     4.311577     20.42444     604.2039        29     1.119     1.010  50.31   0
       250    679.9291    407.9296 300.2506904 +22.6904327     872.3894     72.46735      1.875     4.43     4.233495     20.42444     88.63776        16     1.368     0.774 -43.98   0
       251    510.1304    409.3706 300.1973511 +22.6399717     202.3077     72.39363      1.023     3.36     4.234428     20.42444     35.70279         5     0.755     0.432  20.34   0
       252    905.8809    404.3104 300.3222822 +22.7570647     341.7204     72.50418      1.756     4.33     4.539258     20.42444     35.26828         7     0.889     0.602  29.57   0
       253    859.5466    398.1461 300.3098369 +22.7414188     424.1217      72.4305      1.321     4.09     4.512429     20.42444     60.24193        10     1.049     0.817 -66.20   0
       254    282.0441    394.9957 300.1310558 +22.5674794     379.8939     72.41206      1.445     4.18     4.404876     20.42444     43.65459         7     0.886     0.564 -40.28   0
       255    996.0950    390.3606 300.3549434 +22.7800645     885.8934     72.39363      1.428     3.59     4.544951     20.42444     97.50681        17     1.132     0.997 -73.08   0
       256    532.9891    389.8640 300.2107962 +22.6412197     360.3137     72.33829      1.164     2.49     4.252351     20.42444     55.42921         6     0.724     0.557 -46.98   0
       257    216.9807    387.9963 300.1130980 +22.5459635     1999.807     72.35674      1.433     2.92     4.411581     20.42444     219.7683        22     1.086     1.026  83.22   0
       258   1016.6776    377.7833 300.3654450 +22.7826101     1146.416     72.39363      1.387     2.69     4.580268     20.42444     142.6599        15     1.016     0.885  89.17   0
       259    872.4506    379.3767 300.3199502 +22.7398885     367.9836     72.39363      1.368     3.46     4.519324     20.42444     39.18473         5     0.767     0.452  70.32   0
       260    603.0074    377.2502 300.2366888 +22.6585757     6763.596     72.39363      1.313     2.33      4.27522     20.42444     876.9543        36     1.174     1.043  66.16   0
       261    317.8509    376.4437 300.1482104 +22.5728883     671.0711      72.4305      1.321     3.16     4.391171     20.42444     109.8094        11     1.027     0.848  32.89   0
       262    175.1922    369.9476 300.1059643 +22.5282540     509.4104     72.39363      1.516     3.06     4.460681     20.42444     54.06469         9     0.809     0.740 -40.17   0
       263     22.7554    367.5727 300.0593716 +22.4818586     1161.692     72.41206      1.626     3.61     4.186055     20.42444     121.6619        22     1.240     1.109  37.28   0
       264    716.8180    367.5791 300.2752751 +22.6898902     623.8533     72.39363      1.594     2.93      3.91028     20.42444     67.03507        10     0.884     0.802 -41.41   0
       265    807.1152    366.3991 300.3037952 +22.7165944     1239.181     72.28291      1.402     2.63      4.18567     20.42444     135.6327        14     0.943     0.869   3.20   0
       266    896.7896    365.9931 300.3318811 +22.7433294      99.4473     72.26443      1.084     3.47     4.508959     20.42444     31.42566         5     0.804     0.493  34.20   0
       267    509.6703    363.5318 300.2120812 +22.6266700     6190.973      72.4305      1.284     2.22     4.282366     20.42444     886.8401        31     1.100     1.028  73.99   0
       268    901.6379    358.1446 300.3359393 +22.7425251     1391.026     72.39363      1.408     2.47      4.50258     20.42444     165.5523        20     1.107     0.961 -85.01   0
       269    999.0901    358.3627 300.3662602 +22.7717621      622.613     72.37519      1.265     2.74     4.604196     20.42444     72.38647         9     0.857     0.680  -7.15   0
       270    494.5567    352.3793 300.2109952 +22.6189384     491.7845      72.4305      1.477     3.05     4.315164     20.42444     60.90369         8     0.897     0.634 -84.32   0
       271    576.8287    350.3095 300.2372781 +22.6429942     467.7212     72.37519      1.280     2.60     4.225348     20.42444     73.67337         6     0.710     0.631  77.05   0
       272     21.2115    348.8042 300.0649806 +22.4760111     1229.215     72.24596      1.830     4.01     4.214319     20.42444     106.0334        22     1.387     1.032  69.67   0
       273    874.2831    345.6617 300.3314606 +22.7307469     516.4099     72.48577      1.355     2.95     4.498593     20.42444     78.22241         8     0.885     0.590  84.66   0
       274    397.2958    342.6529 300.1838850 +22.5869992     2542.606     72.46735      1.317     2.36     4.434627     20.42444     349.0229        23     1.080     0.984  82.93   0
       275    115.5750    340.1005 300.0971196 +22.5018125     857.8113     72.33829      1.365     2.72     4.403467     20.42444     108.2456        14     0.944     0.901  32.59   0
       276    366.5299    332.1475 300.1777219 +22.5747622     29730.29     72.37519      1.355     2.37     4.552487     20.42444     3763.167        69     1.301     1.178  62.14   0
       277    901.2688    329.7374 300.3450404 +22.7342489     1351.647     72.44893      1.295     2.52     4.498593     20.42444     194.7053        15     0.997     0.831 -83.93   0
       278    856.9570    327.5010 300.3319509 +22.7203393     173.8541     72.39363      0.985     2.80     4.469113     20.42444     33.20515         6     0.767     0.500   1.57   0
       279     62.8332    319.9479 300.0872698 +22.4802141     4945.867     72.41206      1.556     3.02     4.342417     20.42444      513.752        37     1.302     1.209  65.11   0
       280    816.8799    318.8339 300.3222700 +22.7058484     450.4594     72.33829      1.300     2.40     4.362532     20.42444     67.60288         8     0.803     0.611 -33.04   0
       281    240.7938    318.2350 300.1431323 +22.5330798     394.2163     72.39363      1.343     2.49     4.550468     20.42444     62.36252         8     0.851     0.620  82.37   0
       282    465.0872    317.4826 300.2131440 +22.6000861     511.0441     72.50418      1.250     2.88     4.503329     20.42444      69.0468        10     0.965     0.654  64.00   0
       283    833.0190    316.6968 300.3279938 +22.7100666     159.6324     72.30138      1.389     4.45     4.413933     20.42444     26.25398         6     1.109     0.508  51.21   0
       284    777.0468    311.8990 300.3121054 +22.6919278     2005.486     72.41206      1.371     2.33     4.289036     20.42444     312.5381        21     1.054     0.937 -86.43   0
       285    585.2396    306.6331 300.2540654 +22.6329675     270.9296      72.4305      1.149     2.42     4.245708     20.42444     52.63884         5     0.728     0.431 -21.56   0
       286    992.1208    304.7482 300.3814799 +22.7542610     555.7653     72.39363      1.476     3.06     4.453756     20.42444      82.7591        12     0.929     0.904 -75.84   0
       287    438.8233    296.5520 300.2117600 +22.5862053     2072.165     72.41206      1.472     3.05     4.733292     20.42444     270.6221        20     1.243     0.866  57.44   0
       288    651.0598    295.3476 300.2782234 +22.6494409     282.8648     72.44893      1.314     2.38     4.218511     20.42444     57.20727         5     0.770     0.484 -55.70   0
       289    877.8799    289.3173 300.3508598 +22.7156276     545.7726     72.54099      1.346     3.82     4.498593     20.42444       88.076        10     1.151     0.683  54.53   0
       290     11.5413    287.0954 300.0819922 +22.4554061     893.4118     72.46735      2.205     2.66     4.344653     20.42444     84.72433        10     0.864     0.798 -43.42   2
       291    760.0247    287.2173 300.3148068 +22.6797372     429.2212     72.39363      1.328     2.35     4.425291     20.42444     57.82646         7     0.719     0.626 -13.23   0
       292    728.7761    286.3270 300.3053590 +22.6701239      377.144      72.4305      1.484     3.79     4.370481     20.42444      58.0386         8     1.301     0.756  50.69   0
       293    514.5380    276.0038 300.2419887 +22.6029886     1141.406     72.39363      1.312     2.21     4.426944     20.42444     173.8056        15     0.939     0.843 -68.62   0
       294    322.2534    276.6479 300.1819512 +22.5455570     164.5082      72.4305      0.904     3.75     4.875549     20.42444     37.95396         5     0.886     0.457 -46.94   0
       295    897.5060    269.1912 300.3635066 +22.7157169     268.2904     72.31983      1.182     3.19     4.491809     20.42444     44.29071         5     0.749     0.443  67.43   0
       296    759.4666    267.8621 300.3209105 +22.6740073     2167.411      72.4305      1.268     2.28     4.465156     20.42444     306.2072        19     1.032     0.872  87.82   0
       297   1020.8032    262.2894 300.4041988 +22.7506361     3165.635     69.47674      1.463     2.79     4.386394     20.42444     359.1004        26     1.182     1.076  74.74  16
       298    467.9164    251.6462 300.2353772 +22.5820247     625.2675     72.37519      1.335     2.26     4.561597     20.42444     106.1256         8     0.824     0.593  56.85   0
       299    142.6338    245.6936 300.1361464 +22.4828309     1314.812     72.33829      1.712     3.29     4.450596     20.42444     136.1289        20     1.296     0.998 -45.41   0
       300    173.2512    245.7083 300.1456573 +22.4920135      631.035     72.44893      1.415     2.84     4.448121     20.42444     85.06409        12     0.942     0.846  31.73   0
       301    880.3598    239.4836 300.3677951 +22.7020434     349.5967     72.35674      1.484     3.48     4.506913     20.42444     40.32025         6     1.175     0.490   5.31   0
       302    226.5039    238.0562 300.1646922 +22.5057793     594.6079     72.46735      1.455     2.90     4.584166     20.42444     68.83233         8     0.799     0.706 -45.07   0
       303   1021.5271    235.3578 300.4131588 +22.7431076     341.0496     66.91242      1.468     3.14      4.41153     20.42444     54.08724         5     0.737     0.460  70.31  16
       304    902.6983    231.4101 300.3773781 +22.7064087     277.6205     72.28291      1.196     4.51     4.470776     20.42444     41.06534         7     0.900     0.642  71.62   0
       305    830.9630    229.3490 300.3556826 +22.6843428     620.3234     72.41206      1.358     2.84     4.533856     20.42444     81.52439        10     0.882     0.785  17.16   0
       306    421.5851    228.7622 300.2283802 +22.5615707     413.6432     72.39363      1.166     2.84     4.454988     20.42444      65.7106         7     0.910     0.485 -83.60   0
       307    921.6721    222.0396 300.3863331 +22.7093935       326.44     72.37519      1.305     4.26     4.439244     20.42444     43.58268         7     0.788     0.656 -82.23   0
       308    929.3044    218.3318 300.3899154 +22.7106117     2143.906     72.52259      1.461     2.48     4.433743     20.42444     277.6106        19     1.105     0.933  82.80   0
       309    347.8222    215.5302 300.2097226 +22.5356690     2093.744     72.41206      1.342     2.33     4.794887     20.42444      306.265        21     1.104     0.932  43.15   0
       310    425.7778    210.6542 300.2355561 +22.5576257     1090.677     72.41206      1.510     2.81     4.529202     20.42444     120.4795        17     1.060     0.952  35.30   0
       311    177.6021    211.0652 300.1582422 +22.4833728     397.4509     72.41206      1.623     4.32     4.405502     20.42444     40.36031         6     1.014     0.524 -13.01   0
       312    827.9021    209.9619 300.3610149 +22.6778530     518.6459     72.39363      1.350     2.75     4.549668     20.42444     63.38835         9     0.786     0.742  11.09   0
       313    934.5737    207.0147 300.3952282 +22.7089345       307.24     72.41206      1.164     3.38     4.450484     20.42444     49.81339         5     0.772     0.429  67.53   0
       314     23.7322    203.9534 300.1127376 +22.4352035     508.0247     72.37519      2.479     4.37     5.026878     20.42444     33.93017         6     0.894     0.608  -1.67   0
       315    242.4460    202.6494 300.1811286 +22.5003918     739.6927     72.41206      1.379     2.75     4.505455     20.42444     82.72097        13     1.037     0.752  51.06   0
       316    360.2490    201.9015 300.2180068 +22.5354784     345.1306      72.4305      1.300     3.41     4.795099     20.42444     43.44449         5     1.005     0.335  46.93   0
       317    780.4050    199.7801 300.3495127 +22.6607070     1692.927     72.37519      1.392     2.63     4.611222     20.42444     232.3109        19     1.025     0.969 -86.31   0
       318    845.1932    199.4241 300.3698216 +22.6799994     545.9765     72.37519      1.244     2.61     4.574232     20.42444     89.12243        11     0.889     0.776  73.73   0
       319    263.8138    196.1555 300.1898777 +22.5049309     666.9773     72.41206      1.308     2.89     4.496665     20.42444     84.55462        12     0.956     0.806 -71.31   0
       320    784.4391    191.2529 300.3535347 +22.6594634     815.5175     72.37519      1.385     2.71     4.615403     20.42444     88.71988        14     0.944     0.870  74.64   0
       321    553.5717    192.1379 300.2813349 +22.5905872     346.4693     72.39363      1.434     3.40     4.761591     20.42444     40.67172         5     0.759     0.441 -68.74   0
       322    704.8497    190.4293 300.3290022 +22.6353983     1318.216     72.41206      1.316     2.29     4.780504     20.42444     184.5054        14     1.032     0.759  78.24   0
       323    526.1250    186.8519 300.2745040 +22.5808477     354.1451     72.41206      1.319     2.57     4.785601     20.42444     61.79641         7     0.887     0.539  14.58   0
       324    900.4344    181.9249 300.3927175 +22.6915023     1367.301     72.39363      1.364     2.57     4.557011     20.42444     186.1716        21     1.127     0.971  85.25   0
       325    631.1373    182.3123 300.3086732 +22.6109933     955.5602     72.48577      1.238     2.78     4.792288     20.42444     130.4468        14     0.972     0.813  66.63   0
       326    912.6160    180.9861 300.3968202 +22.6948781     971.2946     72.33829      1.558     3.04     4.532643     20.42444     92.15318        15     1.095     0.818 -59.98   0
       327      2.3998    170.1827 300.1170592 +22.4191157     288.5901     62.02577      1.249     3.87     5.217505     20.42444     39.12551         6     0.749     0.631 -41.01  24
       328     53.2513    167.8811 300.1336009 +22.4337005     426.3872     72.41206      1.568     4.03     5.036572     20.42444     43.88048         9     0.945     0.767 -50.95   0
       329    263.1270    164.1497 300.2000397 +22.4955345      785.226     72.41206      1.408     3.52     4.301124     20.42444     97.10921        13     1.132     0.789  42.05   0
       330    216.1644    161.4261 300.1863214 +22.4806789     55.79605     72.41206      1.016     4.25     4.289564     20.42444     25.85574         5     0.939     0.549 -48.53   0
       331    125.0681    159.0773 300.1587685 +22.4527015     2279.817     72.50418      1.432     2.91     4.653438     20.42444     228.2586        24     1.110     1.054 -66.91   0
       332    948.2557    156.3377 300.4159251 +22.6984554     820.9875     72.46735      1.498     3.15     4.537624     20.42444     84.05714        14     1.019     0.896  72.23   0
       333     74.4536    155.9832 300.1440444 +22.4366414     663.6136     72.37519      1.775     3.81     5.001067     20.42444     77.93951        11     1.206     0.715 -27.37   0
       334    282.4615    152.4090 300.2098576 +22.4979565     5797.554     72.31983      1.465     2.52     4.352057     20.42444     691.9866        40     1.335     1.139  69.41   0
       335    264.2632    153.4055 300.2038757 +22.4927896     375.7619     72.35674      1.217     3.48     4.346762     20.42444     42.16071         5     0.798     0.439  19.21   0
       336     66.5944    146.7289 300.1446023 +22.4316290     1292.709     72.35674      1.711     3.14     5.037219     20.42444     139.5178        19     1.114     1.045  62.70   0
       337    265.7545    143.2465 300.2076323 +22.4903190      614.672      72.4305      1.593     3.00     4.426543     20.42444     83.51487        10     0.991     0.709  81.23   0
       338    926.6580    134.0598 300.4164114 +22.6855853     3483.464     72.46735      1.437     2.69     4.717176     20.42444     363.7582        29     1.188     1.107  83.79   0
       339    228.9718    129.5833 300.2006242 +22.4753733     304.2841     72.39363      1.262     3.37     4.533997     20.42444      47.9636         5     0.966     0.493 -75.24   0
       340    476.1200    129.0915 300.2776628 +22.5492748     544.9561     72.50418      1.320     3.11     4.851567     20.42444     78.82739         9     0.907     0.672 -78.93   0
       341    400.0244    121.2901 300.2565118 +22.5242401     605.3831     72.33829      1.621     3.35      4.64884     20.42444     75.67838         9     0.928     0.749  80.82   2
       342    403.8234    119.4469 300.2582912 +22.5248486     489.1944     72.41206      1.682     4.81     4.622271     20.42444     49.07554         7     0.971     0.676  12.20   3
       343    166.2462    117.9452 300.1848975 +22.4532340     782.7009      72.4305      1.750     4.61     4.782288     20.42444     62.41456        15     1.295     0.881  82.06   0
       344     64.5581    117.5453 300.1534281 +22.4226412     291.7466     72.39363      1.290     3.44     5.083825     20.42444     42.71615         6     0.913     0.446 -74.07   0
       345    455.4853    116.9070 300.2751900 +22.5395935     462.6406     72.57779      1.500     3.64     4.742648     20.42444     70.95339         9     1.024     0.629 -61.06   0
       346    589.1428    115.6537 300.3172031 +22.5792610      519.892     72.44893      1.384     3.07     4.986964     20.42444     71.26365         7     0.913     0.567  18.91   0
       347    351.4749    112.5292 300.2442476 +22.5071796      203.668     72.46735      1.116     3.67     4.808912     20.42444     35.56042         6     0.941     0.413 -19.40   0
       348    270.9310    111.8829 300.2194071 +22.4828628     431.2354     72.50418      1.456     4.87     4.674609     20.42444     53.14296         9     1.158     0.579 -43.75   0
       349    744.1752    109.9027 300.3673582 +22.6240230     211.3942     72.31983      1.803     4.45     5.016667     20.42444     31.15477         5     0.788     0.713  75.11   0
       350    815.7656    106.3359 300.3908249 +22.6444258     303.1688     72.39363      1.203     2.35     4.702403     20.42444     47.22864         5     0.692     0.461 -11.42   0
       351    527.2740    116.4559 300.2976807 +22.5609645     1652.281      72.4305      1.291     2.73     4.957186     20.42444     216.8974        21     1.151     0.886  60.44   0
       352    961.4239    100.3863 300.4381680 +22.6863028     336.9815     72.39363      1.323     3.55     4.934929     20.42444     42.92572         6     1.024     0.483  -3.72   0
       353    301.4492     96.3457 300.2339327 +22.4875439     5970.858      72.4305      1.448     2.52      4.80051     20.42444     702.5642        35     1.262     1.101  66.28   0
       354    808.0195     96.5725 300.3915748 +22.6393000     186.7958     72.39363      1.281     4.50     4.676023     20.42444     51.70876         7     0.978     0.590  65.13   0
       355    152.6798     95.6352 300.1879110 +22.4427624     771.8196     72.33829      1.552     3.79     5.048648     20.42444     92.57745        13     1.091     0.851  65.23   0
       356    930.5811     93.8338 300.4306727 +22.6751896     304.6514     72.39363      1.261     3.37     4.957367     20.42444     35.60102         5     0.782     0.420  66.91   0
       357    316.8561     88.0228 300.2414215 +22.4897690     276.1483     72.41206      1.433     4.29     4.845022     20.42444      38.4761         7     1.029     0.619  25.57   0
       358     63.0412     87.0581 300.1628365 +22.4134343     485.2913     72.39363      1.781     4.51     5.168593     20.42444      56.2596         8     1.134     0.620 -42.89   0
       359    547.5278     81.6979 300.3152504 +22.5570410     6208.109     72.52259      1.375     2.38     5.004241     20.42444     828.0691        33     1.161     1.052  71.97   0
       360    432.8938     81.4920 300.2796369 +22.5226516     523.1287     72.55939      1.178     2.47     4.648779     20.42444     94.82652        11     0.951     0.698  52.25   0
       361    800.0107     71.6905 300.3971422 +22.6297481     789.0964     72.33829      1.571     4.33     4.637831     20.42444       92.707        15     1.322     1.014 -64.75   0
       362    741.4080     72.8765 300.3784954 +22.6125493     236.9477     72.35674      1.112     3.09     4.887082     20.42444     37.54586         5     0.743     0.436 -67.84   0
       363    892.7202     70.2404 300.4265129 +22.6570748     65.07195     72.37519      1.251     3.82     4.901106     20.42444     51.81219         8     0.893     0.740 -17.06   0
       364    240.5191     65.4229 300.2250064 +22.4604072     449.5805     72.33829      1.307     2.89     4.951286     20.42444     66.07329         8     0.857     0.739  81.73   0
       365    598.8632     64.4982 300.3368080 +22.5674684     470.3644     72.48577      1.093     2.37     4.951434     20.42444     78.29635         6     0.803     0.485 -42.64   0
       366    675.9276     61.7222 300.3617095 +22.5897417     6210.834     72.50418      1.387     2.50      5.02892     20.42444     892.7072        32     1.270     1.012  82.52   0
       367    450.8102     60.7288 300.2919403 +22.5220515     1470.161     72.37519      1.382     2.55      4.83034     20.42444     204.1356        19     1.026     0.980  35.99   0
       368    717.0933     59.1892 300.3753548 +22.6013359     869.6648     72.33829      1.423     3.25     4.882237     20.42444     109.6007        15     1.113     0.887  54.92   0
       369    733.1415     55.5684 300.3815282 +22.6050984     655.2581     72.41206      1.403     2.42     4.805188     20.42444     75.63796         8     0.791     0.661 -60.07   0
       370    199.6374     53.2737 300.2162331 +22.4446688     669.4734     72.33829      1.372     3.75     5.017322     20.42444     69.78359        13     1.172     0.825  27.12   0
       371     46.8775     53.8538 300.1685737 +22.3990570      300.515      72.4305      1.244     1.76     5.465486     20.42444     58.78164         6     0.699     0.515  48.17   0
       372   1003.0897     52.8732 300.4665618 +22.6850999     565.3454     72.55939      1.585     3.34     4.957367     20.42444     50.85701         9     0.885     0.696  66.19   0
       373    771.7829     50.6481 300.3951635 +22.6152490     467.9221      72.4305      1.319     3.58     4.688822     20.42444     76.94579        10     1.109     0.631  31.44   0
       374    720.1740     46.6667 300.3803722 +22.5986576     2690.696     72.37519      1.409     2.48     4.815802     20.42444     407.9532        24     1.134     0.991  86.38   0
       375    735.2501     45.4159 300.3854748 +22.6028104     907.5585     72.41206      1.745     4.44     4.725587     20.42444     95.24793        19     1.598     0.815  58.77   0
       376    360.9098     47.3082 300.2683171 +22.4912695     382.3647     72.55939      1.188     2.30     5.052407     20.42444     88.24055         8     0.754     0.738 -26.84   0
       377     13.9085     40.7958 300.1625630 +22.3854265     793.3988     72.30138      1.518     3.13     5.882159     20.42444     94.24632        13     1.016     0.877  15.05   0
       378    806.5992     38.1349 300.4100688 +22.6220702     1502.662     72.39363      1.380     2.55     4.636548     20.42444     182.2745        22     1.195     0.968  88.17   0
       379    967.1499     37.3876 300.4603691 +22.6698933     210.2584     72.44893      1.287     2.73     4.957367     20.42444     56.14865         5     1.011     0.560  68.45   0
       380    884.8187     32.9919 300.4361189 +22.6439968     328.8416     72.35674      1.471     3.80     4.734856     20.42444      28.7756         5     0.816     0.508 -31.58   0
       381    744.4530     31.1281 300.3929717 +22.6014564     797.3621     72.37519      1.482     3.84     4.621679     20.42444     89.41479        16     1.253     0.942  73.37   0
       382    122.9723     30.6617 300.1997307 +22.4152028     544.3643     72.39363      1.697     4.16     5.073786     20.42444     51.40826         9     1.110     0.629 -52.49   0
       383    550.2074     30.7573 300.3325906 +22.5432023     1126.942     72.41206      1.444     2.57     5.034336     20.42444      147.384        15     1.032     0.864  53.02   0
       384    454.0105     28.6659 300.3033247 +22.5137964     900.5404     72.35674      1.496     2.54     4.975864     20.42444     131.4425        13     1.244     0.719 -87.36   0
       385    836.0555     27.4414 300.4227151 +22.6278094     608.5535     72.35674      1.748     3.94     4.613882     20.42444     75.58815         9     1.121     0.689  67.17   0
       386    283.4917   1015.2977 299.9299769 +22.7458311     877.8701     72.57779      1.954     8.04     70.02565     20.42444     60.38283        26     2.158     1.298  56.80  19
       387    793.4662     19.7044 300.4119470 +22.6128396     676.9606     72.52259      1.364     2.80     4.622735     20.42444     88.82387        12     0.978     0.786   4.84   0
       388     18.1424     19.4831 300.1707826 +22.3805768     289.2976     72.48577      1.188     4.14     6.119468     20.42444     53.20885         6     0.983     0.499  -2.16   0
       389    551.5092     16.6719 300.3375592 +22.5395435     207.2346     72.55939      1.215     3.30     5.037194     20.42444     43.61597         5     0.728     0.449  67.46   0
       390    287.9904   1015.2522 299.9313904 +22.7471685     543.8458     72.39363      2.090     4.74     69.91713     20.42444     31.18697         5     1.068     0.596 -74.17   3
       391    297.9090   1013.7498 299.9349631 +22.7497152     901.7393     72.39363      3.109    10.02     60.14693     20.42444     42.36427        21     2.598     1.078  -8.93  17
       392    409.6903   1013.3128 299.9698705 +22.7831403     607.3001     72.55939      2.442     5.63     4.101977     20.42444     45.86974        10     1.583     0.564  77.43   0
       393    601.1738   1006.5460 300.0316653 +22.8386544     2264.469     72.41206      1.855     4.35     3.117154     20.42444     147.8298        32     1.431     1.309 -40.34   0
       394    687.5793   1001.6375 300.0601697 +22.8631647     8827.133     72.41206      1.990     4.50     3.040955     20.42444     453.8759        51     1.555     1.502  19.74   3
       395    693.2443    999.5927 300.0625994 +22.8642772      9356.77     72.41206      1.965     4.40     3.048137     20.42444     524.1002        53     1.569     1.463  52.58   3
