#   1 NUMBER                 Running object number                                     
#   2 X_IMAGE                Object position along x                                    [pixel]
#   3 Y_IMAGE                Object position along y                                    [pixel]
#   4 ALPHA_J2000            Right ascension of barycenter (J2000)                      [deg]
#   5 DELTA_J2000            Declination of barycenter (J2000)                          [deg]
#   6 FLUX_APER              Flux vector within fixed circular aperture(s)              [count]
#   7 FLUXERR_APER           RMS error vector for aperture flux(es)                     [count]
#   8 FLUX_RADIUS            Fraction-of-light radii                                    [pixel]
#   9 FWHM_IMAGE             FWHM assuming a gaussian core                              [pixel]
#  10 BACKGROUND             Background at centroid position                            [count]
#  11 THRESHOLD              Detection threshold above background                       [count]
#  12 FLUX_MAX               Peak flux above background                                 [count]
#  13 ISOAREA_IMAGE          Isophotal area above Analysis threshold                    [pixel**2]
#  14 A_IMAGE                Profile RMS along major axis                               [pixel]
#  15 B_IMAGE                Profile RMS along minor axis                               [pixel]
#  16 THETA_IMAGE            Position angle (CCW/x)                                     [deg]
#  17 FLAGS                  Extraction flags                                          
         1    510.9447     15.9251 300.3326655 +22.5430559     1211.444     72.18208      1.510     2.97     5.440615     20.35957     148.9079        19     1.161     0.997 -39.72   0
         2    414.6785     14.2463 300.3032342 +22.5137591     766.8143      72.1637      1.477     3.88     5.638834     20.35957     92.71875        15     1.224     0.892  82.62   0
         3    797.0644     13.0865 300.4227507 +22.6278460     467.7507     72.25554      1.384     3.58     5.161105     20.35957     56.73451         9     0.976     0.822  37.83   0
         4    186.2683      4.0030 300.2354814 +22.4424266     3854.384       68.737      1.566     2.90     6.466671     20.35957      397.474        32     1.326     1.178  66.82  24
         5    754.3303      4.9217 300.4120719 +22.6127136     708.7039      71.4061      1.359     3.56     5.152268     20.35957     86.81313        11     1.019     0.818 -84.08  16
         6    512.1991      1.9973 300.3375692 +22.5394253     329.4923     59.60036      1.211     2.74     5.459165     20.35957     49.68504         8     0.784     0.737 -88.83  24
         7    608.7543      1.6268 300.3677672 +22.5682127     280.0043     57.86131      0.981     2.13     6.058475     20.35957     53.75175         5     0.674     0.468  14.63  24
         8    192.0194   1005.7457 299.9120166 +22.7317492     1204.023     72.14531      2.928    13.14     85.43587     20.35957     49.09624        28     2.538     1.894  20.32   3
         9    256.6278   1021.5827 299.9269563 +22.7556790      1083.15     66.52068      2.751    18.99     51.92105     20.35957     49.95567        36     4.491     2.231  -0.78  27
        10    263.4533   1015.8690 299.9309385 +22.7560884      2101.79     72.18208      4.040    12.84     41.49139     20.35957     63.17571        42     2.610     1.758 -14.11  19
        11    265.3403   1010.7601 299.9331877 +22.7551894     1715.547      72.1637      4.357     9.88     37.16737     20.35957     54.13042        30     2.279     1.471  44.38  19
        12    101.9726   1010.8843 299.8823503 +22.7061972     4304.271      72.1637     15.854    94.99     86.00483     20.35957     160.9792      1969    19.049    13.143  47.39  27
        13     92.3386    951.2057 299.8987707 +22.6861942     5662.547     72.12692     24.521   102.63     29.14552     20.35957     1164.205      3526    20.037    14.584 -14.71  19
        14    186.0210    998.3906 299.9125444 +22.7278399     2725.735     72.14531      5.102    20.25     79.45688     20.35957     66.61374       107     5.121     2.224  -0.18  19
        15    512.1227    976.2157 300.0212308 +22.8193069     334.4901      72.1637      1.594     6.40     4.210995     20.35957     36.43585         8     1.278     0.901 -10.79   0
        16    748.6541    988.2343 300.0910123 +22.8936740     638.5391     72.18208      1.941     6.90     4.060553     20.35957     36.99294        15     1.242     1.074 -87.69   0
        17    941.1130    970.9796 300.1566441 +22.9463961     848.7495     72.09013      2.046     7.16     4.120649     20.35957     63.38412        20     1.348     1.284  -6.11   0
        18    666.5854    954.2880 300.0764794 +22.8593260     6883.469     72.10853      1.882     4.27     4.067492     20.35957     421.3297        45     1.470     1.428   4.06   0
        19    546.9268    949.2695 300.0408358 +22.8220098     338.4876     72.23718      2.233     7.82     4.107102     20.35957     32.01307         9     1.714     0.997  67.64   0
        20     90.9797    918.3247 299.9090433 +22.6763575     4552.019      72.1637     19.201    57.35     9.928189     20.35957     89.62397      1067    13.620     6.701 -34.89   3
        21    819.3355    947.4453 300.1263191 +22.9031454     405.8333     72.18208      1.753     3.35     4.056778     20.35957     36.54557         5     1.045     0.311 -69.16   0
        22    257.6296    948.1820 299.9511482 +22.7349265     603.7712     72.14531      1.818     5.91     17.14074     20.35957     45.10358        11     1.115     0.881   3.25   0
        23      8.7716   1006.0691 299.8549537 +22.6768395     2618.656     72.14531     14.667    50.31     -21.1112     20.35957     71.74533       693    12.398     5.666  83.83  24
        24    575.0611    945.1299 300.0509451 +22.8292574     1526.748     72.20045      1.784     4.59     4.108967     20.35957     113.3225        24     1.320     1.191  20.97   0
        25    468.6876    941.3024 300.0190649 +22.7962614     1063.362     72.32893      1.835     5.58     4.000309     20.35957     78.12917        20     1.238     1.192  77.20   0
        26    399.4521    939.3922 299.9981342 +22.7749485     6700.082     72.14531      1.874     4.09     4.329009     20.35957     467.2286        44     1.489     1.382  28.11   0
        27    431.7335    927.2838 300.0121208 +22.7811558     526.6475      72.2739      2.033     4.64     4.149504     20.35957     42.08253         7     1.038     0.589   3.21   2
        28    431.8008    924.7632 300.0129617 +22.7804526     388.9121      72.1637      1.660     3.77     4.150348     20.35957     33.34613         5     1.018     0.400  29.88   2
        29    945.7684    918.3276 300.1752259 +22.9326650     2259.518      72.1637      2.060     5.42      4.07483     20.35957      115.698        32     1.456     1.443   7.35   0
        30    182.1821    978.7523 299.9177399 +22.7210561      1777.61     72.20045      4.297    15.35     63.96601     20.35957     52.51986        56     2.948     2.221  78.66   3
        31    596.2924    915.8718 300.0670760 +22.8272238     380.1439     72.31059      1.893     5.12     4.010717     20.35957     28.74875         8     1.312     0.564   6.16   0
        32    444.2839    914.0278 300.0203394 +22.7811154     356.7545      72.1637      1.895     4.56     4.089246     20.35957     41.92844         6     1.089     0.543  62.35   0
        33    734.6859    907.0563 300.1130674 +22.8661769     861.3347      72.2739      2.279     6.39      4.14423     20.35957     43.87053        18     1.364     1.232  27.91   0
        34    769.6319    901.5430 300.1257543 +22.8750668     1211.366     72.18208      1.856     5.06     4.085108     20.35957     79.85795        23     1.454     1.141   7.69   0
        35    165.0981   1008.4485 299.9027665 +22.7244450      638.397     72.20045      2.210     8.19     90.86433     20.35957     45.60029        10     1.809     1.036 -47.27   0
        36    369.7870    998.8066 299.9695727 +22.7830971     472.4755     72.05332      1.691     5.31     4.475836     20.35957     45.98816         8     1.127     0.707 -19.12   0
        37    838.0826    895.0909 300.1491954 +22.8937257     526.5711     72.29224      2.330     5.81     4.044823     20.35957     35.18546         7     1.019     0.933 -56.88   2
        38    984.2789    895.5853 300.1946394 +22.9376672     405.9486     72.18208      2.678     4.10     4.075585     20.35957     37.98093         5     1.561     0.307  59.59   2
        39    981.0941    895.0000 300.1938360 +22.9365450     469.9787     72.03491      1.693     3.86     4.067993     20.35957     29.62209         5     1.135     0.376   9.68   2
        40    791.7353    895.0745 300.1347492 +22.8798328     11589.56     72.20045      1.818     4.09     4.044621     20.35957     701.5621        52     1.478     1.401 -16.22   0
        41    102.8114    886.4251 299.9230952 +22.6707600     1229.826      72.1637      7.134     7.27     8.501196     20.35957     60.34557        22     1.709     1.444  32.76   0
        42    561.7683    991.9015 300.0315881 +22.8386964     2311.042     72.14531      1.919     4.47      4.41502     20.35957      148.146        31     1.412     1.311  19.62   0
        43    496.6929    883.3622 300.0466300 +22.7880296     529.2693      72.1637      1.696     3.76     3.905178     20.35957      44.5449         9     0.918     0.866  15.77   0
        44    800.2004    877.1201 300.1432281 +22.8772125     1532.733     72.03491      1.821     3.97     4.021054     20.35957     112.3172        27     1.355     1.203 -20.37   0
        45    983.2209    876.7545 300.2004341 +22.9319394     490.8091     72.21882      1.925     4.81     4.002666     20.35957     39.45118         7     0.991     0.825  84.21   0
        46    844.4259    883.4391 300.1549634 +22.8922793     573.4409     72.18208      2.584     4.85     4.044094     20.35957     44.70406         7     1.253     0.531 -54.06   2
        47    652.3187    874.3580 300.0980331 +22.8320997     654.6228     72.12692      1.984     4.62     3.987237     20.35957     53.14782        10     1.193     0.622   2.02   0
        48    838.1678    870.4340 300.1572415 +22.8866683     806.0209     72.20045      2.201     4.09     4.037492     20.35957      56.1853        16     1.125     1.051  -8.45   0
        49    177.7912    870.3089 299.9516463 +22.6886352     494.3801     72.09013      5.147     5.66     8.940318     20.35957     40.29602         7     1.282     0.957  71.87   0
        50    945.5850    868.5080 300.1913731 +22.9182961      542.084     72.09013      1.928     3.88     3.966294     20.35957     36.01062         5     0.989     0.435  74.94   0
        51    886.7087    861.8536 300.1751708 +22.8987465     505.4319     72.21882      1.897     6.57     4.025779     20.35957     35.94529        12     1.158     1.047  27.95   0
        52    738.3157    860.6606 300.1292885 +22.8539402     691.2772      72.2739      1.694     4.55     4.051498     20.35957     63.96381        16     1.233     1.002  72.19   0
        53    749.7079    857.9517 300.1337206 +22.8565761     654.9341     72.20045      1.844     6.44     4.042397     20.35957     54.81565        17     1.561     0.976 -37.82   0
        54    450.7378    857.1028 300.0408617 +22.7667127     4298.039     72.25554      1.719     3.69     4.078309     20.35957     329.8088        33     1.319     1.276  28.10   0
        55    493.9288    845.5173 300.0580763 +22.7763373     329.3437     72.29224      1.476     5.30     3.902084     20.35957     42.18279         7     1.269     0.625 -32.90   0
        56    113.1477    845.3666 299.9396592 +22.6620855     308.3318     72.18208      1.273     2.36     6.128574     20.35957      45.0701         5     0.716     0.443  19.69   0
        57    176.1989    842.6456 299.9601463 +22.6802219     947.7818      72.1637      2.244     4.91     6.817181     20.35957     81.33607        18     1.446     1.202 -42.84   0
        58    152.9385    839.7484 299.9538561 +22.6724124     1644.307     72.21882      1.936     4.31     6.828749     20.35957     159.7532        28     1.464     1.254  38.24   0
        59    648.2787    987.3444 300.0600204 +22.8633277     8874.376     72.20045      2.026     5.04     4.184228     20.35957     546.3286        49     1.640     1.459   7.85   3
        60   1023.5303    829.0515 300.2285269 +22.9303036     1036.783     56.93695      1.442     4.54     4.363198     20.35957     123.4363        12     1.373     0.553 -87.23  24
        61    653.7792    984.7399 300.0625816 +22.8642292     9211.666     72.10853      1.925     4.64     4.149567     20.35957     560.6702        50     1.550     1.429  47.10   3
        62    979.1428    827.5970 300.2151479 +22.9165917     2192.122     72.12692      1.846     4.20     4.273357     20.35957     145.9155        31     1.374     1.308 -48.02   0
        63    685.2058    827.3979 300.1235520 +22.8284708     429.5271     71.97965      1.814     4.27     3.946118     20.35957     34.54479         6     0.752     0.690 -70.46   0
        64    762.4323    821.2274 300.1496291 +22.8498406     625.6291      72.1637      1.492     4.70     4.020223     20.35957      66.6132        13     1.052     0.995  46.28   0
        65    185.2050    821.6384 299.9697768 +22.6768972     558.3197     72.18208      1.928     5.38     5.720237     20.35957     44.80729         9     1.229     0.664 -35.58   0
        66    630.7250    815.3620 300.1104892 +22.8086862     4963.284     72.10853      1.641     3.40      3.88433     20.35957     390.4353        37     1.294     1.290  74.59   0
        67    187.2546    993.0552 299.9146639 +22.7266801     2260.448     72.20045      5.072    18.12      75.0377     20.35957     60.09866        62     4.673     1.953 -64.02   3
        68    432.8356    812.1846 300.0498939 +22.7484515     602.3998      72.1637      1.565     4.88     4.317887     20.35957     58.29182        15     1.344     0.853  44.45   0
        69    651.2434    807.7344 300.1193622 +22.8126452     762.7331     72.14531      1.748     5.04      3.88019     20.35957     69.57639        18     1.296     1.008  64.62   0
        70    180.8120    808.9176 299.9725464 +22.6719299     1353.772     72.12692      1.793     3.77     5.190023     20.35957     140.0041        23     1.350     1.170  69.67   0
        71    200.4361    806.4432 299.9794531 +22.6771067     520.0228     72.21882      1.645     3.87     5.003841     20.35957     49.48483         6     1.049     0.479   8.03   0
        72    568.7333    798.2638 300.0967364 +22.7851955     306.7939     72.21882      1.368     3.57     3.899815     20.35957      42.8352         5     0.868     0.429 -44.93   0
        73    806.7949    795.0235 300.1719800 +22.8556048     4107.504     72.14531      1.655     3.56     4.020362     20.35957     326.7609        34     1.310     1.271  57.71   0
        74   1023.1511    795.4125 300.2393464 +22.9205215     779.3991     59.06381      1.469     3.75     4.649717     20.35957     85.33401        13     1.144     0.755 -80.27  24
        75    215.1378    789.0347 299.9896844 +22.6765218     418.1311     72.18208      1.507     5.40     4.796282     20.35957     46.15388        11     1.149     0.908  35.12   0
        76    523.6637    787.6268 300.0861577 +22.7686314     608.7501      72.1637      1.475     4.87     3.972175     20.35957     65.32674         9     0.994     0.676  51.40   0
        77    170.3529    785.2747 299.9769801 +22.6620092     991.9124      72.1637      1.702     4.08     4.755483     20.35957     97.81833        21     1.254     1.148  46.24   0
        78    319.7774    777.4646 300.0259955 +22.7045846      53850.2     72.14531      1.679     3.48     4.633381     20.35957     5079.678        93     1.453     1.419  20.58   0
        79    585.5420    780.8249 300.1076416 +22.7852259     549.5031      72.1637      1.571     3.77       3.9227     20.35957     68.33542        12     1.093     0.827  -1.57   0
        80    577.6315    776.6859 300.1065230 +22.7816664     1636.328      72.1637      1.664     3.38     3.948274     20.35957     152.5023        24     1.301     1.098  59.39   0
        81    990.5781    775.9641 300.2355041 +22.9051771     743.7822     72.18208      1.806     5.96     4.533914     20.35957     65.02735        15     1.273     1.025 -15.52   0
        82    248.3536    775.9401 300.0042718 +22.6827270     514.8225     72.20045      1.692     2.54     4.763549     20.35957     61.52865         7     0.826     0.676 -26.65   0
        83    606.5656    772.7078 300.1168296 +22.7891960     925.0925     72.10853      1.497     3.46      3.88851     20.35957      110.109        16     1.160     0.945 -36.63   0
        84      5.8195    772.1356 299.9301102 +22.6088773      922.116     72.14531      1.927     5.20     4.592455     20.35957     83.52129        18     1.480     1.228 -37.76  16
        85    617.5190    771.1521 300.1207477 +22.7920319     669.6604     72.18208      1.487     3.23      3.89193     20.35957     68.48828        13     0.999     0.865  -0.93   0
        86    723.1588    767.4627 300.1548665 +22.8226286     343.2992     72.14531      1.288     3.80     3.997378     20.35957     56.03759         6     0.844     0.490  -7.54   0
        87    760.2518    757.6174 300.1696295 +22.8309140     792.2796     72.14531      1.616     4.34     4.019212     20.35957     76.14442        15     1.089     1.036  37.26   0
        88    369.5205    754.7188 300.0488679 +22.7129718     31560.91     72.29224      1.610     3.19     4.391827     20.35957     3573.214        69     1.385     1.324  10.33   0
        89    383.7531    755.2200 300.0531345 +22.7173831     1888.747     72.21882      1.547     3.22     4.385894     20.35957     170.4479        23     1.168     1.102   3.36   0
        90    258.4300    754.0197 300.0145311 +22.6794585     219.6615      72.1637      1.475     7.32     4.700589     20.35957     30.55623         8     1.587     0.946 -23.89   0
        91    892.7255    750.8690 300.2131330 +22.8686586     2956.668     72.23718      1.696     3.61     4.444072     20.35957     230.5432        34     1.338     1.285 -12.99   0
        92    380.8683    749.0322 300.0542479 +22.7147419     702.0638      72.1637      1.643     3.71     4.365743     20.35957     68.89107        12     1.048     0.824 -26.64   0
        93    650.6048    746.9245 300.1389317 +22.7949886     878.6123     72.07173      1.444     3.08     3.958041     20.35957     114.4246        16     1.010     0.959 -46.88   0
        94    486.8338    747.0687 300.0878730 +22.7459460     451.7671      72.1637      1.311     3.65     4.235134     20.35957      52.3945         8     0.991     0.682 -50.04   0
        95    252.0887    746.6613 300.0149503 +22.6754451     741.8713     72.23718      1.624     4.02     4.680589     20.35957     93.83045        14     1.036     1.014  78.48   0
        96    497.5908    741.5797 300.0930066 +22.7475944     848.7827     72.14531      1.441     3.28     4.251292     20.35957     93.83643        14     1.055     0.850 -32.28   0
        97     57.4075    742.0177 299.9559299 +22.6157167     522.8862     72.10853      1.831     3.44     4.545768     20.35957     57.32156         8     0.945     0.648 -85.01   0
        98    898.9405    738.6962 300.2190285 +22.8670217      532.283     72.23718      1.580     4.38     4.542573     20.35957     51.09479        11     1.170     0.666 -30.67   0
        99    399.6449    737.8712 300.0637195 +22.7171675     373.4046     72.12692      1.601     3.94     4.326022     20.35957     43.79923         7     0.810     0.741  -7.92   0
       100    356.3632    737.4345 300.0503912 +22.7040653      310.466     72.23718      1.498     4.13     4.322899     20.35957     36.75951         7     1.009     0.481  -7.64   0
       101    652.3889    736.1368 300.1429941 +22.7924246     348.5614     72.10853      1.363     4.13     3.981706     20.35957     41.89538         6     0.747     0.652 -28.04   0
       102    443.6021    736.3488 300.0778974 +22.7299085     527.6627     72.14531      1.799     3.52      4.31688     20.35957     47.79555         9     0.998     0.651  10.12   0
       103     85.3719    735.9446 299.9665950 +22.6223639     589.2594      72.1637      1.938     4.88     4.511342     20.35957     60.98417        10     1.220     0.837 -33.39   0
       104    876.2151    732.9808 300.2137978 +22.8585727     511.4825     72.14531      2.172     6.14     4.451429     20.35957     36.29303        11     1.080     0.980  50.76   0
       105    249.5074    731.0823 300.0192107 +22.6702000     525.0892     72.31059      1.546     5.58     4.659165     20.35957     44.10952        13     1.101     0.992 -11.75   0
       106    572.6594    721.4641 300.1229237 +22.7643175     497.5626     72.20045      1.576     4.27     4.138581     20.35957     51.11729        10     0.946     0.806 -20.48   0
       107    542.8384    719.4559 300.1142881 +22.7548034     562.4589      72.1637      1.442     3.34     4.269579     20.35957     75.85608        13     1.085     0.834  69.64   0
       108    959.0716    716.1501 300.2451162 +22.8785495     4603.498      72.1637      1.680     3.47     4.609745     20.35957     373.3704        36     1.346     1.284  -1.23   0
       109    564.4767    717.0356 300.1218142 +22.7605934     1339.457     72.12692      1.513     3.06     4.192326     20.35957     144.0491        18     1.056     0.988  23.55   0
       110    451.5032    718.6682 300.0861035 +22.7272006     243.2386     72.29224      1.327     3.32      4.33944     20.35957      43.8484         5     1.047     0.305  21.01   0
       111    484.4062    716.7391 300.0969747 +22.7365096     397.2138     72.12692      1.794     3.91     4.333889     20.35957     45.27699         6     1.141     0.513 -60.18   0
       112    646.4669    712.2111 300.1489250 +22.7837776     300.3815     72.18208      1.336     4.04     4.099094     20.35957       41.071         6     0.729     0.681  -9.28   0
       113    947.7117    707.5645 300.2443622 +22.8726799     1743.202     72.14531      1.726     3.76     4.644725     20.35957     159.1114        25     1.273     1.187   8.59   0
       114    310.6411    701.1968 300.0479410 +22.6799542     878.7817     72.18208      1.458     3.61     4.543084     20.35957     97.55984        15     1.094     0.920  20.37   0
       115    978.7552    697.7592 300.2572353 +22.8791570      1728.89     72.23718      1.756     3.80     4.546145     20.35957     127.4463        28     1.435     1.166  46.97   0
       116    774.0247    698.6915 300.1930758 +22.8181097     2618.722     72.10853      1.685     3.32     4.234346     20.35957     256.7693        31     1.464     1.156   6.08   0
       117    855.9451    684.9257 300.2230940 +22.8386912     648.8043     72.18208      2.201     3.89     4.549197     20.35957     59.56945        12     1.004     0.907  45.85   0
       118    159.1704    685.3127 300.0059905 +22.6299727     623.3016      72.1637      1.470     3.71     4.668955     20.35957     78.47989        10     1.121     0.721  -5.64   0
       119    892.3676    675.7840 300.2374250 +22.8469716     149686.4     72.14531      1.608     3.41     4.657908     20.35957     13318.17       157     1.481     1.444 -45.85   0
       120    654.8287    679.4597 300.1621739 +22.7768747     465.8554      72.1637      1.579     5.24     4.296694     20.35957     39.40213        10     1.023     0.757 -36.65   0
       121    744.8135    676.1617 300.1912908 +22.8028856     818.2178     72.18208      1.569     4.08     4.357924     20.35957     75.71046        11     1.011     0.783 -31.30   0
       122    497.0577    676.4046 300.1140215 +22.7287189     162.4481     72.12692      1.462     4.21      4.40054     20.35957     28.61303         5     0.811     0.623  82.61   0
       123    924.8344    668.9835 300.2497629 +22.8547393      339.607      72.1637      1.392     5.50     4.708837     20.35957     40.10282        10     0.983     0.867   2.87   0
       124    578.4856    664.5062 300.1432480 +22.7497041     1593.185     72.34727      1.406     2.57     4.433862     20.35957     224.7624        19     1.045     1.009  60.85   0
       125    759.8519    661.9005 300.2006129 +22.8032925     9582.701     72.25554      1.481     3.02     4.434088     20.35957     1045.176        43     1.224     1.199 -46.06   0
       126    241.2805    662.9630 300.0387872 +22.6481821     343.8464     72.12692      1.540     3.22     4.779616     20.35957     41.87157         6     0.910     0.753  32.05   0
       127    261.3495    656.7667 300.0470430 +22.6524212     5103.146     72.18208      1.573     2.77     4.751227     20.35957     678.3941        33     1.229     1.206 -16.92   0
       128    343.4071    654.9503 300.0731633 +22.6765018     1222.253      72.1637      1.520     3.00     4.435877     20.35957      160.725        20     1.219     0.964 -21.28   0
       129    218.8095    652.6998 300.0351327 +22.6384982     508.0747     72.07173      1.609     5.15       4.8473     20.35957     52.81949        10     0.977     0.767 -26.06   0
       130    551.5306    650.6232 300.1393628 +22.7376391     656.0068     72.18208      1.409     3.31     4.711455     20.35957      89.9059        14     1.118     0.800 -16.55   0
       131    543.2892    642.5911 300.1394056 +22.7328624     3304.076     72.09013      1.421     2.57     4.839158     20.35957     451.6019        27     1.129     1.094 -59.15   0
       132    533.3753    636.3425 300.1383481 +22.7280968     1637.276      72.1637      1.547     3.01     4.918633     20.35957     184.4572        22     1.281     1.030   6.86   0
       133    926.8037    634.1306 300.2617020 +22.8453099     447.0349     72.12692      1.774     4.89     4.780318     20.35957     49.25635         8     1.094     0.619  53.63   0
       134    196.7681    632.4761 300.0348481 +22.6260842     624.0651      72.1637      1.393     3.36     4.902089     20.35957     79.29243        15     1.047     0.913  31.79   0
       135    211.1272    630.8923 300.0398281 +22.6299353     552.8594     72.29224      1.423     3.46     4.921617     20.35957     78.94434        12     1.009     0.907 -26.05   0
       136    980.0102    627.7561 300.2803743 +22.8594075     559.1309      72.1637      1.776     5.27     4.560809     20.35957     54.33673        12     1.206     1.047  74.56   0
       137    268.0568    627.7844 300.0585452 +22.6461126     497.9957     72.14531      1.622     4.62     4.808712     20.35957     40.76903         7     1.183     0.513 -70.09   0
       138    236.8262    627.5279 300.0489140 +22.6366753     632.3177      72.1637      1.643     5.05     4.909735     20.35957     56.36514        13     1.152     1.009  42.03   0
       139    557.1747    626.5239 300.1489505 +22.7324080     501.2599     72.18208      1.345     3.91     5.061627     20.35957     66.60855         9     0.917     0.836 -32.73   0
       140    458.3128    626.0560 300.1183162 +22.7026475     1766.552     72.21882      1.389     2.69     4.757788     20.35957     237.8022        20     1.046     0.967  69.84   0
       141    112.2567    620.8267 300.0123557 +22.5973973      19681.9      72.1637      1.693     3.22     4.855846     20.35957     2340.259        64     1.467     1.371  17.18   0
       142     34.1918    622.4597 299.9875616 +22.5744520     713.4085     72.10853      2.015     4.17     4.771225     20.35957     74.47508         8     1.285     0.592 -86.62   2
       143    543.2018    621.2941 300.1462974 +22.7267189     1153.249     72.07173      1.354     2.98     5.156545     20.35957     139.0967        13     0.939     0.888  84.55   0
       144    578.6736    620.1811 300.1577077 +22.7370278     430.6829      72.1637      1.585     4.47     5.148006     20.35957     45.23997         9     0.992     0.732  60.74   0
       145    460.6276    618.1824 300.1215947 +22.7010800     216.8797      72.1637      1.056     3.42     4.841601     20.35957     32.77448         5     0.733     0.461 -75.12   0
       146    626.5011    609.3889 300.1761137 +22.7482569     233.2727     72.07173      1.168     4.15     5.265982     20.35957     35.26771         6     1.031     0.477 -33.86   0
       147    961.3517    607.7791 300.2810424 +22.8480777     997.6398     72.18208      1.538     3.64     4.668295     20.35957     93.09959        15     1.045     0.965  24.49   0
       148     58.3147    604.9052 300.0007606 +22.5766504     1761.194     72.34727      2.140     4.71     4.863054     20.35957     121.4967        32     1.611     1.336 -76.96   0
       149    828.2557    605.7202 300.2401939 +22.8076337     498.1197     72.20045      1.420     3.38      4.76404     20.35957     72.75967        11     1.067     0.861 -12.41   0
       150    125.1308    605.4658 300.0213477 +22.5968498     319.3283     72.21882      1.134     2.97     4.921808     20.35957     58.17957         5     0.952     0.330 -85.60   0
       151    901.4446    600.6742 300.2646604 +22.8280989     933.0182     72.14531      1.979     4.22     4.827601     20.35957     80.22305        16     1.264     0.952  50.96   0
       152    299.2245    601.2829 300.0768503 +22.6478485     359.1438     72.12692      1.501     2.97     4.757693     20.35957     57.32343         7     0.994     0.531 -60.10   0
       153    506.8379    602.2429 300.1411614 +22.7103500      470.394     72.25554      1.303     3.55     5.209342     20.35957     54.33941         8     0.922     0.587   3.54   0
       154    463.5797    594.0806 300.1303431 +22.6950425     698.0441     72.14531      1.266     2.87     5.005338     20.35957     90.35683        13     0.942     0.857   2.57   0
       155    611.3932    593.1750 300.1766737 +22.7390724     550.2834      72.1637      1.592     3.39     5.306132     20.35957     67.46379        10     0.987     0.795   9.79   0
       156    629.0504    591.2138 300.1828121 +22.7437987     628.0555     72.20045      1.327     2.40     5.262579     20.35957     89.15581         9     0.839     0.672 -54.94   0
       157    658.5963    591.3382 300.1919780 +22.7526854     469.9476      72.1637      1.383     4.26     5.189961     20.35957     59.87235         9     1.110     0.728 -16.13   0
       158    507.6860    590.0604 300.1453828 +22.7071049     922.5877      72.2739      1.450     2.89      5.23546     20.35957      111.873        16     1.051     0.919  -2.23   0
       159    694.2488    589.7976 300.2035892 +22.7629224      254.185      72.1637      1.592     3.70     5.013173     20.35957      29.8666         5     1.187     0.332  11.45   0
       160    941.4581    585.8023 300.2819746 +22.8358032     3478.867     72.12692      1.600     3.28     4.789554     20.35957     316.5538        32     1.274     1.184 -22.47   0
       161    473.0708    585.5810 300.1360591 +22.6954455     1745.637     72.20045      1.434     2.66     5.111056     20.35957     194.3513        20     1.072     0.961  12.16   0
       162    838.5577    583.5863 300.2505968 +22.8043564     276.8906     72.18208      1.423     4.18     4.781988     20.35957     27.59104         5     1.017     0.490   3.19   0
       163     35.0135    578.9578 300.0019467 +22.5622160     5172.563     72.18208      1.765     3.44     4.942075     20.35957     580.4809        39     1.440     1.313   6.40   0
       164    502.4672    576.3100 300.1482239 +22.7015913     340.8702     72.31059      1.478     3.89      5.24983     20.35957     41.79531         6     1.049     0.413 -35.72   0
       165    980.6760    575.3611 300.2976033 +22.8445415     358.3278     72.12692      1.496     5.01       4.6981     20.35957     44.92653         7     0.996     0.712  33.63   0
       166    336.5908    572.2483 300.0979075 +22.6507128      9244.24     72.18208      1.463     2.64     4.714946     20.35957     1081.226        42     1.213     1.209   2.63   0
       167    458.9956    569.3276 300.1369559 +22.6865592     8931.663     72.10853      1.379     2.73     5.078533     20.35957     1023.255        36     1.129     1.108  40.39   0
       168    223.9692    566.8279 300.0646314 +22.6153956     295.3411      72.1637      1.416     3.66     5.019967     20.35957     43.60282         5     1.136     0.339  -8.78   0
       169    870.6929    563.6237 300.2671034 +22.8082399     1920.589     72.09013      1.472     2.56     4.824942     20.35957     253.7802        21     1.110     1.020  33.87   0
       170    102.8989    565.2807 300.0274882 +22.5786498     343.3543     72.29224      1.484     4.03     4.907795     20.35957     40.70152         6     1.169     0.397  29.71   0
       171    955.3643    560.8694 300.2944123 +22.8327973     12874.88      72.1637      1.554     3.27     4.791862     20.35957     1224.816        48     1.316     1.258 -81.57   0
       172    519.5544    558.9258 300.1591914 +22.7017174     11661.01     72.14531      1.402     2.61     5.308147     20.35957     1553.334        39     1.175     1.104  80.43   0
       173    689.0949    554.9632 300.2132974 +22.7513683     522.1521      72.1637      1.271     2.60     5.054725     20.35957     78.23638         8     0.835     0.607  38.14   0
       174    247.0523    554.3573 300.0758612 +22.6187355      1305.48     72.18208      1.446     3.00     4.986809     20.35957     145.3951        18     1.059     0.965  43.52   0
       175    404.9824    553.3439 300.1253323 +22.6657819     303.8169     72.14531      1.368     4.54     4.873328     20.35957     45.00404         6     0.946     0.619  60.25   0
       176    493.8339    552.0714 300.1534079 +22.6920417     437.6629      72.1637      1.414     3.83     5.296325     20.35957     46.09227        10     0.923     0.759  -8.26   0
       177    451.2904    547.1216 300.1417689 +22.6778720     4509.517     72.31059      1.387     2.52     5.135395     20.35957     561.9979        31     1.142     1.093  50.55   0
       178    794.1033    547.4522 300.2484711 +22.7806578     787.9102     72.23718      1.418     3.13     4.719985     20.35957     94.73238        16     1.010     0.992  68.77   0
       179    429.4587    545.4248 300.1355234 +22.6708424     1428.633      72.1637      1.547     2.78     5.025813     20.35957     176.3645        17     1.119     0.966  67.02   0
       180    183.9411    544.7438 300.0593547 +22.5970550     766.3139     72.23718      1.439     3.48     4.972202     20.35957     89.49556        13     1.005     0.885  26.06   0
       181    871.0102    542.7514 300.2739815 +22.8023342     1615.857     72.18208      1.486     3.34     4.827163     20.35957     165.1139        19     1.160     0.958 -18.81   0
       182    567.8807    534.6933 300.1821130 +22.7092341     207105.1     72.31059      1.374     2.52     5.300554     20.35957     29317.86       186     1.433     1.335 -21.67   0
       183    391.4851    541.3303 300.1250327 +22.6582865     409.4814      72.2739      1.357     3.96     4.884656     20.35957     46.31276         6     0.959     0.467  -3.53   0
       184    751.6339    539.9208 300.2376763 +22.7657750     813.2916     72.10853      1.355     2.41     4.747004     20.35957     115.9593        11     0.946     0.677   3.76   0
       185    956.0627    536.8463 300.3024327 +22.8260985     350.6936     72.18208      1.575     4.33      4.83908     20.35957     38.34492         5     0.783     0.682   2.23   0
       186    253.9521    534.4651 300.0844673 +22.6150926     3602.573     72.20045      1.492     2.97     4.979349     20.35957     427.5051        29     1.164     1.142 -55.95   0
       187    820.1722    531.1027 300.2619098 +22.7837638     736.6254     72.10853      1.655     3.58     4.776367     20.35957     66.60369        10     1.104     0.710  49.32   0
       188    599.8848    521.4444 300.1963853 +22.7150146      242.267     72.14531      1.327     3.06     5.258836     20.35957      38.8136         6     0.786     0.497  -1.02   0
       189    458.5142    515.4111 300.1543157 +22.6709277     2850.384     72.10853      1.524     2.50     5.138795     20.35957     392.5031        31     1.601     1.034 -83.54   0
       190    303.4951    517.2633 300.1054660 +22.6250036     389.5519     72.25554      1.147     2.39     4.902459     20.35957     46.55297         5     0.699     0.440 -63.99   0
       191    908.1895    515.3770 300.2944691 +22.8055941     305.7594      72.1637      1.280     3.46     4.869517     20.35957     29.75652         5     0.790     0.438  18.33   0
       192    869.8771    511.6223 300.2837375 +22.7930449     415.4903     72.14531      1.221     3.05     4.861258     20.35957     61.77548         6     0.891     0.537  61.91   0
       193    689.5379    510.7832 300.2277832 +22.7388038     239.7036     72.14531      1.417     3.77     5.107697     20.35957     35.84335         5     1.348     0.303  43.69   0
       194    563.0970    510.5086 300.1884765 +22.7008522     189.6056     72.34727      1.146     3.81     5.235319     20.35957     32.03417         6     0.835     0.500  -1.11   0
       195    775.7022    503.7959 300.2569112 +22.7625983      306.086     72.07173      1.205     2.45     4.875749     20.35957     56.15384         6     0.735     0.530  44.12   0
       196    855.4540    501.3796 300.2825651 +22.7857819     1722.171     72.14531      1.434     2.77     4.862341     20.35957     202.1271        20     1.058     0.997  44.88   0
       197    742.1015    501.1008 300.2473112 +22.7517620     389.8094     72.40225      1.526     4.74     4.987163     20.35957      36.6651         7     1.005     0.635 -87.17   0
       198    726.7028    498.9470 300.2432104 +22.7465317     2365.496     72.23718      1.359     2.63     5.038819     20.35957     340.1892        25     1.162     1.050 -59.28   0
       199    971.0143    496.7097 300.3201323 +22.8190315     584.1624     72.10853      2.081     6.31     4.925672     20.35957     42.22723        11     1.220     0.918  58.83   2
       200    969.6455    492.2443 300.3211552 +22.8173375     876.9995     72.20045      1.737     2.70     4.936108     20.35957     83.59145         9     0.826     0.744   6.12   2
       201    983.9894    493.1287 300.3253440 +22.8218850     1368.719      72.1637      1.539     4.43     4.942245     20.35957     134.5547        20     1.354     1.008 -85.84   0
       202    631.3929    495.5502 300.2146103 +22.7170112     471.0148      72.1637      1.412     3.17     5.190964     20.35957      61.9052        11     1.004     0.802  73.40   0
       203    513.8944    494.8506 300.1782364 +22.6816134     736.8167     72.23718      1.295     2.70     5.184246     20.35957     100.7288        11     0.927     0.733  71.94   0
       204    855.7614    491.4340 300.2858904 +22.7830143     2207.834     72.20045      1.660     3.43     4.875406     20.35957     275.1217        26     1.450     1.015  75.79   0
       205    608.9952    489.4579 300.2096100 +22.7085519     610.9662     72.12692      1.313     3.62     5.186878     20.35957     78.19566        11     1.087     0.742  53.34   2
       206    608.8036    485.4066 300.2108658 +22.7073302     389.3935     71.97965      1.578     3.07     5.178012     20.35957     51.60743         6     0.818     0.650  35.29   3
       207    395.0102    489.5135 300.1429556 +22.6444600     356.2271     72.10853      1.128     3.32     4.879987     20.35957     45.95573         6     0.785     0.499  -2.96   0
       208    893.9794    486.4532 300.2994285 +22.7930231     4402.827      72.1637      1.448     2.73     4.902254     20.35957      560.886        32     1.195     1.162 -65.02   0
       209    447.7582    487.7834 300.1599376 +22.6597683     425.1712     72.18208      1.435     4.79     5.058661     20.35957     57.61075         9     1.031     0.870  14.94   0
       210    554.4441    482.1096 300.1950024 +22.6901000     356.8331      72.1637      1.189     3.08     5.151517     20.35957      52.1451         7     0.742     0.653  89.02   0
       211    985.6090    477.0510 300.3310700 +22.8177456     850.8581      72.1637      1.549     3.40     4.980676     20.35957     78.18637        13     1.023     0.864  42.92   0
       212    125.9957    476.6021 300.0634628 +22.5601206     955.7984     71.97965      1.457     2.93     4.874581     20.35957     113.4992        17     1.045     1.011 -55.24   0
       213    787.3664    470.4991 300.2713594 +22.7565184     263.5023     72.14531      1.125     3.56     4.920969     20.35957     51.71929         8     0.989     0.595 -43.77   0
       214    392.1739    470.1405 300.1483625 +22.6380453     192.4528      72.1637      1.656     4.25     4.905474     20.35957     51.15022         5     1.408     0.456  21.11   0
       215    982.4879    466.0187 300.3336780 +22.8136384     342.7717     72.10853      1.315     4.83     4.996959     20.35957     38.39488        10     1.176     0.720  -8.10   0
       216    118.9395    466.1592 300.0646592 +22.5550072     539.2443      72.1637      1.549     3.82     4.866323     20.35957     78.91961         8     1.027     0.677  75.99   0
       217    726.1309    461.0103 300.2553496 +22.7354554     369.5571     72.14531      1.277     3.41     5.136662     20.35957     64.22845         9     0.890     0.857 -17.99   0
       218    615.4943    458.8679 300.2215666 +22.7017073     377.8767     72.31059      1.695     3.69      5.14776     20.35957     39.76358         7     0.893     0.601  -6.76   0
       219    667.5130    456.8522 300.2384299 +22.7167068     858.1912     72.20045      1.368     2.54     5.166708     20.35957     102.4687        14     0.910     0.885  37.29   0
       220    981.8839    449.5427 300.3388388 +22.8087187     565.6405     72.25554      1.440     2.73      5.02602     20.35957     88.98908         9     0.882     0.764 -48.67   0
       221    728.1575    449.1878 300.2598195 +22.7326636     921.3027      72.1637      1.329     2.72     5.135417     20.35957      98.7775        13     0.990     0.769  65.60   0
       222    885.4877    445.4879 300.3100800 +22.7787011     919.2061     72.32893      1.351     3.01     4.904083     20.35957     114.4654        15     1.057     0.860 -32.11   0
       223    869.5232    442.0074 300.3062302 +22.7729215     623.7386     72.10853      1.281     2.50     4.895561     20.35957     84.87759        10     0.876     0.729 -86.63   0
       224    849.8693    441.9945 300.3001045 +22.7670345     300.7245     72.12692      1.261     2.97     4.889363     20.35957     46.55562         7     0.842     0.642  26.05   0
       225    613.9401    439.6612 300.2273176 +22.6957217     3282.531     72.20045      1.327     2.32     5.128616     20.35957     507.2968        26     1.123     1.004  69.55   0
       226    974.6705    438.9570 300.3400244 +22.8035151     610.1326     72.12692      2.000     3.64     5.030589     20.35957     63.00814        11     1.156     0.774 -42.55   0
       227     90.1863    430.3450 300.0673463 +22.5361053     395.2008      72.1637      1.511     4.62     4.876864     20.35957     46.03971         8     1.135     0.838 -70.48   0
       228    619.3537    427.4462 300.2329695 +22.6938323     313.0352     72.20045      1.661     4.78       5.1202     20.35957     32.90046         7     1.084     0.597  23.40   0
       229    454.0698    426.8531 300.1816830 +22.6441543     500.4376      72.1637      1.502     2.71     5.147026     20.35957     61.96437         8     0.815     0.659  28.68   0
       230    386.0151    427.0450 300.1604353 +22.6238202     225.1508     72.18208      1.372     2.17     5.039552     20.35957     49.80077         5     0.638     0.532 -89.69   0
       231    983.7159    417.4974 300.3498134 +22.8000493     991.3026     72.32893      1.520     3.05     5.091842     20.35957     119.5447        18     1.098     0.995   5.11   0
       232    897.2273    418.1241 300.3226250 +22.7743454     606.1215     72.14531      1.583     3.96     4.911377     20.35957     66.71237        11     1.008     0.880  82.73   0
       233    633.6500    415.5243 300.2412937 +22.6946869     267.2951      72.1637      1.221     3.31      5.12589     20.35957     55.77848         5     0.941     0.516  46.19   0
       234    520.3531    414.4425 300.2063514 +22.6604438      448.707     72.20045      1.158     3.12     5.126707     20.35957     61.92732         8     0.950     0.620 -58.44   0
       235    724.5638    413.6611 300.2702320 +22.7213742     1044.889     72.18208      1.210     2.07     5.125232     20.35957     184.2551        14     0.923     0.796  38.32   0
       236    228.4855    411.6427 300.1164199 +22.5721905     655.4756     72.12692      1.483     2.78     5.238432     20.35957     84.30276        13     0.955     0.860 -40.08   0
       237    290.8782    407.3555 300.1372206 +22.5896573     3811.845      72.1637      1.438     2.65     5.179101     20.35957     453.2513        28     1.193     1.047  57.39   0
       238   1023.3299    406.1748 300.3658520 +22.8086459     2779.642     58.04442      1.175     3.25     5.195286     20.35957     521.2934        18     1.209     0.702  89.18  24
       239    238.1338    402.1056 300.1225163 +22.5723431     7383.747     72.29224      1.432     2.79      5.24373     20.35957     805.6025        38     1.270     1.146  47.26   0
       240    616.6814    401.9757 300.2404043 +22.6857110     295.8672     72.12692      1.428     2.76     5.104175     20.35957     43.01825         5     0.799     0.499 -30.25   0
       241   1004.0632    397.2696 300.3627293 +22.8003190     1878.197     72.20045      1.416     3.00     5.143158     20.35957     225.8197        23     1.122     1.078 -22.94   0
       242    378.8803    396.4099 300.1681580 +22.6128816     4861.157     72.10853      1.366     2.71      5.09632     20.35957     641.2463        29     1.148     1.045  55.61   0
       243    623.1481    393.1831 300.2452730 +22.6851202     18541.54      72.1637      1.318     2.53     5.101736     20.35957      2362.92        47     1.204     1.101  70.27   0
       244    640.7042    393.3153 300.2507003 +22.6904154     895.9269     72.34727      2.071     5.61     5.103166     20.35957     70.78854        17     1.460     1.019 -19.55   0
       245    470.2673    394.3664 300.1972707 +22.6396720     378.3726      72.1637      1.368     3.69     5.202547     20.35957     49.93525         5     0.850     0.461  47.04   0
       246    617.1284    392.6230 300.2435791 +22.6831565     415.3789     72.20045      1.352     3.42      5.10126     20.35957     34.07912         5     0.742     0.456 -16.39   1
       247    481.2775    390.0068 300.2021139 +22.6417173     249.1877     72.09013      1.636     5.30     5.216595     20.35957     26.97898         6     1.457     0.545   0.37   0
       248    820.2573    383.8022 300.3097587 +22.7414363    -263.4004     72.12692     -4.918     3.80     4.911979     20.35957     56.07952         8     1.076     0.605 -38.82   0
       249    242.7995    380.1657 300.1310879 +22.5674401     480.8022     72.12692      1.736     5.00     5.266117     20.35957     41.28412         9     0.998     0.863  53.27   0
       250    416.6321    376.6401 300.1863251 +22.6185116     252.8833     72.21882      1.755     4.12     5.186767     20.35957     31.60428         5     1.261     0.384  38.03   0
       251    956.9340    376.1194 300.3548868 +22.7801320     841.9814      72.2739      1.376     3.65     5.062791     20.35957     89.96882        11     1.015     0.746 -20.63   0
       252    493.6649    374.6272 300.2109625 +22.6410081      478.344     72.14531      1.500     5.85     5.231079     20.35957      47.9948         9     1.536     0.626  78.78   0
       253    666.7291    374.6114 300.2648805 +22.6928313     217.9802     72.18208      1.284     3.47     5.062962     20.35957     42.02728         5     0.725     0.480   8.99   0
       254    177.8366    373.1428 300.1131624 +22.5459542     2074.279      72.1637      1.448     3.01      5.06412     20.35957     235.6109        23     1.111     1.065  23.91   0
       255    563.7771    362.6068 300.2366999 +22.6585519     6707.857     72.14531      1.329     2.38      5.12792     20.35957     1023.674        33     1.152     1.050  78.42   0
       256    977.4178    363.1871 300.3654758 +22.7825411      1195.78     72.12692      1.470     3.01     5.100733     20.35957     124.1609        20     1.171     1.017  81.41   0
       257    278.6292    362.1139 300.1480920 +22.5729917     628.1264      72.1637      1.317     2.91     5.209707     20.35957     91.91049        12     1.018     0.738  -6.45   0
       258    135.8897    354.9573 300.1060204 +22.5281597     584.2264     72.18208      1.472     3.64     5.025705     20.35957     81.29019        12     1.009     0.892  22.41   0
       259    823.9677    354.6453 300.3203783 +22.7341618     344.4366     72.21882      1.144     2.76     4.928912     20.35957     51.53107         5     0.853     0.478   2.29   0
       260    677.5869    353.0976 300.2752461 +22.6898971     431.8901     72.05332      1.276     2.50     4.990687     20.35957     79.58541        10     0.851     0.764 -45.61   0
       261    767.9514    351.8497 300.3038189 +22.7165907     1237.604     72.20045      1.409     2.76     4.892706     20.35957     154.1312        15     0.985     0.885  53.48   0
       262    470.4566    348.7831 300.2121224 +22.6266297     6260.547     72.12692      1.369     2.48     5.292651     20.35957     882.8882        33     1.158     1.056  80.23   0
       263    959.8442    343.4487 300.3663976 +22.7716042     704.4703     72.20045      1.551     3.39     5.059074     20.35957     70.86355        11     1.003     0.815  88.28   0
       264    862.4248    343.2892 300.3360574 +22.7424057     1588.317     72.10853      1.457     2.78     4.919954     20.35957     200.6796        19     1.128     0.957 -84.59   0
       265    455.3359    337.5985 300.2110437 +22.6188865     435.2505      72.1637      1.150     2.87     5.263083     20.35957     73.44189        10     0.944     0.702  -8.04   0
       266    537.7328    335.6637 300.2373305 +22.6430081     419.8966     72.21882      1.293     2.33     5.203758     20.35957     73.15047         7     0.881     0.470  -3.58   0
       267    518.0080    333.5896 300.2318602 +22.6365048      382.849     72.05332      1.457     4.28     5.245611     20.35957     41.22878         7     0.784     0.666   4.55   0
       268    835.1045    331.2373 300.3314474 +22.7307627      596.645     72.14531      1.468     3.24     4.934951     20.35957     64.72285         8     0.847     0.656  28.40   0
       269    357.9749    328.0796 300.1838251 +22.5869869     2438.339     72.14531      1.369     3.05     5.188177     20.35957     302.1519        24     1.101     1.030  86.87   0
       270     76.3991    325.2634 300.0971606 +22.5018017     1033.601      72.1637      1.721     3.45     5.374761     20.35957     110.8533        18     1.124     1.083 -66.50   0
       271    327.3443    317.4402 300.1777448 +22.5747537     30161.07     72.14531      1.415     2.52     5.188177     20.35957     4021.978        70     1.347     1.198  61.33   0
       272    862.0112    315.1807 300.3450492 +22.7341968     1346.903     72.12692      1.279     2.88     4.891603     20.35957      165.999        21     1.040     0.992  44.59   0
       273    248.7420    312.9923 300.1547327 +22.5499260     1335.959     72.14531      0.499     1.02     5.285954     20.35957     819.4033         6     0.486     0.278  -7.01   0
       274     23.6253    305.1062 300.0872978 +22.4801951     4899.726     72.09013      1.673     3.49     5.602593     20.35957     514.2298        36     1.317     1.301  20.60   0
       275    777.0501    303.6985 300.3222798 +22.7054668     493.5466     72.23718      1.360     4.19     4.946356     20.35957     72.10641        11     1.158     0.759  74.70   0
       276    201.5820    303.5598 300.1431241 +22.5330854     470.8272     72.18208      1.403     3.49     5.370753     20.35957       58.911         9     0.955     0.792 -41.40   0
       277    425.9345    302.7113 300.2132092 +22.6000544     521.4655      72.2739      1.186     2.13     5.205917     20.35957     86.07031         9     0.816     0.655 -60.90   0
       278    737.8190    297.2887 300.3121286 +22.6918809     1861.687     72.10853      1.326     2.38     4.827701     20.35957     286.1072        21     1.139     0.931 -75.24   0
       279    545.9520    292.0351 300.2540458 +22.6329285     328.6078     72.20045      1.330     3.84     5.301726     20.35957     50.52447         8     1.016     0.679  82.04   0
       280    952.8891    290.3305 300.3814628 +22.7542409     617.2307     72.32893      1.429     3.14     4.889944     20.35957     70.73077        10     0.877     0.756 -69.51   0
       281    806.5505    283.7672 300.3379447 +22.7085634     230.3182     72.20045      1.061     2.65     5.036121     20.35957     39.05556         5     0.702     0.480  75.21   0
       282    399.5712    281.8228 300.2117789 +22.5861551     2201.706      72.1637      1.619     3.24     5.200892     20.35957     231.1478        24     1.377     0.961  66.23   0
       283    838.8223    274.9102 300.3508821 +22.7156735     602.7852     72.09013      1.241     2.55     4.944767     20.35957     99.27172        10     0.879     0.692  58.95   0
       284    738.2901    272.7087 300.3202496 +22.6849529     314.8399     72.32893      1.111     2.66     4.823973     20.35957     55.18299         5     0.726     0.444  -9.72   0
       285    720.9821    272.2604 300.3149997 +22.6796434     352.0548     72.10853      1.169     2.20     4.865459     20.35957     84.25716         9     0.770     0.745  32.47   0
       286    475.3778    261.2334 300.2420588 +22.6029411     1201.318      72.1637      1.300     2.50     5.318096     20.35957      162.116        19     1.020     0.989 -41.78   0
       287    282.5924    261.6239 300.1819272 +22.5453101     217.7082      72.1637      1.525     4.51     5.232459     20.35957      44.2698         6     0.973     0.655 -18.13   0
       288    986.6575    257.4916 300.4026537 +22.7548942     300.1322     72.21882      1.054     3.57     4.837427     20.35957     58.08353         5     0.865     0.441 -46.28   0
       289    859.0858    254.8431 300.3637117 +22.7159644     272.1782     72.12692      1.251     2.68      4.87989     20.35957     50.14432         8     0.831     0.627  45.49   0
       290    720.2969    253.2158 300.3209639 +22.6739613     2395.491     72.07173      1.358     2.51     4.868305     20.35957     301.4479        23     1.136     0.960  80.17   0
       291    981.6539    247.5459 300.4043184 +22.7505354     3354.916     72.20045      1.592     2.78     4.862548     20.35957     393.6758        31     1.283     1.168 -76.86   0
       292    428.8896    236.8639 300.2354890 +22.5820147     667.8523      72.2739      1.381     2.30     5.299949     20.35957     108.0565        11     0.914     0.701  78.11   0
       293    103.4674    231.1217 300.1361122 +22.4828782     1441.818      72.2739      1.619     3.52     5.556433     20.35957     140.6165        26     1.445     1.081 -33.08   0
       294    134.0850    231.0539 300.1456532 +22.4920334     772.5999     72.23718      1.585     3.48     5.418121     20.35957     78.14095        11     0.954     0.869  15.89   0
       295    997.3427    227.8900 300.4155902 +22.7495720      615.453     72.21882      1.462     4.02     4.792283     20.35957     73.28462        12     1.085     1.023  26.06   0
       296    840.3550    224.6804 300.3676534 +22.7016823     395.1742     72.14531      1.601     3.88      4.98323     20.35957     43.61603         6     0.885     0.487  41.87   0
       297    187.3867    222.9670 300.1648505 +22.5056810     489.8018     72.14531      1.596     5.69     5.279226     20.35957     59.60915        11     1.369     0.767  47.90   0
       298    982.6188    221.0965 300.4131986 +22.7432126     413.1281     72.07173      1.511     2.68     4.912093     20.35957     50.85409         7     0.825     0.569  58.88   0
       299     43.8004    220.3831 300.1210479 +22.4619131     249.5986     72.05332      1.073     3.39     5.596193     20.35957     44.21984         5     0.763     0.436 -20.11   0
       300    863.4791    217.0915 300.3773271 +22.7064179     416.6627     72.31059      1.669     2.78     4.864491     20.35957     61.64503         7     0.979     0.461  38.60   0
       301    791.9793    214.8016 300.3557716 +22.6843649     728.1622     72.09013      1.442     2.68      5.14249     20.35957     91.83838         8     0.842     0.577 -39.14   0
       302    381.9477    214.0732 300.2282679 +22.5614060     415.4024      72.1637      1.485     3.50     5.305846     20.35957     59.42075         8     1.006     0.628  51.18   0
       303    882.8086    207.7461 300.3863874 +22.7095122     374.1417      72.1637      1.316     4.15     4.969966     20.35957     55.89545        10     1.108     0.791 -20.06   0
       304    890.1459    203.5489 300.3900374 +22.7104997     2199.443     72.20045      1.501     2.90     5.022537     20.35957     307.1855        24     1.301     1.015  78.20   0
       305    386.6456    196.0371 300.2355792 +22.5576291     1107.744     72.20045      1.470     3.15     5.325859     20.35957     105.0164        16     1.079     0.908 -19.67   0
       306    788.4202    195.2363 300.3610071 +22.6776715     580.7352     72.18208      1.463     3.52     5.143396     20.35957     75.24886        12     1.126     0.853  64.30   0
       307    138.7427    196.3227 300.1583644 +22.4834523     390.3042     72.20045      1.355     3.05     5.483633     20.35957     41.01145         6     0.712     0.628  77.31   0
       308    308.5688    200.8383 300.2097237 +22.5356250     2039.977      72.1637      1.424     2.66     5.316377     20.35957     275.8642        21     1.181     0.943  82.38   0
       309    203.5363    188.1429 300.1811660 +22.5005145     816.3826     72.21882      1.422     3.41     5.363004     20.35957      98.3783        14     1.219     0.721 -15.44   0
       310    741.2319    185.1042 300.3495806 +22.6606361     1691.118     72.12692      1.322     2.73     4.975042     20.35957     210.9785        21     1.076     1.000 -56.36   0
       311    806.2214    184.8439 300.3699281 +22.6800083     680.4925     72.21882      1.404     2.72     5.176558     20.35957     98.24495        11     0.938     0.767 -62.11   0
       312    224.5862    181.7836 300.1897752 +22.5049932     555.7017     72.10853      1.653     3.73     5.342502     20.35957     54.96977        10     0.989     0.789 -23.66   0
       313   1013.0362    177.7970 300.4367343 +22.7398487     855.3984     72.18208      1.422     3.22     5.297617     20.35957     101.7485        16     1.118     0.942   0.89   0
       314    745.3754    176.6472 300.3536147 +22.6594433     730.6651     72.18208      1.303     2.73     5.015252     20.35957     104.2231        14     0.992     0.846 -83.58   0
       315    514.4254    177.2931 300.2814420 +22.5905019      287.474     72.10853      1.274     4.43     5.077837     20.35957      45.2645         7     0.885     0.631   9.81   0
       316    665.9222    175.8691 300.3291015 +22.6354415     1185.872      72.2739      1.299     2.37     5.063494     20.35957     193.3737        15     1.007     0.839 -42.04   0
       317    487.0843    172.2377 300.2745666 +22.5808627     403.5134     72.14531      1.449     2.98     5.271154     20.35957     46.22217         6     0.870     0.467  36.80   0
       318    861.3464    167.2683 300.3928193 +22.6914444     1600.568     72.18208      1.508     2.62      4.87644     20.35957     206.8672        19     1.197     0.922 -71.12   0
       319    591.8735    167.5343 300.3087309 +22.6108807     850.8433     72.20045      1.377     2.88     5.196103     20.35957     120.6901        14     1.148     0.796  59.94   0
       320    873.2165    166.3654 300.3968146 +22.6947357     891.0704      72.1637      1.581     3.11     4.930717     20.35957     112.7525        13     1.109     0.832 -89.07   0
       321    919.9812    165.7229 300.4116116 +22.7085403     363.4868      72.1637      1.379     3.71     5.381215     20.35957     44.24969         7     0.873     0.723 -81.64   0
       322    989.8709    156.9413 300.4362673 +22.7269175     1177.406     72.20045      1.519     3.21      5.50797     20.35957     132.0246        20     1.216     1.040  31.66   0
       323     13.3955    153.3897 300.1333210 +22.4335606     352.3781     72.01649      1.382     4.44     5.735482     20.35957     46.37864         7     1.163     0.481  -4.20   0
       324    223.9427    149.6379 300.1999977 +22.4955637      722.175      72.1637      1.334     3.38     5.386919     20.35957      105.853        11     0.945     0.842  83.83   0
       325     85.9232    144.4212 300.1587711 +22.4527169     2240.275      72.1637      1.598     2.90     5.828318     20.35957     242.3153        26     1.210     1.176  11.33   0
       326    909.0861    141.6805 300.4160082 +22.6983623     754.6701     72.32893      1.423     2.94     5.332961     20.35957      117.119        13     1.093     0.843  83.21   0
       327     35.6977    141.1967 300.1442050 +22.4367415     465.4657     72.07173      1.542     3.04     5.754732     20.35957     63.99768         7     0.900     0.606  44.28   0
       328    243.2956    137.6179 300.2099145 +22.4979064     5769.587     72.07173      1.526     2.83     5.398665     20.35957     773.6939        36     1.304     1.147  66.59   0
       329    224.8833    139.0659 300.2037177 +22.4928075     294.5004      72.2739      1.204     4.38     5.389572     20.35957     41.70658         6     0.995     0.617  -9.65   0
       330     27.3487    132.0212 300.1445847 +22.4316042     1482.572      72.1637      1.736     3.58     5.734257     20.35957     159.4765        20     1.252     1.137  64.43   0
       331    226.7465    128.6093 300.2076871 +22.4903608     583.5425      72.1637      1.403     3.41     5.396862     20.35957     82.84782        13     1.069     0.857 -20.87   0
       332    991.1840    118.2799 300.4492121 +22.7161819     2907.576     72.18208      1.558     2.87     5.508553     20.35957     361.9838        30     1.386     1.113 -73.50   0
       333    887.4594    119.4668 300.4164635 +22.6855004     3490.267     72.20045      1.481     2.54     5.249642     20.35957      443.823        28     1.179     1.111  88.24   0
       334    436.7446    114.3366 300.2776645 +22.5491443      569.451     72.21882      1.316     3.44      5.38921     20.35957     76.25507        13     1.135     0.780  59.12   0
       335    551.3375    112.3859 300.3139829 +22.5828877     355.2932     72.12692      1.211     4.12     5.074358     20.35957     39.24798         6     0.893     0.542 -43.59   0
       336    361.0349    106.6393 300.2565922 +22.5242629     643.8853     72.21882      1.387     2.70     5.475833     20.35957     72.10729         9     0.862     0.667  -7.52   3
       337    365.1038    105.1872 300.2583293 +22.5250639     512.4515     72.09013      1.478     3.83     5.473727     20.35957     58.27581        10     1.055     0.708 -66.42   2
       338    488.3709    101.9859 300.2977432 +22.5610487     1715.662     72.18208      1.366     2.43     5.359438     20.35957     217.6912        17     0.971     0.916  81.96   0
       339    127.3744    103.2809 300.1849942 +22.4533161     508.2987     72.14531      1.252     2.99     6.064877     20.35957     66.96445         9     0.867     0.672 -23.64   0
       340    416.6250    102.4867 300.2752421 +22.5397137     435.0868     72.10853      1.067     2.34     5.416049     20.35957     64.99118         7     0.840     0.492   7.28   0
       341     26.0380    102.3564 300.1537933 +22.4226903     338.2207     72.25554      1.548     3.97     5.713345     20.35957     33.17375         6     1.050     0.429 -12.89   0
       342    550.1938    101.2075 300.3172504 +22.5793306     332.0777     72.01649      1.257     3.86      5.14019     20.35957     41.64198         6     0.769     0.555  33.85   0
       343    231.5803     97.3836 300.2193128 +22.4828350     447.4707     72.14531      1.365     3.58     5.423866     20.35957     62.38827         6     0.893     0.484   3.73   0
       344    776.7905     92.1627 300.3908002 +22.6445369     259.4852     72.18208      1.224     4.06     5.248374     20.35957     41.69405         6     1.113     0.424  61.58   0
       345    922.4660     86.2727 300.4381453 +22.6864174      416.885     72.20045      1.578     3.70     5.451917     20.35957     46.82718         6     0.999     0.438  35.10   0
       346    262.2890     81.5072 300.2340117 +22.4874690     5999.536     72.32893      1.524     2.80     5.559997     20.35957     782.7115        41     1.322     1.196  69.30   0
       347    768.9478     82.3808 300.3915257 +22.6393759     302.3234     72.14531      1.239     4.37     5.237327     20.35957     53.41315         7     0.864     0.629  12.84   0
       348    113.4780     81.4239 300.1877580 +22.4428732     730.8063      72.1637      1.742     3.05     6.148955     20.35957     91.37237        11     1.095     0.680 -12.89   0
       349    891.4766     79.3370 300.4307256 +22.6751525     303.1205     72.23718      1.113     2.90     5.336287     20.35957     47.46925         5     0.704     0.483  75.76   0
       350    234.5248     75.4400 300.2273411 +22.4774103     368.1222     72.12692      1.497     4.66      5.68007     20.35957     42.37341         8     0.957     0.768  77.62   0
       351    277.8435     73.2591 300.2415242 +22.4897564     423.5785      72.1637      1.327     3.08     5.567686     20.35957     58.13012         6     0.949     0.409  10.62   0
       352    508.4151     66.9887 300.3153292 +22.5569847     6305.224     72.07173      1.389     2.61     5.355375     20.35957     781.1978        34     1.214     1.079  75.25   0
       353    393.5721     66.8884 300.2796042 +22.5225770     615.6588     72.14531      1.333     3.17     5.516416     20.35957     104.4162        12     1.079     0.792 -13.30   0
       354    565.3965     61.8007 300.3347591 +22.5725472     217.9996     71.94279      1.233     3.11     5.306623     20.35957     43.29965         5     0.848     0.523  35.34   0
       355    761.0927     56.7433 300.3973863 +22.6296489     864.8488     72.21882      1.913     7.88     5.209711     20.35957     90.50468        14     1.840     0.944 -59.48   2
       356    528.7615     61.1638 300.3235541 +22.5613994     270.4521     72.23718      1.256     4.13     5.240765     20.35957     35.58927         6     0.762     0.639   5.94   0
       357    702.3926     58.3266 300.3785741 +22.6125426      392.063     72.10853      1.519     2.99      5.19757     20.35957     38.75034         5     0.728     0.445  69.57   0
       358    853.0571     55.9742 300.4263139 +22.6569371     405.4826      72.1637      1.302     2.05     5.246144     20.35957     67.48161         7     0.816     0.505 -44.79   0
       359    201.2418     50.7068 300.2250044 +22.4603340     496.6231     72.18208      1.388     2.98     6.102007     20.35957     67.67169         7     0.802     0.653 -73.17   0
       360    636.8480     47.1109 300.3617816 +22.5897040     6321.184     72.14531      1.370     2.62     5.502977     20.35957     826.2202        34     1.235     1.112  81.75   0
       361    559.8365     49.6131 300.3369770 +22.5673778     419.5379     72.14531      1.344     2.55     5.284246     20.35957     80.60923         7     0.895     0.640   3.70   0
       362    411.6552     46.0307 300.2919932 +22.5219936     1507.417     72.18208      1.401     2.75     5.557821     20.35957     176.9158        19     1.113     0.949  73.57   0
       363    677.9735     44.6099 300.3754085 +22.6012900      850.576      72.1637      1.356     2.59     5.166684     20.35957     127.1069        13     0.955     0.861 -85.54   0
       364    747.7661     42.3873 300.3978842 +22.6215312     463.2441     72.14531      1.310     2.59     5.193141     20.35957     45.75118         5     0.720     0.445 -20.46   0
       365    693.8482     40.7154 300.3816185 +22.6049192      676.234     72.14531      1.574     2.87     5.168669     20.35957     85.26469        11     1.018     0.727 -84.79   0
       366    963.7613     38.2247 300.4666038 +22.6849357     581.7387     72.18208      1.468     4.16     5.333841     20.35957     69.36399        13     1.141     0.840  67.50   0
       367    160.5212     38.5616 300.2162763 +22.4446478     596.6174     72.14531      1.361     2.92      6.25679     20.35957     86.25742        12     0.967     0.829  13.52   0
       368      7.4259     39.3025 300.1684443 +22.3990004     298.2704     72.12692      1.660     4.14     5.011454     20.35957     32.94726         6     1.098     0.446  -6.24  16
       369   1002.7096     38.2181 300.4787609 +22.6965798     268.3998     72.09013      1.326     4.15     5.333841     20.35957     32.90424         6     0.762     0.645   5.11   0
       370    732.3790     35.8788 300.3951966 +22.6150551     608.0637      72.1637      1.546     3.08     5.183553     20.35957     68.45412         9     0.930     0.754  82.79   0
       371    681.0220     31.9954 300.3804468 +22.5985728      2860.04     72.12692      1.417     2.80     5.146772     20.35957     342.2149        25     1.184     1.002  77.96   0
       372    321.8412     32.8618 300.2683064 +22.4913182     525.0084     72.14531      1.377     2.11     5.590313     20.35957     80.69493         8     0.792     0.610 -40.33   0
       373    696.1002     31.1051 300.3854349 +22.6028278     937.5212      72.3656      1.846     5.51     5.154731     20.35957     89.41451        14     1.390     0.750  49.68   0
       374    767.4506     23.7594 300.4100582 +22.6220594     1456.084     72.18208      1.397     2.60     5.173256     20.35957     193.1373        18     1.039     0.939  72.94   0
       375    928.3343     22.7196 300.4605744 +22.6698783     271.1248      72.2739      1.235     3.51     5.288837     20.35957     38.16904         5     1.192     0.299  36.49   0
       376    846.0486     17.9743 300.4364431 +22.6439039     259.4804     72.18208      1.580     4.46     5.228629     20.35957     37.04909         6     1.178     0.481 -60.62   0
       377    705.4586     16.9199 300.3929488 +22.6015462     780.0536     72.21882      1.378     2.64     5.140682     20.35957     104.7985        13     0.925     0.846  19.68   0
       378    171.3199   1018.8251 299.9013247 +22.7292877     575.2458     72.14531      3.272     9.15     99.19621     20.35957     40.69033        12     2.792     0.837  48.56  18
       379     83.9430     16.4645 300.1996271 +22.4153608     540.2215     72.21882      1.487     4.04     6.093497     20.35957     69.65508         9     1.088     0.589 -28.39   0
       380    309.6641   1012.6317 299.9463670 +22.7690254     1770.848      72.1637      4.914     6.80     7.086632     20.35957     94.68226        33     1.737     1.536 -34.35  16
       381    145.2452   1007.3651 299.8969468 +22.7181760     1617.997     72.20045      3.377    11.51      88.3761     20.35957     55.40455        34     2.616     1.411 -10.53  18
       382    214.0801    986.7231 299.9250657 +22.7329140     4386.522      72.2739      8.507    39.48     65.45102     20.35957     96.60136       425     9.305     4.649  85.16  19
       383    234.2192    984.8290 299.9319451 +22.7384138     5824.824      72.1637     10.302    42.72     54.19513     20.35957     103.1488       544     9.020     6.050 -83.64  19
       384    253.0480    974.7321 299.9410861 +22.7411675      8868.71      72.1637     12.858    41.60     32.88832     20.35957      195.025      1154    13.938     6.040  72.10  19
