#   1 NUMBER                 Running object number                                     
#   2 X_IMAGE                Object position along x                                    [pixel]
#   3 Y_IMAGE                Object position along y                                    [pixel]
#   4 ALPHA_J2000            Right ascension of barycenter (J2000)                      [deg]
#   5 DELTA_J2000            Declination of barycenter (J2000)                          [deg]
#   6 FLUX_APER              Flux vector within fixed circular aperture(s)              [count]
#   7 FLUXERR_APER           RMS error vector for aperture flux(es)                     [count]
#   8 FLUX_RADIUS            Fraction-of-light radii                                    [pixel]
#   9 FWHM_IMAGE             FWHM assuming a gaussian core                              [pixel]
#  10 BACKGROUND             Background at centroid position                            [count]
#  11 THRESHOLD              Detection threshold above background                       [count]
#  12 FLUX_MAX               Peak flux above background                                 [count]
#  13 ISOAREA_IMAGE          Isophotal area above Analysis threshold                    [pixel**2]
#  14 A_IMAGE                Profile RMS along major axis                               [pixel]
#  15 B_IMAGE                Profile RMS along minor axis                               [pixel]
#  16 THETA_IMAGE            Position angle (CCW/x)                                     [deg]
#  17 FLAGS                  Extraction flags                                          
         1    494.0924     15.6619 300.3325491 +22.5431843      1052.13     72.38565      1.481     2.85     6.073023     20.39105     119.4463        16     1.027     0.933  54.77   0
         2    398.1691     13.9209 300.3032442 +22.5139811     619.8485     72.27528      1.347     3.06      6.13936     20.39105     77.37441        11     0.921     0.779 -33.89   0
         3    780.1865     12.3935 300.4227663 +22.6278171      501.652     72.16473      1.806     4.08     5.992571     20.39105     40.60918        10     0.993     0.763  34.30   0
         4    737.3612      4.6237 300.4119298 +22.6127751     599.3215     70.76841      1.521     3.06     6.106872     20.39105     84.89085        10     0.991     0.747  60.36  16
         5    169.2743      3.6161 300.2353581 +22.4425071     3678.585     67.43738      1.733     3.10     6.087017     20.39105     396.2351        36     1.465     1.208  23.73  24
         6    495.7191      1.5562 300.3376245 +22.5396143     228.6497     57.53602      1.119     4.00     6.105996     20.39105     37.58516         6     0.879     0.522 -41.02  24
         7    592.2156      1.3083 300.3677649 +22.5684105     281.4875      56.0127      1.038     2.09     5.935776     20.39105     47.66315         5     0.701     0.441  14.68  24
         8    144.7343   1006.9971 299.9020818 +22.7231824     494.4545     72.29369      1.859     6.45     88.87959     20.39105     36.46822         8     1.946     0.601  28.07   0
         9     84.0651   1010.8368 299.8819729 +22.7060797     4936.684     72.27528     20.774   116.29     78.79832     20.39105     165.1811      2549    21.822    19.056 -70.53  27
        10     74.0820    953.2816 299.8975861 +22.6865834     4973.463     72.40403     26.095    91.52     30.89409     20.39105     1396.342      2863    19.710    11.792 -24.48  27
        11    165.7266    979.1311 299.9176711 +22.7214901     1670.109     72.34888      4.023    14.21     64.36017     20.39105     56.34542        41     3.164     1.776  -9.65   3
        12     73.9904    917.5825 299.9091642 +22.6763201     3984.129     72.22003     27.785    60.79     13.62328     20.39105       80.576      1200    13.691     7.490 -27.05  19
        13    164.3363    974.9736 299.9185907 +22.7198808      1758.06     72.27528      4.090    12.71     60.91943     20.39105     51.96372        40     2.440     1.882 -12.55   3
        14    496.3215    974.8378 300.0219382 +22.8194029     344.9915     72.25687      1.932     3.63     3.622086     20.39105     34.21812         5     1.199     0.317   9.35   0
        15    924.5254    970.5461 300.1568006 +22.9464883     764.0657     72.29369      2.146     8.27      4.29662     20.39105     33.30735        16     1.787     1.068  35.39   0
        16    636.7012    984.6248 300.0624824 +22.8642916     9713.879     72.20161      2.105     4.92     4.029645     20.39105     514.7786        53     1.614     1.586  25.12   3
        17      2.2690   1017.1425 299.8545023 +22.6833410       1001.3     61.36318     12.096    14.40    -6.470619     20.39105     39.35122        33     4.421     1.304 -83.58  26
        18    169.2332    996.0582 299.9132567 +22.7273959     3143.757     72.29369      6.827    27.44     79.37837     20.39105     66.37714       210     4.830     4.687 -58.68  18
        19    649.5483    953.8561 300.0764918 +22.8593096      7015.08     72.31209      2.018     4.46     4.115712     20.39105     351.4302        53     1.613     1.501  25.95   0
        20    197.5194    986.0095 299.9253207 +22.7330001      3601.44     72.22003      7.236    22.87     69.95577     20.39105     79.74741       231     4.795     4.381  84.71   3
        21    730.2692    988.2225 300.0904730 +22.8933658      456.188     72.29369      1.556     4.28     4.163871     20.39105     33.08999         7     1.132     0.460  59.53   2
        22    558.0412    944.6255 300.0509848 +22.8292338     1513.174     72.33048      1.891     4.11      3.89528     20.39105     101.7379        25     1.300     1.206  82.43   0
        23    217.8140    984.4042 299.9321543 +22.7386276       4573.9     72.12785      7.936    25.29     67.57908     20.39105     99.92937       358     5.764     4.999 -47.39   3
        24    451.5069    941.1022 300.0189546 +22.7962868     1131.966     72.45914      2.241     6.10     4.178259     20.39105      79.3243        22     1.566     1.391 -82.94   0
        25    382.4865    938.8575 299.9981992 +22.7749488     6509.524     72.36726      1.975     4.30     4.771696     20.39105     408.8564        49     1.536     1.500   6.94   0
        26    235.5175    973.2084 299.9413013 +22.7407271     7319.343     72.22003      8.238    31.27     47.51044     20.39105     163.1218       690    10.091     4.830  61.36  18
        27    123.3970    927.8668 299.9211789 +22.6940911     919.8578     72.25687      3.838     4.31     20.78849     20.39105     42.16428         5     1.190     0.445  79.38   1
        28    415.6866    925.7258 300.0128029 +22.7811353     437.6538      72.4224      1.563     4.16     4.775477     20.39105     39.82745         6     1.074     0.459 -86.02   0
        29    733.0000    987.6846 300.0914992 +22.8940297     384.1713      72.1463      1.509     3.80     4.163871     20.39105     38.67176         5     1.072     0.387 -87.24   2
        30    929.0817    917.9022 300.1753415 +22.9327309     2211.448      72.4224      2.126     5.46     4.424267     20.39105     111.8266        36     1.668     1.476  40.31   0
        31    578.9316    915.3491 300.0670114 +22.8270918     443.9299     72.25687      1.785     4.89     3.983666     20.39105     37.57352         7     1.020     0.663 -25.93   0
        32    544.6838    991.5220 300.0315735 +22.8386892      2311.67     72.38565      2.012     5.13     3.920384     20.39105     147.4825        35     1.534     1.448  25.43   0
        33    717.6657    906.4258 300.1131433 +22.8661035     980.3443     72.25687      2.234     6.13     4.324818     20.39105      45.8447        19     1.368     1.128  59.69   0
        34    229.0186   1000.5024 299.9304038 +22.7466053     823.6906     72.20161      2.028     7.42     79.89399     20.39105     54.38922        16     1.792     0.861  12.29   0
        35    530.4377    902.1807 300.0561877 +22.8087773      364.546     72.29369      1.250     3.50     4.035916     20.39105     33.50986         5     0.781     0.453  71.50   0
        36    752.3607    901.0929 300.1256925 +22.8749670     1073.437     72.27528      1.851     5.62     4.354323     20.39105     59.76464        20     1.280     1.170  32.23   0
        37    161.5463    966.3387 299.9205311 +22.7165677     1173.425     72.33048      9.770    10.85     53.15268     20.39105     43.67302        26     2.665     1.230  74.75   3
        38    820.1262    895.0082 300.1487999 +22.8935201     480.0365     72.23845      1.471     4.94     4.389384     20.39105     44.34316         8     1.413     0.488  31.25   0
        39    631.3373    986.6875 300.0601402 +22.8632761     9427.717     72.38565      2.198     4.93     4.005142     20.39105     470.5655        49     1.659     1.510  45.55   3
        40    965.6688    894.8430 300.1942548 +22.9370632     403.4497     72.23845      1.673     3.99     4.579126     20.39105     32.96988         6     1.457     0.313   7.50   0
        41    774.7316    894.6482 300.1347623 +22.8798182     11395.86     72.27528      1.929     4.25     4.376321     20.39105     704.3876        58     1.556     1.494  26.94   0
        42    134.1012    892.5610 299.9359845 +22.6871773     622.6458     72.27528      4.420     4.17     13.32394     20.39105      27.2666         5     1.172     0.423  13.74   0
        43     85.9120    886.2996 299.9230392 +22.6709261     1004.604     72.44077      4.946     7.20     9.549812     20.39105     42.35817        14     1.624     0.894 -13.85   0
        44    480.4328    882.4443 300.0470317 +22.7881241     471.3413     72.33048      2.013     3.90     4.328314     20.39105     34.80706         5     1.006     0.433  74.63   0
        45    826.2823    881.7752 300.1550219 +22.8915633     457.2819     72.25687      1.993     4.92     4.425526     20.39105     33.62981         6     1.406     0.488  26.87   0
        46    783.1606    876.8506 300.1431765 +22.8772318     1405.406     72.29369      2.039     5.43     4.423165     20.39105     76.53932        26     1.430     1.311 -67.71   0
        47    635.5723    873.8380 300.0981534 +22.8321486     520.8369     72.29369      2.114     5.19     4.311555     20.39105     33.33132         7     1.312     0.581  54.34   0
        48    821.2281    870.4310 300.1571337 +22.8867910     890.3833     72.27528      2.153     7.29     4.453794     20.39105     50.37189        19     1.526     0.975   0.36   0
        49    870.1697    861.4698 300.1753108 +22.8988755        609.9     72.27528      1.948     6.13     4.504613     20.39105     46.20831        13     1.400     1.034  63.18   0
        50    721.0651    860.3908 300.1291687 +22.8539024     701.7444     72.25687      1.843     4.97     4.448321     20.39105     69.39054        15     1.300     0.983  50.52   0
        51    433.6535    856.5532 300.0408832 +22.7666708     4040.885     72.31209      1.808     3.86     4.547302     20.39105     304.1497        38     1.450     1.341  46.04   0
        52    732.3176    857.2740 300.1336895 +22.8563784     590.5494     72.38565      1.680     4.74     4.476006     20.39105     52.63318        13     1.173     0.947  80.42   0
        53     95.9888    845.3388 299.9394850 +22.6622021     464.7593     72.22003      2.588     3.14     5.230501     20.39105     40.62748         5     0.773     0.593 -88.27   0
        54     76.5842    844.2252 299.9338152 +22.6560621     428.3092     72.29369      1.837     4.45     5.195602     20.39105     34.49377         5     1.248     0.451 -80.17   0
        55    477.0666    843.9475 300.0584971 +22.7760655     287.9172     72.29369      1.456     4.95      4.56142     20.39105     36.56575         6     1.188     0.585  57.39   0
        56    159.0207    842.0620 299.9601466 +22.6801676     677.6822     72.23845      1.829     5.35     7.493691     20.39105     65.97644        14     1.336     0.882  38.50   0
        57    135.9255    839.1769 299.9539033 +22.6724134     1763.166     72.31209      2.083     4.78     6.546699     20.39105     119.5116        29     1.490     1.318   6.83   0
        58   1007.8221    828.7522 300.2288947 +22.9306941     1976.057     72.29369      1.943     4.90      4.63306     20.39105     106.5107        31     1.422     1.372  -5.27   0
        59     11.8442    828.9957 299.9186443 +22.6322741     334.2708     72.29369      1.586     2.31     5.032701     20.39105     44.51265         5     0.764     0.473 -29.66   0
        60    962.0195    827.0231 300.2151630 +22.9164837     2163.738     72.27528      2.002     4.88     4.589311     20.39105     122.8568        30     1.420     1.338  30.18   0
        61    745.8013    820.8843 300.1497209 +22.8499663      600.341     72.16473      1.643     3.86     4.630138     20.39105     59.48271        11     0.962     0.852  32.98   0
        62    613.7458    814.8226 300.1105349 +22.8086634     4730.715     72.29369      1.689     3.48     4.638024     20.39105     374.4075        36     1.322     1.280  25.84   0
        63    416.0711    811.9589 300.0499034 +22.7486013     588.1027     72.23845      1.742     4.67     4.649986     20.39105     54.90942        11     1.216     0.789  19.22   0
        64    163.7232    808.3774 299.9725556 +22.6719154     1415.695     72.25687      2.017     4.78     5.645481     20.39105     109.8183        30     1.485     1.385  28.72   0
        65    634.2357    807.2983 300.1193645 +22.8126419     586.9354     72.27528      1.545     4.86     4.675781     20.39105     55.74097        15     1.149     0.968  21.88   0
        66   1006.9709    795.0632 300.2395785 +22.9207573     1218.791     72.29369      2.022     4.47     4.393238     20.39105     74.32602        21     1.230     1.175   4.60   0
        67    789.8774    794.5099 300.1720344 +22.8555923     4315.231      72.4224      1.843     4.03     4.852497     20.39105     299.1486        38     1.405     1.334 -42.62   0
        68    198.4173    788.5954 299.9897728 +22.6766441      327.985     72.22003      1.416     3.44     5.033958     20.39105     43.31116         7     0.848     0.663 -67.57   0
        69    506.7722    787.0435 300.0862407 +22.7686329     616.0764     72.29369      1.583     5.82     4.803844     20.39105     52.10024        13     1.108     0.987   7.10   0
        70    152.9717    784.7883 299.9768776 +22.6619241     1103.263     72.27528      1.978     4.51     5.193264     20.39105     100.6235        22     1.385     1.238  -3.26   0
        71    302.7987    776.9829 300.0260162 +22.7046080     54131.57     72.18317      1.805     3.64     4.750708     20.39105     4170.965        97     1.577     1.505  29.71   0
        72    568.3159    780.4819 300.1075416 +22.7851907     574.2539     72.40403      2.108     5.00     4.878746     20.39105     55.81539        11     1.266     0.903 -55.05   0
        73    973.7269    775.6660 300.2355073 +22.9052301     1056.445     72.31209      2.081     4.93     4.546487     20.39105     58.75647        19     1.208     1.105  15.27   0
        74    560.7158    776.0922 300.1066006 +22.7816530     1728.329     72.44077      1.757     3.87     4.908884     20.39105     139.5025        26     1.367     1.148  19.33   0
        75    231.1962    775.4734 300.0042315 +22.6827078     459.7791     72.20161      1.642     3.66      4.84382     20.39105     41.76688         6     0.792     0.499   0.11   0
        76    589.6053    772.0471 300.1169146 +22.7891474     819.9324     72.25687      1.547     3.97     4.939022     20.39105     78.27419        18     1.177     1.065  39.87   0
        77    600.3586    770.5952 300.1207364 +22.7919523     576.5176     72.29369      1.630     3.78     4.946557     20.39105     58.58366        13     1.033     0.891 -13.31   0
        78    706.0549    766.7154 300.1549346 +22.8225017     550.9498     72.34888      1.728     5.25     4.874018     20.39105     47.18835        10     1.137     0.686 -68.17   0
        79    743.4330    757.3298 300.1696359 +22.8310014     781.1416     72.27528      1.732     4.80     4.956961     20.39105     61.77343        16     1.093     1.014  82.30   0
        80    352.5372    754.2451 300.0488816 +22.7129923     31686.39     72.29369      1.745     3.51     4.672751     20.39105     2701.769        78     1.523     1.427  22.40   0
        81    366.7995    754.9333 300.0530967 +22.7174648     2183.553     72.23845      1.930     3.60     4.683064     20.39105     182.4438        31     1.463     1.244 -29.09   0
        82    875.7421    750.3329 300.2131684 +22.8686133      2949.94     72.31209      1.831     3.87     4.619179     20.39105     198.1643        37     1.437     1.333  11.65   0
        83    364.4169    748.6549 300.0543950 +22.7149486     691.2347     72.25687      1.996     5.18     4.681911     20.39105     46.64448        11     1.149     0.815  65.61   1
        84    633.6386    746.5059 300.1389328 +22.7950045     915.5288     72.27528      1.632     3.43     5.069272     20.39105     88.67507        17     1.089     1.009  -8.88   0
        85    470.1633    746.8116 300.0879130 +22.7461118     381.4847     72.25687      1.255     4.06     5.052576     20.39105     53.73014         6     0.924     0.508 -32.78   0
        86    234.9625    746.0431 300.0149648 +22.6753922     807.0302     72.36726      1.670     4.61     4.761925     20.39105     74.67542        17     1.252     0.997  17.35   0
        87    480.5324    741.2349 300.0929537 +22.7476180     828.3453     72.27528      1.714     4.04     5.169606     20.39105     77.72382        15     1.152     0.930  18.69   0
        88     40.7818    741.6132 299.9560292 +22.6158932      360.538     72.23845      1.248     3.40     5.076998     20.39105     39.80745         5     0.920     0.400 -82.88   0
        89    881.7043    738.3550 300.2189200 +22.8669566     627.8264     72.29369      2.131     6.30     4.619225     20.39105     40.04376         9     1.196     0.932 -88.27   0
        90    338.2841    736.5077 300.0502086 +22.7036290     337.2208     72.45914      1.286     3.43     4.688125     20.39105     48.52911         6     0.924     0.677  69.73   0
        91    426.7151    736.1437 300.0778515 +22.7300287     389.3188     72.36726      1.578     5.08     4.820104     20.39105     54.37168         8     1.340     0.641  14.34   0
        92     68.5371    735.5635 299.9666210 +22.6224821     499.6528     72.27528      1.744     4.95     5.084132     20.39105     41.73934        10     1.210     0.751  -8.80   0
        93    859.8209    733.0341 300.2138228 +22.8588753     544.7826     72.29369      1.910     5.94     4.728351     20.39105     40.69949         9     1.112     0.892 -26.26   0
        94    232.3295    729.9009 300.0193900 +22.6699707     595.7591      72.4224      1.761     6.96      4.78083     20.39105     50.47277        14     1.329     1.022  23.76   0
        95    555.9289    720.8634 300.1230535 +22.7643596     572.2857     72.31209      1.658     4.55     5.294749     20.39105     55.43412        12     1.080     0.837  10.31   0
        96    525.8444    719.4378 300.1141461 +22.7549366     690.8612     72.34888      1.765     3.41     5.312086     20.39105     60.35588        10     0.989     0.755 -32.32   0
        97    435.3598    718.5359 300.0862630 +22.7275643     336.3766     72.23845      1.724     3.99     5.024873     20.39105      26.3799         6     0.950     0.480 -89.02   0
        98    942.1457    715.7693 300.2451144 +22.8785611     4516.768     72.29369      1.796     3.86     4.817749     20.39105     297.9246        39     1.389     1.363  49.39   0
        99    547.5659    716.5148 300.1218612 +22.7606053     1249.959     72.23845      1.568     3.54     5.325488     20.39105     127.9034        18     1.084     1.058  72.97   0
       100    467.1738    716.4736 300.0968382 +22.7365057     416.3094     72.27528      1.684     6.62      5.23808     20.39105     32.28573         9     1.177     1.046 -63.51   0
       101    930.6273    707.2059 300.2443026 +22.8726517     1636.552     72.27528      1.761     3.93     4.942626     20.39105     119.0863        28     1.371     1.190  16.44   0
       102    293.4104    700.5685 300.0479201 +22.6798631     861.3718     72.27528      1.716     4.43     5.049994     20.39105        81.42        16     1.293     0.882  19.30   0
       103    756.8271    698.3923 300.1929596 +22.8180807     2593.373     72.27528      1.698     3.55     5.353551     20.39105     199.0794        29     1.347     1.153  38.43   0
       104    961.8295    697.3260 300.2572481 +22.8791523     1709.747     72.29369      1.839     3.97     4.867713     20.39105      134.886        24     1.297     1.182   4.20   0
       105    142.3476    684.6320 300.0061108 +22.6300031     709.6825     72.29369      1.812     4.25     5.081079     20.39105     70.94468        12     1.209     0.806 -42.07   0
       106    839.7176    684.2369 300.2234052 +22.8388336     610.0287     72.23845      1.920     5.07     5.367394     20.39105     45.81914        10     1.256     0.712 -11.82   0
       107    875.4191    675.3310 300.2374337 +22.8469629       149356     72.27528      1.744     3.53     5.400395     20.39105     12373.96       147     1.557     1.524 -79.75   0
       108   1022.2729    677.3489 300.2826013 +22.8915011     1132.431     63.59917      1.665     3.96     4.415223     20.39105     101.5805        21     1.264     1.098  58.69  24
       109    637.7514    679.0279 300.1621352 +22.7768551     440.5362     72.29369      1.693     3.31     5.380442     20.39105     49.21368         6     0.846     0.620  50.15   0
       110    727.5347    675.5358 300.1912522 +22.8027417     677.4955     72.33048      1.542     4.76     5.451842     20.39105     74.74329        17     1.385     1.001  55.28   0
       111    908.5884    668.6682 300.2499453 +22.8549777     456.8773     72.29369      1.444     4.25     5.368012     20.39105     47.11816         9     1.049     0.721   7.41   0
       112    561.6620    664.0944 300.1432795 +22.7497736     1601.988     72.36726      1.572     3.27     5.579473     20.39105     140.9625        23     1.141     1.101  -7.27   0
       113    742.8190    661.3813 300.2006144 +22.8032519     9576.916     72.27528      1.612     3.15     5.482962     20.39105     900.9492        47     1.365     1.273  20.17   0
       114    244.2693    656.3097 300.0470070 +22.6524301     5058.624      72.4224      1.726     3.39     5.102394     20.39105     492.2026        42     1.437     1.306  56.25   0
       115    326.3823    654.2925 300.0732097 +22.6764622     1295.208     72.20161      1.764     3.66     5.165333     20.39105     116.0669        21     1.237     1.079  38.18   0
       116    202.2022    652.2235 300.0352493 +22.6386473     481.9286     72.22003      1.591     4.57     5.067518     20.39105     58.18655         8     1.096     0.546 -55.11   0
       117    534.6340    649.9027 300.1394698 +22.7376010     771.5491     72.27528      1.550     3.48     5.671838     20.39105     77.34429        14     1.019     0.928  -5.04   0
       118    526.3314    642.0978 300.1394185 +22.7328722     3323.136     72.40403      1.544     2.93     5.679421     20.39105     315.6205        31     1.250     1.160  -3.58   0
       119    516.5847    635.8372 300.1384161 +22.7281543     1462.975     72.27528      1.587     3.32     5.675978     20.39105     145.8086        18     1.191     0.989  88.19   0
       120    910.1464    633.7567 300.2617703 +22.8454092     402.5075     72.29369      1.497     4.54     5.404253     20.39105      49.1174         7     0.856     0.683 -70.91   0
       121    179.5195    631.7805 300.0348335 +22.6259807     774.5698     72.25687      1.975     4.94     5.036495     20.39105     57.50115        14     1.270     0.970 -39.75   0
       122    193.9081    630.2289 300.0398121 +22.6298486      766.735     72.23845      1.838     6.86     5.028211     20.39105     92.05183        15     1.369     0.964  42.85   0
       123    963.4949    627.4753 300.2804559 +22.8595713     541.8967      72.4224      1.843     5.05      5.06069     20.39105     48.29462         9     1.159     0.623  32.73   0
       124    220.1332    627.1672 300.0489629 +22.6368309     476.1773     72.27528      1.488     4.93     5.013106     20.39105     44.75423        10     1.154     0.864  36.20   0
       125    441.3337    625.5125 300.1183362 +22.7026447     1761.745     72.36726      1.594     3.37     5.457408     20.39105     176.5121        21     1.167     1.069 -88.15   0
       126    250.9738    627.4161 300.0584755 +22.6461464     429.8241     72.29369      2.091     4.15     4.987633     20.39105     33.15744         5     0.764     0.643 -84.83   0
       127    540.2030    626.3733 300.1488456 +22.7325113     496.3683     72.22003      1.824     2.44     5.762536     20.39105     48.75932         6     0.827     0.674   6.19   0
       128    476.8186    624.9830 300.1295569 +22.7131239     951.0848     72.25687      0.418     2.01     5.589657     20.39105     856.4046         5     0.510     0.245  -2.28   0
       129   1017.0175    623.1323 300.2985702 +22.8743406     854.0477     72.27528      1.760     4.07      4.65477     20.39105     65.68216        17     1.136     1.071 -84.19  16
       130     95.2209    620.3060 300.0123486 +22.5974159     19796.62     72.20161      1.872     3.66     5.094569     20.39105     1850.385        72     1.610     1.497  35.34   0
       131    526.3827    620.8907 300.1463213 +22.7267967     847.6786     72.20161      1.584     3.88     5.738945     20.39105      81.1839        15     1.083     0.910 -24.78   0
       132    561.6781    620.0364 300.1575927 +22.7371239     304.4039     72.23845      1.436     4.06     5.712591     20.39105     41.94497         9     0.931     0.696  17.73   0
       133    897.6262    616.8483 300.2633553 +22.8368012     356.2555     72.29369      1.807     4.31      5.48351     20.39105     34.65852         5     1.136     0.467  82.97   0
       134    944.4474    607.4136 300.2810272 +22.8481030     865.1558     72.27528      1.593     4.19     5.222267     20.39105     82.32861        20     1.234     1.113  65.70   0
       135    811.3563    605.3804 300.2401712 +22.8076801     476.3517     72.29369      1.630     4.52     5.502618     20.39105     52.63112        10     1.028     0.802  52.31   0
       136     16.4036    622.3663 299.9871819 +22.5743747     654.7745     72.27528      1.900     5.05     5.490896     20.39105     51.89081        10     1.348     0.560 -31.28   0
       137     41.2902    604.5222 300.0007099 +22.5767173     1639.281      72.4224      2.255     5.18     5.454372     20.39105     102.9735        33     1.553     1.448 -84.90   0
       138    489.7044    601.7728 300.1411063 +22.7103183     445.6778     72.20161      1.417     2.93      5.66707     20.39105     58.36015         9     0.872     0.720   6.04   0
       139    883.4505    599.9099 300.2644336 +22.8276890     1017.301     72.27528      2.647     8.68     5.550868     20.39105     65.58086        23     2.254     0.934  -3.94   0
       140    282.2019    600.8207 300.0768263 +22.6478712     288.1001     72.20161      1.363     3.51     4.852077     20.39105      33.9587         5     1.102     0.322  11.40   0
       141    638.7841    598.5707 300.1885862 +22.7540510     226.4755     72.27528      1.300     3.43     5.511647     20.39105     29.76821         5     0.797     0.428  21.70   0
       142    446.1288    593.6807 300.1301651 +22.6949400      657.575     72.38565      1.471     3.98     5.479856     20.39105     72.28366        13     1.219     0.729  79.64   0
       143    594.3649    592.5818 300.1766905 +22.7390275     507.5629     72.27528      1.454     3.15     5.626702     20.39105     55.91319         9     0.944     0.676  28.69   0
       144    641.7683    591.3795 300.1918511 +22.7528786     469.5294     72.27528      1.232     3.33     5.526801     20.39105     51.88354         5     0.753     0.433 -20.91   0
       145    612.0806    590.4316 300.1829082 +22.7437155     399.7219     72.27528      1.452     3.42     5.573575     20.39105      70.7815        11     1.101     0.741 -77.50   0
       146    490.8677    589.7384 300.1453760 +22.7072104     943.7836     72.33048      1.704     3.66     5.699024     20.39105     96.99416        16     1.338     0.861  44.92   0
       147    677.7178    589.4008 300.2036969 +22.7630754     177.8703     72.16474      1.088     3.49     5.477536     20.39105      32.2019         5     0.744     0.472 -13.31   0
       148    924.4908    585.3791 300.2819554 +22.8357955     3219.988     72.22003      1.713     3.47     5.345803     20.39105     268.8522        32     1.332     1.241  51.38   0
       149    456.1544    585.1087 300.1360698 +22.6954817     1691.018     72.25687      1.527     3.23      5.53856     20.39105     159.3813        22     1.139     1.071  18.33   0
       150   1022.3749    583.3426 300.3131634 +22.8645027     752.5478      63.1583      1.753     4.79     4.678577     20.39105     64.03238        16     1.357     0.807  45.82  24
       151    821.4601    582.9355 300.2506101 +22.8042537     324.1702     72.31209      1.447     3.23     5.463617     20.39105     48.10799         5     0.791     0.572  -6.75   0
       152     18.0681    578.4496 300.0019575 +22.5622737      4990.09     72.27528      1.879     3.77     5.769128     20.39105     495.0443        40     1.490     1.373  38.10   0
       153    963.8720    575.3349 300.2975048 +22.8446936     227.7118     72.31209      1.304     4.21     5.082859     20.39105     40.32375         5     1.099     0.460  -6.10   0
       154    319.5390    571.7283 300.0978892 +22.6507076       9247.2     72.31209      1.601     2.98     5.034356     20.39105     1052.697        44     1.368     1.230  42.64   0
       155    442.0022    568.8647 300.1369373 +22.6865768     9127.489     72.27528      1.519     2.98     5.445118     20.39105      920.653        43     1.270     1.247  27.01   0
       156    853.8176    563.1190 300.2671360 +22.8082434     1955.996     72.27528      1.657     3.39      5.45205     20.39105     153.8174        28     1.349     1.140  46.84   0
       157    938.4493    560.4241 300.2944131 +22.8327984     12739.03     72.27528      1.704     3.39     5.264089     20.39105     1119.195        55     1.407     1.368  75.62   0
       158    502.6294    558.4854 300.1591855 +22.7017568      11614.6     72.27528      1.509     2.82     5.784519     20.39105     1326.564        44     1.258     1.205  58.99   0
       159    672.2463    554.6770 300.2132655 +22.7514594     449.3587     72.27528      1.276     3.31     5.486943     20.39105      56.7129         9     1.044     0.624  -4.20   0
       160    230.1869    553.8161 300.0759049 +22.6187889     1419.173     72.22003      1.642     3.31     5.056636     20.39105     132.9712        21     1.211     1.063 -41.68   0
       161    476.9496    551.5816 300.1534298 +22.6920817     271.4529     72.27528      1.166     4.09     5.750753     20.39105     45.58667         7     0.988     0.484  -6.24   0
       162    434.2982    546.5979 300.1417673 +22.6778739     4350.237     72.18317      1.509     2.78     5.357402     20.39105     502.5781        33     1.268     1.101  54.32   0
       163    776.9905    546.5972 300.2485408 +22.7804969     685.7293     72.07249      1.460     3.66     5.307682     20.39105     89.67048        14     1.141     0.910  66.77   0
       164    412.6002    545.0739 300.1355070 +22.6709360      1187.41     72.14629      1.435     2.73     5.189872     20.39105      163.539        17     1.053     0.922  56.28   0
       165    166.9671    544.1384 300.0593840 +22.5970634     791.0052     72.29369      1.758     4.46      5.05407     20.39105     71.80585        15     1.293     0.850  20.59   0
       166    854.1712    542.3300 300.2739955 +22.8023730     1630.891     72.27528      1.682     3.23     5.375638     20.39105     152.3805        25     1.289     1.173 -66.19   0
       167    550.9513    534.2195 300.1821134 +22.7092589     206760.3     72.29369      1.494     2.85     5.800709     20.39105     21282.41       198     1.517     1.471  -8.60   0
       168    734.6989    539.2648 300.2377356 +22.7657288     879.6619     72.36726      1.577     3.52     5.262536     20.39105     111.2857        17     1.165     1.005 -75.27   0
       169    374.5949    540.3329 300.1252155 +22.6581886     195.7881     72.25687      1.286     4.82     5.178552     20.39105     43.64261         6     0.995     0.661  35.25   0
       170    236.8099    534.0328 300.0843869 +22.6150942      3577.34     72.27528      1.656     3.42      5.05016     20.39105     302.1408        35     1.405     1.235   6.06   0
       171    802.8632    530.5606 300.2618145 +22.7836323     581.6302     72.27528      1.575     4.03     5.314673     20.39105     50.29705         9     1.081     0.640  -7.81   0
       172    416.8230    530.2379 300.1416375 +22.6679401     255.1492     72.29369      1.625     4.34     5.193102     20.39105      29.6395         5     0.857     0.626 -45.39   0
       173    441.4941    514.6694 300.1543717 +22.6708588     2710.062     72.40403      1.588     2.87     5.391534     20.39105     286.7039        31     1.562     1.045  85.36   0
       174    285.8368    517.2009 300.1051027 +22.6249527     409.1234     72.27528      1.412     2.99     4.977042     20.39105     60.76569         8     0.918     0.585   3.31   0
       175    853.2726    511.0097 300.2838823 +22.7931000     532.2395     72.27528      1.679     5.05     5.368653     20.39105     44.95901         9     1.071     0.673 -46.15   0
       176    672.5585    509.6375 300.2279833 +22.7386100     166.2179     72.36726      1.212     3.45     5.361415     20.39105     26.51629         5     1.086     0.317 -68.41   0
       177    759.0365    503.5489 300.2569168 +22.7627490     407.2268     72.29369      1.610     3.75     5.248213     20.39105     37.93266         6     0.822     0.491   6.78   0
       178    838.5482    500.8404 300.2825906 +22.7857695     1637.626     72.27528      1.592     2.97     5.343738     20.39105     182.9115        23     1.170     1.077  -3.45   0
       179    725.0164    500.7762 300.2472106 +22.7517680     228.6985     72.27528      1.650     3.85     5.246277     20.39105     25.54782         5     1.274     0.334 -64.89   0
       180    709.7531    498.5085 300.2431887 +22.7465470     2621.463     72.27528      1.511     2.65     5.266656     20.39105     309.3248        27     1.188     1.088  17.90   0
       181    953.5529    495.9564 300.3200538 +22.8187808      541.059     72.31209      1.529     4.96     4.944432     20.39105     51.78207         9     1.027     0.684  62.72   3
       182    952.8154    491.9649 300.3211191 +22.8174123     870.0808     72.27528      1.750     6.31     4.928639     20.39105     79.25122        15     1.487     0.843  44.83   2
       183    918.8130    495.6247 300.3093217 +22.8082903     384.9762     72.27528      1.883     4.36     5.047952     20.39105     28.50254         5     1.165     0.466   7.15   0
       184    614.9427    494.9297 300.2148025 +22.7171326     524.2952     72.29369      1.538     4.48     5.526425     20.39105     55.00515         9     1.192     0.849 -66.63   0
       185    496.8208    494.0640 300.1782876 +22.6815111     737.1953     72.23845      1.439     4.85     5.694935     20.39105      74.3055        11     1.004     0.761  44.13   0
       186    967.2155    492.5685 300.3254169 +22.8218946     1155.748     72.25687      1.519     3.27     4.914699     20.39105     134.6283        20     1.190     1.023  -3.95   0
       187    838.9041    491.0239 300.2858878 +22.7830538     2290.994     72.16473      1.853     3.82      5.33954     20.39105     204.2619        29     1.498     1.149  79.39   0
       188    592.0842    489.3850 300.2094799 +22.7086948     820.9117     72.23845      1.857     3.18     5.597002     20.39105     66.07735        10     0.952     0.687 -55.60   0
       189    430.4043    487.8949 300.1596089 +22.6598464     392.0437     72.18317      1.296     4.68     5.288048     20.39105     63.86868         8     1.118     0.592   4.73   0
       190    877.0294    486.0450 300.2993957 +22.7930321     4277.325     72.31209      1.527     3.10      5.29813     20.39105     381.5825        30     1.243     1.151 -74.63   0
       191    378.6897    488.3591 300.1433594 +22.6444887     293.7062     72.27528      1.418     5.22     5.192754     20.39105     33.93848         8     0.999     0.770 -76.72   0
       192    614.1771    482.2655 300.2186741 +22.7132642     264.0834     72.25687      1.242     3.34      5.47043     20.39105     33.98868         6     0.878     0.612 -69.31   0
       193    968.7987    476.5409 300.3311129 +22.8177590      794.425     72.23845      1.640     3.59     4.883408     20.39105     82.46977        14     1.223     0.819  85.18   0
       194    109.0717    475.9259 300.0635208 +22.5601309     1072.301     72.33048      1.789     4.43     5.109303     20.39105      90.8001        16     1.228     1.017  26.23   0
       195    769.9688    469.9615 300.2712264 +22.7563664     349.5592     72.27528      1.418     3.24     5.250359     20.39105     40.80929         5     0.965     0.367  57.99   0
       196    101.2792    466.3119 300.0642179 +22.5550357     402.8513     72.40403      1.715     6.08     5.164956     20.39105     32.69704        10     1.127     0.922   8.83   0
       197    964.8477    465.7092 300.3333953 +22.8134618     310.6824     72.27528      1.428     3.44     4.895747     20.39105     37.78111         5     0.798     0.428  13.06   0
       198    709.3333    460.8032 300.2552949 +22.7355838     506.8663     72.25687      1.385     3.39     5.272122     20.39105      66.0481        12     1.086     0.785  47.48   0
       199    598.4730    457.8978 300.2216891 +22.7015597     355.0204     72.40403      1.452     5.02     5.522212     20.39105     32.10375         9     1.016     0.709  61.03   0
       200    318.1626    458.1703 300.1343186 +22.6176863     358.1284     72.29369      1.647     3.92     5.180065     20.39105     28.20418         5     0.954     0.462  45.21   0
       201    650.5899    456.3888 300.2384185 +22.7167295      731.613     72.16474      1.272     2.89      5.38886     20.39105     106.0097        14     0.996     0.857 -69.75   0
       202    965.0626    449.0833 300.3388580 +22.8087445     651.0071     72.36726      1.860     5.23     4.912779     20.39105     53.06669        13     1.231     0.871  60.91   0
       203    711.5406    448.7325 300.2599001 +22.7327749     860.2423     72.31209      1.591     3.24     5.289192     20.39105     99.29546        16     1.145     0.912  47.01   0
       204    868.5217    444.6732 300.3101684 +22.7785903     925.2781     72.38565      1.671     3.92     5.353175     20.39105     81.68462        17     1.122     1.093  30.58   0
       205    852.6586    441.5761 300.3062253 +22.7729528     618.4788     72.27528      1.633     3.34     5.365005     20.39105     58.68614        15     1.052     0.914 -31.74   0
       206    833.2031    441.5724 300.3001584 +22.7671297      378.304     72.23845      1.657     4.05      5.34966     20.39105     36.25537         5     1.125     0.417  14.75   0
       207    597.0197    439.1820 300.2273095 +22.6957461      3245.04     72.27528      1.405     2.74     5.513003     20.39105     366.5254        24     1.134     0.997  61.68   0
       208    957.4659    438.1720 300.3400282 +22.8033335     590.8234     72.25687      1.941     4.76     4.952135     20.39105     56.68322        11     1.167     0.882  60.33   0
       209    723.4828    436.3071 300.2676548 +22.7327779     2709.597     72.44077      0.754     1.11     5.283532     20.39105     1164.273         5     0.580     0.390  34.99   0
       210     73.3146    430.3873 300.0671809 +22.5363421     424.5773     72.22003      1.667     3.97     5.496702     20.39105     33.67817         6     0.974     0.463  87.32   0
       211    437.3874    425.8656 300.1819116 +22.6441189     466.4444     72.22003      1.641     4.31     5.672686     20.39105     39.62737         9     0.872     0.805  55.55   0
       212   1008.4394    418.3349 300.3623734 +22.8128768     1416.215     72.23845      1.817     3.21     4.720698     20.39105     141.6488        21     1.186     1.081  79.50   0
       213    880.3079    418.3296 300.3223932 +22.7745417     459.4408     72.40403      1.257     3.67      5.31138     20.39105     58.20336        10     0.940     0.798 -44.88   0
       214    966.7481    417.0661 300.3497734 +22.8000400     995.6993     72.31209      1.634     3.78     4.934296     20.39105     92.98347        17     1.141     1.056  39.02   0
       215    294.8086    415.0590 300.1410397 +22.5983085     11040.12     72.23845      0.519     1.04     5.390971     20.39105     7132.384        10     0.483     0.337   7.17   0
       216    707.6367    413.3300 300.2701705 +22.7214297     1053.062     72.25687      1.368     2.86     5.377279     20.39105     124.6733        15     0.962     0.914  21.97   0
       217    503.4503    413.4472 300.2065124 +22.6603343      373.419     72.31209      1.221     2.69     5.729802     20.39105     68.35491         7     0.784     0.678 -15.24   0
       218    211.5891    410.7607 300.1165446 +22.5721424     731.2245     72.27528      1.656     5.72     5.373687     20.39105     69.59861        14     1.443     0.875  50.45   0
       219     52.0072    409.8092 300.0672337 +22.5240491     236.4493     72.12785      1.272     4.35     5.711657     20.39105     32.27195         6     1.327     0.405 -73.40   0
       220    273.8894    406.8405 300.1371971 +22.5896814     3852.127     72.27528      1.573     3.02     5.461625     20.39105     395.8934        32     1.276     1.140  46.12   0
       221   1007.1481    405.7029 300.3660690 +22.8088569     4308.463     72.34888      1.639     3.27     4.786906     20.39105     393.4108        36     1.319     1.244  80.44   0
       222    221.1161    401.6314 300.1224697 +22.5723752     7606.126     72.27528      1.599     3.03     5.490112     20.39105     780.2607        44     1.366     1.270  46.68   0
       223    361.9705    395.8836 300.1681615 +22.6129183     4699.112     72.29369      1.452     2.97     5.582644     20.39105     489.7328        31     1.208     1.117  67.69   0
       224    606.2056    392.7480 300.2452372 +22.6851511     18614.81     72.25687      1.465     2.69     5.586151     20.39105     2146.509        53     1.293     1.184  68.38   0
       225    623.7303    392.7624 300.2506931 +22.6904014     980.2263     72.23845      2.133     6.08     5.569365     20.39105     61.69144        18     1.581     0.943 -46.56   0
       226    449.7174    392.5663 300.1965541 +22.6382444     271.0073     72.23845      1.675     3.39     5.746587     20.39105     33.87529         5     0.739     0.451  20.59   0
       227    987.1450    396.7535 300.3627295 +22.8002990     1897.249     72.31209      1.599     3.35     4.930019     20.39105     171.8312        27     1.315     1.141 -83.00   0
       228    849.4331    389.3175 300.3221753 +22.7569604     169.0302     72.23845      1.086     3.46     5.366392     20.39105     39.66392         5     0.759     0.455  71.11   0
       229    803.0339    383.4233 300.3096166 +22.7413816     454.4143     72.29369      1.508     3.71     5.366392     20.39105     50.76307         8     1.077     0.492   2.91   0
       230    940.1265    375.7449 300.3548724 +22.7801907     750.3873     72.27528      1.866     4.46     5.215326     20.39105      68.2812        14     1.152     0.957 -48.71   0
       231    476.9231    375.1796 300.2106658 +22.6413952     298.8013     72.27528      1.278     4.05     5.742964     20.39105     34.50645         6     0.817     0.647  -1.40   0
       232    160.9369    372.5255 300.1131946 +22.5459869     2095.985     72.31209      1.730     3.56       5.3501     20.39105     177.9193        29     1.400     1.148  59.44   0
       233    546.8872    362.2024 300.2366661 +22.6586137     6738.113     72.20161      1.431     2.75     5.744386     20.39105     735.2526        36     1.270     1.099  73.98   0
       234    960.4473    362.7618 300.3654253 +22.7825349     1259.026     72.31209      1.546     2.91     5.192359     20.39105      130.381        20     1.211     1.001  38.28   0
       235    261.8180    361.3901 300.1481851 +22.5730114     639.5203     72.23845      1.570     3.48     5.868625     20.39105     65.76352        12     1.120     0.763 -18.82   0
       236    119.7572    354.9379 300.1060945 +22.5285983     452.1599     72.27528      1.478     4.50     5.521855     20.39105     48.50907         8     0.895     0.642 -53.79   0
       237    807.3939    354.0074 300.3205187 +22.7342274     406.5818     72.12785      1.802     4.04     5.366392     20.39105     41.50217         5     1.057     0.442 -21.91   0
       238    751.2326    351.3270 300.3038761 +22.7166513     1230.221     72.27528      1.594     2.96      5.54537     20.39105     132.7817        18     1.141     0.929  87.00   0
       239    660.4837    352.4323 300.2752295 +22.6898099     425.9764     72.25687      1.235     3.23     5.663268     20.39105     55.66871         9     0.979     0.655   5.85   0
       240    453.5251    348.3452 300.2120843 +22.6266783     6252.464     72.31209      1.483     2.66     5.772597     20.39105     720.7669        39     1.277     1.163  71.03   0
       241    943.0346    343.3719 300.3662814 +22.7717486     449.7262     72.29369      1.264     3.07     5.290266     20.39105     65.06551         9     0.859     0.778  44.49   0
       242    845.4772    343.0229 300.3359593 +22.7424631     1336.948     72.25687      1.454     3.00     5.360085     20.39105     128.9205        18     1.063     1.029 -53.67   0
       243    437.9574    337.0626 300.2108965 +22.6187748     512.9439     72.27528      1.540     3.60     5.790725     20.39105      54.6389         8     0.913     0.737  63.70   0
       244    520.9895    335.1219 300.2373831 +22.6430774     507.5247     72.25687      1.410     4.38     5.691373     20.39105     45.03088         9     0.821     0.759 -42.49   0
       245    798.8480    333.4756 300.3245135 +22.7257660     312.4682     72.27528      1.230     3.64     5.360373     20.39105     33.05698         5     1.083     0.352  86.04   0
       246    818.0227    330.9727 300.3313051 +22.7307834      454.933     72.25687      1.308     3.22     5.352518     20.39105     61.92818         9     0.873     0.764  70.81   0
       247    711.8409    331.9391 300.2978842 +22.6992885      1109.43     72.25687      0.459     0.15     5.571321     20.39105     923.0748         5     0.384     0.281  26.41   0
       248    340.9947    327.4603 300.1838273 +22.5869797     2546.613     72.23845      1.546     2.93      5.93798     20.39105     298.7632        25     1.259     1.051  49.34   0
       249     59.4696    324.8395 300.0971137 +22.5018917     1149.787     72.23845      1.846     4.00     5.961042     20.39105      107.302        19     1.245     1.034 -57.67   0
       250    713.9998    323.3285 300.3013500 +22.6974588      2074.37      72.1463      0.544     0.88     5.553564     20.39105     1300.023         6     0.470     0.311 -88.55   0
       251    310.3647    316.9109 300.1777164 +22.5747756     29814.55     72.25687      1.546     3.00     5.940693     20.39105     3226.613        65     1.401     1.286  64.79   0
       252    845.1785    314.8692 300.3449976 +22.7342765     1490.612     72.27528      1.579     3.01     5.342427     20.39105     156.1123        19     1.087     1.015 -15.22   0
       253      6.5994    304.5779 300.0872518 +22.4802316     4855.484     72.20161      1.868     3.79      6.14715     20.39105     430.9057        41     1.487     1.391  50.01  16
       254    184.2272    302.9484 300.1430032 +22.5329833     529.7667     72.29369      1.749     4.11      5.81511     20.39105     58.94413        11     1.186     0.963  43.88   0
       255    760.5067    303.1980 300.3223778 +22.7055867     583.6244     72.18317      1.448     3.23     5.446261     20.39105     86.83401        10     0.961     0.893 -84.06   0
       256    409.1120    302.2714 300.2131991 +22.6001404     441.1174     72.44077      1.295     2.70     5.842767     20.39105     60.70238         8     0.780     0.669 -32.83   0
       257    720.8929    296.8575 300.3120837 +22.6919100     2020.299     72.33048      1.525     2.80     5.503741     20.39105     231.8653        24     1.242     1.014  64.56   0
       258    530.4065    291.9442 300.2543192 +22.6334865     629.9011     72.25687      0.722     2.61      5.52119     20.39105     369.7479         5     1.067     0.190   7.06   0
       259    936.0296    290.2167 300.3813356 +22.7543619     547.3462     72.27528      1.290     2.22     5.324332     20.39105     81.47437         8     0.785     0.612 -37.56   0
       260    382.6149    281.2367 300.2117715 +22.5861621     2142.088     72.27528      1.675     3.32     5.889307     20.39105     238.9957        25     1.408     1.025  64.72   0
       261    595.1730    280.4519 300.2782224 +22.6495692     397.3134     72.29369      1.337     3.50     5.521128     20.39105     41.92538         5     0.758     0.465  17.16   0
       262    821.6807    274.3994 300.3507931 +22.7156067     704.7743      72.1463      1.652     2.90     5.328633     20.39105     83.90767        13     0.982     0.906  73.75   0
       263    814.2426    275.4408 300.3481357 +22.7136811     297.7214     72.36726      1.193     3.41      5.32846     20.39105     38.64485         5     0.759     0.442  21.50   0
       264    703.6582    272.4471 300.3146269 +22.6797335     375.8383     72.33048      1.069     2.51     5.488972     20.39105     59.13914         7     0.863     0.486   8.58   0
       265    672.2002    271.4235 300.3051535 +22.6700257     391.2609     72.20161      1.462     2.92      5.49036     20.39105     39.91514         5     0.726     0.450  20.92   0
       266    458.5004    260.6938 300.2420583 +22.6029787      1208.36     72.45914      1.420     2.76     5.739334     20.39105     138.2007        19     1.156     0.921  70.26   0
       267    841.7073    254.3582 300.3635378 +22.7158330     338.7276     72.27528      1.369     3.40     5.332104     20.39105     40.85234         5     0.730     0.464 -12.41   0
       268    703.3721    252.7919 300.3209109 +22.6739958     2218.941     72.25687      1.467     2.70     5.488972     20.39105     252.1255        24     1.125     1.054  40.23   0
       269    964.7650    247.2706 300.4042286 +22.7505997       3273.7     72.29369      1.633     2.93     5.565332     20.39105     372.2587        32     1.305     1.247 -37.23   0
       270    412.0070    236.3717 300.2354679 +22.5820694     693.0071     72.27528      1.592     5.95      5.77609     20.39105     67.48183        13     1.400     0.878 -22.81   0
       271     86.7656    230.4320 300.1362093 +22.4829603      1452.07     72.29369      1.815     4.50     6.082529     20.39105     119.5305        27     1.500     1.155 -21.17   0
       272    117.1313    230.4233 300.1456529 +22.4920542     592.8095     72.27528      1.431     4.35     6.080425     20.39105     73.57691        10     1.280     0.548  17.29   0
       273    980.2366    227.9798 300.4153117 +22.7496755     273.8069     72.29369      1.456     4.81     5.770586     20.39105       39.139         8     1.029     0.681 -51.66   0
       274    824.1991    224.4642 300.3677693 +22.7019964     302.3974     72.27528      1.633     5.01     5.338218     20.39105     28.38662         7     1.485     0.478  -5.87   0
       275    170.6136    222.7992 300.1647554 +22.5058842     405.1853     72.10941      1.487     3.27     6.097592     20.39105     48.75292         9     0.875     0.754 -53.06   0
       276    965.7241    220.3311 300.4132622 +22.7431348     426.9898     72.34888      1.523     3.78     5.699048     20.39105     42.82025         5     0.845     0.485 -46.30   0
       277    846.3967    216.5007 300.3772745 +22.7063452     355.0349     72.16473      1.425     5.29     5.345856     20.39105     35.23661         9     1.076     0.736  25.69   0
       278    774.7426    214.3950 300.3556107 +22.6843057     599.5061     72.23845      1.335     2.61     5.430693     20.39105     72.69503        11     0.941     0.720  16.94   0
       279    365.6425    213.7588 300.2283655 +22.5616896     348.7178     72.36726      1.329     4.61     5.894409     20.39105     48.07151         7     1.047     0.634  45.29   0
       280    866.1753    207.7842 300.3862698 +22.7097534     372.5108     72.29369      1.416     3.38     5.357402     20.39105     34.41586         5     0.960     0.345  44.94   0
       281    873.2142    203.3171 300.3899137 +22.7105734     2233.498     72.25687      1.680     3.11     5.373383     20.39105     228.3991        25     1.170     1.143   3.12   0
       282    291.6521    200.3265 300.2096928 +22.5356758     2242.506     72.29369      1.618     2.91     5.928473     20.39105      250.804        26     1.250     1.115  64.93   0
       283    771.5785    195.0838 300.3608842 +22.6778044      569.313     72.23845      1.413     3.21     5.499188     20.39105     67.06237        12     1.007     0.830 -55.11   0
       284    369.6677    195.5387 300.2355246 +22.5576584     1086.659     72.33048      1.722     3.29     5.861187     20.39105     102.7598        19     1.146     1.046  23.80   0
       285    878.3573    192.2996 300.3950896 +22.7089417     322.8769     72.25687      1.953     5.67     5.390563     20.39105     34.11477         7     1.001     0.974 -27.45   0
       286    186.6261    187.8827 300.1810534 +22.5006495     801.6894     72.25687      1.574     3.24      6.13716     20.39105     85.60155        15     1.069     0.923  33.01   0
       287    304.9214    187.2349 300.2180653 +22.5358871     280.3011     72.22003      1.470     3.00     5.914614     20.39105     44.86697         5     0.812     0.463 -51.64   0
       288    789.2090    184.5231 300.3698051 +22.6800404     646.1382     72.23845      1.486     2.63     5.442153     20.39105     84.72315         9     0.924     0.669 -31.82   0
       289    724.3652    184.5108 300.3495912 +22.6606393     1629.075     72.25687      1.539     4.19     5.666454     20.39105     184.3848        19     1.227     0.986  54.90   0
       290    207.7984    180.7447 300.1899523 +22.5049395     595.1642     72.20161      1.574     3.55       6.1353     20.39105     61.10236        12     0.986     0.834  53.21   0
       291    995.8805    177.3636 300.4366029 +22.7397869     978.9342     72.22003      1.684     3.83     5.864096     20.39105      87.6401        19     1.217     1.138  75.83   0
       292    648.9055    175.5999 300.3289587 +22.6355003     1294.989     72.14629      1.522     3.04     5.516734     20.39105     152.2227        21     1.235     1.057 -52.81   0
       293    497.6339    177.2623 300.2812917 +22.5907103     312.3219     72.27528      1.241     2.89     5.382352     20.39105     53.67836         6     0.708     0.622  46.60   0
       294    728.1126    175.8436 300.3535688 +22.6592674     860.5916     72.27528      1.668     4.30      5.72344     20.39105     76.79723        12     1.193     0.751 -83.29   0
       295    470.1780    171.8809 300.2744855 +22.5809457     376.4926     72.23845      1.221     2.67      5.41562     20.39105     43.77821         6     0.738     0.558 -43.84   0
       296    844.2836    166.8187 300.3927202 +22.6914199     1575.791     72.22003      1.571     3.09     5.400299     20.39105     163.7075        24     1.378     1.089  56.95   0
       297    574.9734    167.0981 300.3086771 +22.6109333     962.0543     72.22003      1.503     3.27     5.401965     20.39105     106.0093        16     1.075     0.968 -72.72   0
       298    856.4218    166.0330 300.3967610 +22.6948240     897.5248     72.27528      1.720     3.35     5.401695     20.39105     89.53212        13     1.038     0.941 -35.48   0
       299    902.9544    165.0596 300.4115929 +22.7084598     251.5586     72.31209      1.287     4.76     5.435662     20.39105     38.51336         8     0.937     0.707  88.58   0
       300    866.7356    162.5498 300.4011073 +22.6969063     237.3627     72.33048      1.091     3.80     5.406869     20.39105     35.51292         5     0.989     0.420 -81.36   0
       301   1017.3474    156.9953 300.4499054 +22.7403428     1625.923     72.27528      1.604     3.32     5.970387     20.39105     177.5287        25     1.293     1.105 -48.22  16
       302    973.0625    156.4745 300.4362521 +22.7269526     1060.806     72.31209      1.502     3.16     5.729843     20.39105     124.0816        19     1.133     1.075  84.20   0
       303    207.0505    149.4083 300.1998755 +22.4957122     801.1103     72.27528      1.675     3.91     6.124988     20.39105     72.79379        15     1.144     1.005   0.62   0
       304     68.7862    143.7231 300.1587234 +22.4526703     2093.518     72.29369      1.755     4.03     6.111496     20.39105     178.5502        31     1.402     1.253  59.39   0
       305    892.1765    141.3144 300.4159263 +22.6984040     771.0548     72.22003      1.453     3.13     5.568077     20.39105      96.3694        14     1.036     0.897  39.73   0
       306     18.8364    140.9699 300.1440896 +22.4369175     458.3105     72.29369      1.451     3.81     6.029311     20.39105     55.42274        10     0.973     0.860 -38.63   0
       307    226.3730    137.1604 300.2098551 +22.4979789     5498.701     72.33048      1.612     2.97     6.086537     20.39105     581.9618        37     1.391     1.200  57.15   0
       308    207.8073    138.3905 300.2036813 +22.4927731      396.181     72.12785      1.650     3.83     6.106724     20.39105     38.01903         7     0.978     0.822  25.02   0
       309     10.4508    131.5586 300.1445331 +22.4317026       1177.7     72.27528      1.706     4.60      5.98519     20.39105     126.5742        22     1.372     1.117  59.98   0
       310    209.9142    128.4193 300.2075679 +22.4905389      617.136     72.20161      2.046     3.44     6.088935     20.39105     60.17394         9     0.939     0.737  29.92   0
       311   1023.6796    124.7792 300.4623231 +22.7329627     5223.559     56.13135      1.323     4.06     5.939335     20.39105     1098.913        23     1.620     0.558  88.18  24
       312    870.6113    119.0303 300.4164205 +22.6855428     3610.677     72.27528      1.585     2.99     5.714235     20.39105      345.529        33     1.325     1.171 -82.31   0
       313    974.3423    117.8522 300.4491685 +22.7162193     2814.079     72.33048      1.645     3.42     5.827412     20.39105      244.036        34     1.369     1.234  38.06   0
       314     36.7976    115.7472 300.1578451 +22.4350531      1055.44     72.25687      0.679     1.32     5.984138     20.39105     548.1874         6     0.617     0.404  44.35   0
       315    173.2350    115.0354 300.2004962 +22.4757100     446.7424     72.34888      1.600     4.28      6.10765     20.39105     31.37783         5     1.060     0.492 -51.10   0
       316    420.0136    113.6835 300.2777257 +22.5492009     782.3582     72.23845      1.702     5.21      5.81497     20.39105     71.84586        12     1.236     0.857 -85.99   0
       317    534.1841    111.7935 300.3138930 +22.5828249     349.1764     72.20161      1.372     3.35     5.615733     20.39105     45.08366         6     0.745     0.627  79.91   0
       318    110.5148    102.9539 300.1849069 +22.4534566     600.3084     72.25687      1.512     2.58     6.084969     20.39105     92.41588         8     0.867     0.728  59.76   0
       319    471.3498    101.2611 300.2977357 +22.5609934     1695.003     72.33048      1.516     2.74     5.863588     20.39105     180.7068        24     1.183     1.120 -64.05   0
       320    399.1269    102.1263 300.2749678 +22.5396269     479.9941     72.33048      1.398     2.20     5.890128     20.39105     73.51678         8     0.770     0.652 -42.25   0
       321      7.2014    102.0245 300.1530927 +22.4222465     342.3627     72.22003      1.925     3.95     5.876597     20.39105     30.13991         5     0.855     0.524 -40.17   0
       322    344.3932    105.7400 300.2567596 +22.5242826     811.6987     72.23845      2.035     5.99     5.978899     20.39105     65.07128        12     1.279     0.919 -70.23   0
       323    214.6074     96.6574 300.2193192 +22.4828174     359.2719     72.25687      1.565     4.23     6.033896     20.39105     40.71234         8     0.964     0.797  10.59   0
       324    760.0460     91.1758 300.3909636 +22.6444628     341.7621     72.29369      1.439     4.58     5.896985     20.39105     35.58079         7     0.920     0.813  -3.71   0
       325    607.2363     87.4147 300.3445514 +22.5976713     184.4449     72.27528      1.040     3.47     5.890276     20.39105     34.34379         5     0.739     0.470  14.88   0
       326    905.2040     85.5714 300.4380545 +22.6862575     365.9951     72.23845      1.501     4.14     5.891037     20.39105     41.02084         6     1.034     0.472  55.73   0
       327    650.3543     85.1254 300.3587298 +22.6099120      231.851     72.25687      1.218     4.16     5.843178     20.39105     38.49299         5     0.812     0.608  16.98   0
       328    245.3986     81.0013 300.2339703 +22.4875371     6146.732     72.05402      1.634     3.10     6.022963     20.39105     602.7423        43     1.405     1.265  80.12   0
       329    751.9606     82.0014 300.3914152 +22.6394051     386.0718     72.29369      1.766     5.02      5.91861     20.39105     33.53683         7     0.937     0.760 -76.86   0
       330     96.5559     80.7834 300.1877498 +22.4429068      780.545     72.29369      1.610     3.66     6.014258     20.39105     72.23935        11     1.052     0.719 -12.60   2
       331    874.5767     78.6932 300.4307279 +22.6751206      302.773     72.20161      1.422     4.05     5.898489     20.39105     37.06982         5     1.082     0.598  55.56   0
       332    216.5208     74.3626 300.2271375 +22.4769835     309.6273     72.23845      1.906     5.08     6.031586     20.39105     35.03276         5     1.098     0.665  30.21   0
       333    720.8437     72.3178 300.3848512 +22.6273124      316.229     72.23845      1.674     3.21      5.90883     20.39105     42.71517         5     0.927     0.351  47.78   0
       334    491.5208     66.4699 300.3152897 +22.5570257       6476.3     72.38565      1.588     2.84      5.94698     20.39105     725.7333        40     1.337     1.204 -89.63   0
       335    376.8554     66.3479 300.2796266 +22.5226756     583.3904     72.31209      1.328     2.76     6.014491     20.39105     70.45264        12     0.917     0.831 -16.98   0
       336    548.3359     61.5307 300.3345866 +22.5726050     268.5067     72.33048      1.274     3.47     5.809353     20.39105     45.00417         5     0.752     0.463 -18.42   0
       337    685.2969     57.9543 300.3784238 +22.6125481      222.857     72.29369      1.474     3.72       5.7874     20.39105     34.68082         5     0.813     0.489 -33.50   0
       338    743.9630     56.4842 300.3971888 +22.6296715     948.9379     72.25687      1.899     3.87     5.980075     20.39105      94.1763        15     1.201     0.909 -68.72   0
       339    836.6478     55.5043 300.4264096 +22.6571062     393.2044     72.31209      1.230     3.34     5.920408     20.39105     49.80127         7     0.953     0.488   7.65   0
       340     55.7664     53.4141 300.1839355 +22.4228284     331.9111     72.25687      2.368     3.46     5.822792     20.39105     24.47249         5     0.779     0.445 -19.28   0
       341    184.5634     50.1649 300.2250361 +22.4604617     527.9307     72.34888      1.755     3.00      6.06854     20.39105     68.95705         8     0.902     0.779  89.11   0
       342    543.1711     49.1605 300.3369851 +22.5675022     425.2779     72.29369      1.223     3.01     5.854486     20.39105     56.81638        10     0.893     0.755  13.69   0
       343    619.8478     46.6183 300.3616984 +22.5897098     6324.817     72.31209      1.560     3.04     5.869065     20.39105     746.7998        38     1.329     1.178  83.90   0
       344    394.6917     45.5941 300.2919022 +22.5220471     1538.565     72.18317      1.575     2.90     6.050269     20.39105     173.2119        19     1.073     1.057  42.40   0
       345    660.9120     43.9411 300.3753630 +22.6012231     922.7368     72.34888      1.541     4.38     5.741775     20.39105      95.0146        16     1.227     0.956  60.19   0
       346    730.7561     42.3279 300.3976573 +22.6216487     385.1044     72.25687      1.296     3.30     5.991219     20.39105     41.72291         5     0.751     0.439 -15.88   0
       347    677.1369     40.5003 300.3815347 +22.6050862     708.3865     72.36726      1.531     2.87     5.717288     20.39105     64.88624         8     0.748     0.705 -23.93   0
       348    947.0178     38.3463 300.4664016 +22.6851654     435.0109     72.25687      1.332     3.25     5.959594     20.39105     52.04165         7     0.761     0.619  10.65   0
       349    143.6690     38.0175 300.2162528 +22.4447269     709.7594     72.29369      1.713     3.56     6.035441     20.39105     59.04761        12     0.964     0.882   3.42   0
       350    715.5858     35.5320 300.3951293 +22.6151563     534.7626     72.29369      1.230     3.50     5.919871     20.39105     81.79519         9     1.182     0.723 -43.74   0
       351    664.1730     31.5370 300.3803975 +22.5986300     2777.044     72.27528      1.619     2.81     5.705436     20.39105     311.4418        32     1.309     1.193 -85.52   0
       352    304.4484     32.5293 300.2680459 +22.4912817     426.9457     72.25687      1.650     4.09     6.103453     20.39105     46.68819        10     1.082     0.747  49.82   0
       353    679.1124     30.4022 300.3854215 +22.6027719     763.8657     72.20161      1.692     5.03     5.703455     20.39105     89.08035        13     1.455     0.788  42.59   0
       354    750.5882     23.0993 300.4100694 +22.6220469     1455.793     72.18317      1.467     3.06     6.036838     20.39105     168.8687        21     1.179     1.023  88.53   0
       355    688.6091     16.6296 300.3928429 +22.6016498     838.8129     72.27528      1.751     3.12     5.744711     20.39105     85.64379        15     1.040     0.919 -17.68   0
       356    308.5918   1018.8148 299.9492017 +22.7757256     647.0878     72.18317      3.810     4.97     5.834219     20.39105     33.75185         5     1.431     0.489 -87.79  17
       357     67.1115     15.6516 300.1996937 +22.4153766     570.3199     72.29369      1.646     3.73     5.721864     20.39105     57.67928         6     1.000     0.534 -50.73   0
       358    293.9819   1011.9982 299.9468732 +22.7693885     1318.917     72.18317      2.682     5.06     6.051733     20.39105     86.53374        25     1.590     1.164  87.79   2
       359    291.0000   1012.5694 299.9457598 +22.7686579     362.4517     72.22003      1.484     3.89     6.111746     20.39105     43.26421         5     1.504     0.289  90.00   3
       360    128.1615   1006.8595 299.8969741 +22.7181706     1475.959     72.29369      3.351    12.80     88.84988     20.39105     51.71197        32     3.224     1.414 -36.24  18
       361    353.7039    998.4074 299.9698764 +22.7834019     319.1544     72.16474      1.444     5.22     4.973294     20.39105     27.45035         7     0.986     0.782 -42.92   0
       362    196.3029   1003.3156 299.9193142 +22.7375979     1443.297     72.44077      3.052     9.53     86.21207     20.39105     42.74791        22     2.378     1.065  55.24   2
