#   1 NUMBER                 Running object number                                     
#   2 X_IMAGE                Object position along x                                    [pixel]
#   3 Y_IMAGE                Object position along y                                    [pixel]
#   4 ALPHA_J2000            Right ascension of barycenter (J2000)                      [deg]
#   5 DELTA_J2000            Declination of barycenter (J2000)                          [deg]
#   6 FLUX_APER              Flux vector within fixed circular aperture(s)              [count]
#   7 FLUXERR_APER           RMS error vector for aperture flux(es)                     [count]
#   8 FLUX_RADIUS            Fraction-of-light radii                                    [pixel]
#   9 FWHM_IMAGE             FWHM assuming a gaussian core                              [pixel]
#  10 BACKGROUND             Background at centroid position                            [count]
#  11 THRESHOLD              Detection threshold above background                       [count]
#  12 FLUX_MAX               Peak flux above background                                 [count]
#  13 ISOAREA_IMAGE          Isophotal area above Analysis threshold                    [pixel**2]
#  14 A_IMAGE                Profile RMS along major axis                               [pixel]
#  15 B_IMAGE                Profile RMS along minor axis                               [pixel]
#  16 THETA_IMAGE            Position angle (CCW/x)                                     [deg]
#  17 FLAGS                  Extraction flags                                          
         1    678.7444     13.6519 300.4277880 +22.5850480     397.5533     72.74134      1.941     3.38     4.668778     20.51209     54.65427         6     0.904     0.557 -60.62   0
         2    251.1951      8.1577 300.2965186 +22.4554116     303.4447     72.72282      1.007     3.83       5.3065     20.51209     44.33412         6     0.769     0.547  61.93   0
         3    883.7814     11.8183 300.4922761 +22.6458935     278.1976     72.70431      1.021     1.94     4.944118     20.51209     79.90625         7     0.770     0.567 -63.58   0
         4    117.3888      2.7455 300.2566840 +22.4137584     1049.912     64.01878      1.314     2.45     5.050718     20.51209     141.5591        15     0.986     0.895  16.98  24
         5    180.1774   1018.8942 299.9461103 +22.7240983     529.7089     72.61166      2.742     4.47     12.47332     20.51209     32.25444         5     1.486     0.382  89.48  16
         6    701.5947   1022.3524 300.1071973 +22.8816001     318.7621     63.53321      1.706     3.44     2.916411     20.51209     31.96946         5     1.006     0.340  68.02  24
         7    523.9459   1023.8466 300.0514025 +22.8287231     373.7877      55.4783      1.117     3.41     2.984138     20.51209     93.26312         7     1.147     0.353   3.71  24
         8    191.9822   1023.6446 299.9482322 +22.7290047     542.0931      56.7025      3.203     4.56     11.25393     20.51209     27.68023         6     1.288     0.458   6.68  25
         9    127.4698   1021.9619 299.9287351 +22.7091473     999.7592     65.41268      8.074    11.41     16.16665     20.51209     37.36542        23     2.544     1.425 -36.59  24
        10    116.0861   1023.4691 299.9247080 +22.7061600     862.4163     57.78443      3.577     3.53     16.59389     20.51209      36.7613         5     1.135     0.317 -21.07  26
        11    109.7686   1021.7485 299.9233056 +22.7037695     1207.283     66.35275      7.836     9.36      16.6526     20.51209     39.41494        16     1.882     1.299 -40.48  26
        12     67.2118   1020.5298 299.9104834 +22.6906375     3328.109     70.73313     20.719    46.91     17.22126     20.51209     73.46606       478    13.818     4.419 -21.19  27
        13     41.1008   1018.3029 299.9030991 +22.6821559      5273.25     72.90773     17.402    52.46      17.0758     20.51209     104.6035       745    15.646     4.882 -17.85  27
        14    718.9479   1007.0940 300.1175699 +22.8824286     310.3043     72.77835      1.371     3.81     2.941273     20.51209     28.57752         5     1.246     0.334  63.82   0
        15    381.0560   1006.8782 300.0124710 +22.7809690     525.4254     72.74134      1.487     5.05     3.051745     20.51209      51.7942        12     1.192     0.861   7.80   0
        16    894.8981    998.3861 300.1752313 +22.9327025     2130.803     72.59312      1.633     3.42     2.995975     20.51209     175.5328        24     1.225     1.119 -21.27   0
        17    545.0525    995.6354 300.0671553 +22.8269668     336.9401     72.72282      1.321     4.40     3.072664     20.51209     43.38018         7     0.961     0.586  51.55   0
        18    393.4366    994.6105 300.0203151 +22.7811683     255.4406     72.68579      1.378     5.13     3.168718     20.51209     44.54636         8     1.286     0.578 -73.00   0
        19    577.4954    992.4426 300.0782931 +22.8357864     305.8036     72.72283      1.357     4.19     3.017108     20.51209     49.41403         6     0.991     0.516 -32.53   0
        20    683.5683    987.1975 300.1130276 +22.8661068     795.8292     72.66727      1.773     4.50     3.082776     20.51209     94.25715        20     1.532     0.937  61.62   0
        21   1010.4020    986.5135 300.2151108 +22.9639263     530.5173      72.6302      1.787     5.47     3.087875     20.51209     45.16017         9     1.015     0.832  54.59   0
        22    496.1965    982.7485 300.0561456 +22.8086095     499.7469     72.70431      1.585     3.87     3.123023     20.51209     50.12062         6     0.744     0.639  13.44   0
        23    718.5509    981.4812 300.1257840 +22.8749610     1052.658     72.74134      1.425     3.00     3.056125     20.51209       104.87        14     0.995     0.863  45.30   0
        24     41.7464   1002.3613 299.9084886 +22.6777830     4185.765     72.70432     15.589    62.59     14.83738     20.51209     95.59232       911    13.999     7.764 -27.50  27
        25    740.7764    975.2322 300.1347413 +22.8798348     11524.66     72.70431      1.502     2.80     3.071993     20.51209     1211.836        49     1.270     1.229 -22.83   0
        26    931.8923    974.6174 300.1945018 +22.9369730     468.4754      72.6302      1.657     3.61     3.179227     20.51209     55.11159         9     0.968     0.743  26.32   0
        27    786.5051    974.9388 300.1490834 +22.8934665     574.8076     72.79684      1.383     3.36     3.199017     20.51209     56.64365        12     0.993     0.886  -2.15   0
        28    873.7287    968.6642 300.1783079 +22.9178237     296.1202     72.74134      1.419     6.27     3.194655     20.51209     40.93319         9     1.438     0.868 -65.23   0
        29     52.2757    967.0800 299.9232417 +22.6708379      683.113     72.81534      1.628     3.32      10.0591     20.51209     80.73138        11     0.995     0.832  18.09   0
        30    792.6194    962.8616 300.1549196 +22.8918345     475.7233     72.68579      1.599     5.20     3.237392     20.51209     49.54216        12     1.238     0.716  36.42   0
        31    446.2175    962.8659 300.0470664 +22.7879084     445.0264     72.68579      1.849     5.31     3.325968     20.51209     40.08587         9     1.115     0.714 -81.79   0
        32    932.4022    956.2932 300.2006254 +22.9318657     373.4028     72.61166      1.406     5.95     3.306941     20.51209      42.7724        10     1.268     0.784 -67.55   0
        33    749.4332    957.3774 300.1432497 +22.8773081     1306.631     72.70432      1.391     3.01     3.170234     20.51209     144.2307        18     1.030     1.010  36.89   0
        34    464.8184    955.3926 300.0552859 +22.7913477     278.8662     72.66727      1.256     2.38     3.305023     20.51209     38.30515         5     0.702     0.458 -18.61   0
        35    601.5447    954.1668 300.0982384 +22.8320232     541.1725     72.72282      1.982     3.79     3.045439     20.51209     46.91742         6     0.828     0.498 -88.19   0
        36    787.4024    950.8711 300.1571969 +22.8868288     850.3725     72.64874      1.521     3.23      3.25053     20.51209     77.66221        13     1.038     0.833 -15.78   0
        37    895.8647    948.1247 300.1918935 +22.9185657     411.8942     72.75985      1.294     4.15     3.356233     20.51209     49.22853         8     0.834     0.671  16.72   0
        38    835.8083    941.9337 300.1751897 +22.8987804      537.228     72.70431      1.407     3.69     3.344053     20.51209     60.83294        10     0.923     0.772  23.11   0
        39    687.3170    940.7465 300.1293143 +22.8539043     711.2328     72.74134      1.405     2.82     3.242875     20.51209     76.69888        13     0.926     0.875  24.57   0
        40    399.8185    937.5520 300.0408711 +22.7667238     4149.873     72.74134      1.433     2.79     3.556453     20.51209     446.9782        29     1.168     1.073  37.98   0
        41    698.6472    938.0980 300.1337051 +22.8565429     522.2357     72.74134      1.270     3.27     3.250785     20.51209     64.02335         9     0.933     0.656  44.05   0
        42    178.5166    926.2516 299.9757460 +22.6970496      309.365     72.74134      1.377     3.44     5.548893     20.51209      51.2138         7     0.974     0.610  63.51   0
        43     62.6278    926.1898 299.9397633 +22.6622310     274.7852     72.70431      1.682     4.30     5.126482     20.51209     36.83038         6     1.502     0.351  44.45   0
        44    443.0219    925.1414 300.0583495 +22.7761311     230.9266     72.70431      1.094     3.59     3.520635     20.51209     44.21814         5     0.979     0.379  58.56   0
        45     42.4372    924.8303 299.9339350 +22.6557775     177.4778     72.72282      1.023     3.23      4.63025     20.51209     34.83281         5     0.736     0.453 -69.58   0
        46    124.9659    923.3320 299.9600573 +22.6801328     693.9474     72.70431      1.448     3.18     5.839299     20.51209      74.4819        12     0.953     0.836 -57.50   0
        47    102.1319    920.3234 299.9539427 +22.6724136      1555.93     72.79684      1.523     3.06     5.763749     20.51209     181.5836        22     1.170     1.090  83.35   0
        48    659.4511   1009.2049 300.0983529 +22.8651848      267.011     72.68579      1.341     3.46     3.004292     20.51209     33.73621         5     0.797     0.433  68.52   0
        49    604.1041    918.2012 300.1107401 +22.8224734     529.7028     72.61166      0.597    -3.41     3.140257     20.51209     287.0323         5     0.523     0.360  27.75   0
        50    973.8304    909.0878 300.2289066 +22.9307333     2129.688     72.68579      1.521     3.01     3.475968     20.51209     200.0226        23     1.103     1.084  15.49   0
        51    633.7922    907.0414 300.1236150 +22.8281778     510.8673     72.72282      1.669     4.13     3.250739     20.51209     42.82893         6     0.783     0.621  49.76   2
        52    928.0883    907.4212 300.2151863 +22.9165421     2159.919      72.6302      1.514     2.89      3.53842     20.51209     210.0866        25     1.189     1.082 -65.22   0
        53    404.0924    907.3342 300.0520338 +22.7593413     220.0916     72.83382      1.169     3.67     3.619382     20.51209     43.93589         5     0.826     0.470  49.37   0
        54    711.3867    901.4816 300.1495891 +22.8498570     526.2432     72.68579      1.261     2.97     3.408409     20.51209     69.77439        12     0.982     0.822  14.96   0
        55    134.2803    901.9206 299.9699180 +22.6767934      301.091     72.83382      1.308     3.19     5.310451     20.51209      44.9785         7     0.849     0.571  63.85   0
        56    579.8046    895.6060 300.1105278 +22.8087013      4786.71     72.55601      1.311     2.35     3.264106     20.51209     643.4177        30     1.090     1.049 -50.51   0
        57     69.5696    896.3135 299.9516403 +22.6557545     336.1631     72.70432      1.437     4.96      4.76722     20.51209     46.48545         7     0.933     0.745 -46.48   0
        58    381.9480    892.7346 300.0498963 +22.7485087     635.2426     72.74134      1.418     3.40     3.634714     20.51209     93.01045        14     1.097     0.932  58.01   0
        59    129.8341    889.6304 299.9725353 +22.6719359     1432.701     72.72282      1.540     3.23     5.008252     20.51209     157.3971        20     1.118     1.055  -6.21   0
        60    600.2774    888.0583 300.1193572 +22.8126776     745.3964     72.74134      1.307     3.17     3.273302     20.51209     101.0371        13     1.007     0.869 -24.18   0
        61    149.2996    886.6286 299.9795598 +22.6769202     308.7267     72.61166      1.508     2.97     4.932702     20.51209     50.40389         6     0.723     0.637  60.52   0
        62    516.9581    878.8217 300.0964276 +22.7850314     291.2769     72.74134      1.258     3.37     3.436458     20.51209     42.15591         8     0.827     0.734  -8.40   0
        63    972.8839    875.4329 300.2395630 +22.9207860     1073.068     72.66727      1.423     3.05     3.560161     20.51209     111.0771        20     1.122     1.019  46.62   0
        64    755.8206    875.2128 300.1719783 +22.8556441     4150.656     72.66727      1.323     2.39     3.561498     20.51209     550.2797        28     1.111     1.026  78.35   0
        65   1010.7292    875.4380 300.2513639 +22.9321311     329.0042     72.68579      1.267     5.02     3.522667     20.51209     42.50373         7     1.443     0.495   1.32   0
        66    164.5342    869.4158 299.9898934 +22.6765605       460.42     72.68579      1.264     3.41     4.477326     20.51209     62.61207         8     0.924     0.717  61.22   0
        67    472.7975    867.6633 300.0863160 +22.7685807     713.9998     72.70431      1.532     3.22     3.604731     20.51209     89.56218        13     1.050     0.806 -76.52   0
        68    119.0603    865.9985 299.9768764 +22.6619277      956.692     72.66727      1.474     3.18     4.403854     20.51209     108.1698        18     1.132     0.948  32.36   0
        69    268.8138    858.0345 300.0260065 +22.7046024     53556.27     72.70431      1.426     2.59     4.154183     20.51209     6872.764        93     1.341     1.296  48.14   0
        70    534.2744    861.0161 300.1076100 +22.7851187     523.2796     72.70431      1.350     2.65     3.418448     20.51209     61.01268        10     0.853     0.735   6.41   0
        71    526.6748    856.8330 300.1066057 +22.7816387     1646.291     72.70431      1.344     2.55     3.453322     20.51209     214.6913        17     1.001     0.895 -83.48   0
        72    939.6298    856.0981 300.2354849 +22.9052662     806.0715     72.64874      1.343     2.99     3.630634     20.51209     119.1793        16     1.165     0.819 -24.13   0
        73    197.2212    856.2383 300.0043380 +22.6825964     452.1587     72.72282      1.468     5.09     4.370803     20.51209     51.53899         9     0.943     0.796  42.69   0
        74    555.5695    852.9785 300.1168531 +22.7892013      877.031     72.70431      1.231     2.12      3.39459     20.51209     144.5442        12     0.840     0.796   3.27   0
        75    566.5295    851.2372 300.1208312 +22.7919895     580.4608     72.66727      1.100     2.13     3.399115     20.51209     100.0041         8     0.784     0.623  36.27   0
        76    671.8201    847.7411 300.1547514 +22.8225682     491.3935     72.64874      1.496     3.47     3.505283     20.51209     59.81365        10     1.059     0.712  57.92   0
        77    466.9607    844.7029 300.0919695 +22.7602433     378.0727     72.68579      1.393     3.28     3.637963     20.51209     35.91888         7     0.712     0.693  36.16   0
        78    709.6416    838.0208 300.1696933 +22.8311213     740.8966     72.74134      1.260     2.68     3.641419     20.51209     106.8303        12     0.966     0.766 -55.50   0
        79    318.5218    835.2296 300.0488797 +22.7129828     31304.83     72.70432      1.359     2.39     3.703457     20.51209     4132.808        72     1.255     1.227  63.79   0
        80    332.9093    835.6985 300.0532011 +22.7174352     1935.818     72.88926      1.296     2.30     3.685729     20.51209     287.5814        20     1.020     0.953  32.38   0
        81    841.6644    831.0342 300.2131006 +22.8687020     2870.069     72.70431      1.335     2.44      3.88803     20.51209     379.6581        24     1.081     0.996 -79.19   0
        82    329.7667    829.6522 300.0541906 +22.7147582     675.9419     72.72282      1.757     3.05     3.659957     20.51209     70.50683         9     0.915     0.810 -25.24   0
        83    871.1970    829.3942 300.2228389 +22.8770848     228.2246     72.51889      1.265     3.35      3.89308     20.51209     33.07944         5     0.758     0.430  21.86   0
        84    599.7069    827.1142 300.1390070 +22.7950201     1024.895     72.88926      1.395     2.36     3.451246     20.51209     124.9743        12     0.888     0.770  26.98   0
        85    200.9382    827.0361 300.0149923 +22.6753403     823.8811     72.72282      1.434     3.95     4.245779     20.51209     94.92029        15     1.163     0.938 -41.34   0
        86    435.8414    827.3295 300.0879390 +22.7459227     466.8511     72.66727      1.252     2.19     3.631546     20.51209     72.88675         7     0.778     0.574  28.16   0
        87    446.6251    822.0772 300.0930024 +22.7476517     794.7557     72.72282      1.209     2.40     3.644657     20.51209     137.4879        11     0.894     0.766  39.86   0
        88      5.5748    822.4507 299.9557939 +22.6153698     540.2877     72.72283      1.555     4.97     3.923236     20.51209     54.94843        11     1.114     0.947  45.77  16
        89    848.1218    818.5697 300.2191680 +22.8670594     398.5883     72.68579      1.224     3.14     3.963303     20.51209     57.86402         9     0.834     0.769 -34.44   0
        90    594.8380    818.9973 300.1401316 +22.7912305     240.0592     72.74134      1.297     3.91     3.468816     20.51209     36.15302         7     0.869     0.653 -34.56   0
        91    348.8987    818.3233 300.0638252 +22.7172507     293.2058     72.85231      1.239     2.96     3.626047     20.51209      63.8024         9     0.939     0.656  52.10   0
        92    392.3954    817.1511 300.0777348 +22.7299670     468.5146     72.68579      1.330     3.19     3.621177     20.51209     62.80204        10     0.937     0.719 -55.76   0
        93    304.2405    817.3824 300.0502444 +22.7035787     351.5113     72.72282      1.411     3.41     3.549089     20.51209     37.66908         6     0.709     0.651 -55.27   0
        94     34.1155    816.4102 299.9666215 +22.6222091     535.6548     72.66727      1.455     3.04     4.025539     20.51209     60.36745        11     0.956     0.755 -73.41   0
        95    601.1953    815.9750 300.1430939 +22.7922701     167.3304     72.66727      0.971     1.96     3.475019     20.51209      57.2258         5     0.730     0.461  30.68   0
        96    825.1594    813.4420 300.2136797 +22.8587032     406.8139     72.79684      1.353     2.46     3.992939     20.51209     59.09655         8     0.774     0.676 -89.70   0
        97    198.8610    811.3938 300.0194345 +22.6702322     476.0871     72.66727      1.345     2.72     4.174932     20.51209       72.664         9     0.920     0.723   6.64   0
        98    521.6581    801.5453 300.1230291 +22.7642719     514.0548     72.75985      1.081     2.85     3.580877     20.51209     78.19971         7     0.823     0.627  52.67   0
        99    491.4572    800.0536 300.1141156 +22.7547840     563.8975     72.75985      1.293     2.43     3.681966     20.51209     101.4513        11     0.869     0.791 -31.77   0
       100    511.9018    796.5450 300.1216191 +22.7599105     3670.193     72.79684      1.261     0.96     3.628646     20.51209     2218.532        18     1.494     0.572  33.01   0
       101    400.7233    799.0633 300.0862084 +22.7272777     333.0653     72.77835      1.357     2.21     3.621181     20.51209     57.52497         7     0.728     0.607  72.76   0
       102    907.9855    796.1829 300.2451104 +22.8785764     4408.431     72.64874      1.343     2.53     3.869398     20.51209     538.8626        28     1.109     1.020  73.07   0
       103    433.1906    797.1097 300.0969438 +22.7364588      366.757      72.6302      1.208     2.38     3.649641     20.51209       61.174         8     0.776     0.649 -41.44   0
       104    594.9827    792.0633 300.1489374 +22.7835450     372.8271     72.68579      1.193     3.26     3.518544     20.51209     70.70296         8     0.979     0.812  89.08   0
       105    896.4625    787.5533 300.2443251 +22.8726445     1572.995     72.72283      1.227     2.22     3.950993     20.51209      219.333        16     0.914     0.897  52.55   0
       106    275.4987    782.5131 300.0526492 +22.6849534     306.5714     72.87079      1.717     3.80     3.525446     20.51209     29.07352         6     1.024     0.404  71.73   0
       107    259.3003    781.8234 300.0478378 +22.6798942      840.994     72.64874      1.402     2.86     3.711047     20.51209     118.7589        13     1.008     0.809 -25.05   0
       108    723.1253    778.9344 300.1931130 +22.8182049     2624.875     72.75985      1.411     2.50     3.910364     20.51209     379.1593        31     1.455     1.093  -3.52   0
       109    927.6355    777.6758 300.2572562 +22.8791513     1552.152     72.66727      1.309     2.47      3.89267     20.51209     196.8493        19     0.991     0.980  25.75   0
       110    941.4357    768.1432 300.2646594 +22.8805497     281.3963     72.72282      1.240     3.39     3.965232     20.51209     35.51211         5     0.747     0.445  68.70   0
       111    805.2733    764.6360 300.2233572 +22.8387290     580.0463     72.64874      1.471     4.79     4.070311     20.51209     68.72955        12     1.220     0.882  60.11   0
       112    108.0768    765.8643 300.0060327 +22.6299268     549.0509     72.79684      1.346     3.71     4.198106     20.51209     66.95386        11     1.030     0.702  -3.10   0
       113    841.2356    755.8599 300.2374186 +22.8469895     146681.7     72.72282      1.282     2.20     4.070311     20.51209     22625.29       149     1.325     1.246  81.51   0
       114    603.2599    759.9831 300.1619477 +22.7768211     429.8002     72.66727      1.369     3.58     3.535536     20.51209     65.18711         7     1.012     0.616 -34.32   0
       115    988.0464    757.6531 300.2826059 +22.8915052     1103.655     72.74134      1.299     2.25     4.094355     20.51209     170.4118        13     0.857     0.836  36.77   0
       116    693.8389    756.1218 300.1914099 +22.8028752     769.0677     72.68579      1.182     2.17     3.937256     20.51209     119.4711         9     0.748     0.707 -74.36   0
       117    873.9695    748.5604 300.2499952 +22.8547051     413.7623     72.70431      1.121     2.16     4.071798     20.51209     74.93699         8     0.750     0.659 -78.14   0
       118    527.5304    744.7648 300.1433229 +22.7497410     1606.745     72.70432      1.165     2.03     3.786837     20.51209     269.9868        17     0.946     0.827  42.66   0
       119    708.7253    742.0846 300.2006115 +22.8033091     9238.671     72.81534      1.212     2.05     4.036375     20.51209     1512.195        36     1.052     1.011  75.96   0
       120    210.1786    737.3563 300.0470289 +22.6524002     4866.056     72.75985      1.320     2.36     4.073617     20.51209     580.6064        31     1.112     1.055  61.97   0
       121    292.3174    735.5022 300.0731654 +22.6765182     1163.083     72.87079      1.195     2.27     3.499379     20.51209     149.5257        15     0.920     0.838  34.33   0
       122    167.7916    732.7825 300.0353432 +22.6383668     434.4743     72.64874      1.317     2.36      4.18024     20.51209     97.01121        10     0.867     0.769  31.17   0
       123    500.5045    730.8728 300.1394291 +22.7376485     698.1196     72.83382      1.054     1.90     3.922561     20.51209     133.5565        11     0.867     0.692  55.42   0
       124    492.1676    722.9598 300.1394077 +22.7328772     3009.945     72.75985      1.213     2.08     3.998335     20.51209     521.9445        22     0.984     0.891  66.93   0
       125    482.4413    716.7161 300.1384111 +22.7281682     1481.161     72.66727      1.152     2.07     4.054818     20.51209     232.0291        14     0.870     0.817  41.77   0
       126    411.0201    716.1027 300.1163894 +22.7065680     317.6121      72.6302      1.153     3.48     3.908273     20.51209      47.0811         7     0.830     0.685  51.96   0
       127    876.3558    714.1671 300.2619232 +22.8455433     493.9658     72.74134      1.198     2.74     4.094172     20.51209       77.244         8     0.881     0.635 -19.15   0
       128    145.7816    713.0993 300.0349035 +22.6261167     496.0067     72.61166      1.122     2.33     4.200167     20.51209     92.62547         9     0.841     0.648  27.46   0
       129    160.0741    711.4469 300.0398818 +22.6299327     633.6926     72.70431      1.341     3.44     4.197175     20.51209     72.26323        10     1.007     0.665  42.10   0
       130    929.0042    707.8220 300.2803996 +22.8594990     400.4362     72.66727      1.113     3.10     4.149739     20.51209     75.68324         8     0.884     0.663 -57.10   0
       131    216.6056    708.0616 300.0585510 +22.6459281     434.3924     72.68579      1.505     3.58     4.108159     20.51209      48.8172         7     0.843     0.703 -16.83   0
       132    185.8705    708.2767 300.0489288 +22.6367658     477.1604     72.81534      1.133     2.26     4.157318     20.51209     82.02102         7     0.701     0.641  -6.85   0
       133    506.1776    707.0776 300.1489316 +22.7325218      475.381     72.68579      1.184     2.47     4.106111     20.51209      71.0229         8     0.764     0.669 -43.39   0
       134    407.2005    706.4543 300.1183381 +22.7026540     1682.366      72.6302      1.142     2.10     3.962942     20.51209     255.1231        16     0.893     0.844  58.64   0
       135    982.9821    703.6031 300.2986030 +22.8744618     736.5406     72.61166      1.256     2.58     4.274694     20.51209     127.7205        13     0.938     0.817 -66.57   0
       136     61.1491    701.5836 300.0123554 +22.5974110     19745.88     72.70431      1.408     2.54     4.081604     20.51209      2284.82        58     1.280     1.230  18.07   0
       137    491.9953    701.7451 300.1462517 +22.7267379      994.798     72.70431      1.194     2.11     4.153694     20.51209     153.5559        11     0.871     0.685  72.65   0
       138    409.5597    698.7309 300.1215831 +22.7011458     308.0769     72.68579      1.419     2.91     3.999478     20.51209     36.26067         5     0.718     0.451  68.23   0
       139    863.3760    697.1595 300.2634073 +22.8367686     278.5494     72.74134      0.912     2.69     4.090989     20.51209     51.84446         5     0.734     0.437  69.30   0
       140    575.4479    689.6948 300.1761440 +22.7483074     145.7213     72.72282      1.017     3.47     4.204465     20.51209     39.66317         5     0.779     0.447 -70.07   0
       141    910.1487    687.6223 300.2810886 +22.8480466     1064.613     72.70431      1.248     2.14     4.128737     20.51209     187.6003        16     0.957     0.889  18.72   0
       142      7.0644    685.7736 300.0006980 +22.5766424     1636.175     72.68579      2.018     4.51     3.861763     20.51209      145.102        22     1.491     1.004 -81.40  16
       143    776.8846    685.9208 300.2401071 +22.8076173     523.5002     72.85231      1.309     2.24     4.083468     20.51209     89.62609         9     0.867     0.622  76.19   0
       144     73.0448    685.8884 300.0211525 +22.5964821     386.5026     72.72282      1.291     3.18     4.117604     20.51209      50.6775         7     0.800     0.693 -64.29   0
       145    455.4099    682.3765 300.1411644 +22.7102066     370.9299     72.70432      1.133     2.33     4.216677     20.51209     72.28512        10     0.838     0.717  61.47   0
       146    850.4765    680.5856 300.2647752 +22.8281426     675.2744     72.72282      1.173     2.15      4.09926     20.51209     112.3287        11     0.872     0.752  49.13   0
       147    248.1915    681.5790 300.0769784 +22.6478112     225.7275     72.68579      1.179     2.88     4.079684     20.51209     43.36691         6     0.727     0.620  52.64   0
       148    845.8054    680.2280 300.2634356 +22.8266400     489.6774     72.70431      1.510     2.98     4.099777     20.51209     49.10868         8     0.842     0.665  13.31   0
       149    594.7270    678.9797 300.1856295 +22.7510130     264.1657     72.72282      1.118     3.65     4.318015     20.51209      47.8853         7     0.879     0.578  60.93   0
       150    412.1293    674.6186 300.1302212 +22.6949983     708.6069     72.74134      1.099     2.20     4.130389     20.51209     121.8122         8     0.740     0.663  73.43   0
       151    560.0385    673.3810 300.1766507 +22.7390041     339.5679     72.72282      1.045     2.21     4.405016     20.51209     78.72877         8     0.756     0.660 -82.01   0
       152    607.6540    671.6494 300.1920372 +22.7527850     467.8792     72.74134      1.060     2.54     4.389992     20.51209     76.06765         8     0.880     0.568  18.66   0
       153    577.6824    671.3352 300.1828082 +22.7437077     498.9763     72.81534      1.019     2.28     4.402548     20.51209     87.54902         8     0.849     0.560  22.14   0
       154    456.5669    670.4822 300.1453910 +22.7071405     970.4504     72.66727      1.471     3.72     4.290555     20.51209     112.7627        17     1.219     0.930  35.96   0
       155    643.0989    669.4395 300.2037923 +22.7627782     223.8415     72.70431      1.054     2.85     4.250873     20.51209     43.20046         6     0.726     0.621 -57.34   0
       156    890.1533    665.8527 300.2819326 +22.8358016     3323.644     72.74134      1.238     2.01     4.099614     20.51209     559.0563        27     1.064     0.996 -25.83   0
       157    421.8979    665.9529 300.1360771 +22.6954420     1729.466     72.74134      1.261     2.23     4.179298     20.51209     293.5429        17     0.926     0.864  70.02   0
       158    988.0959    663.9302 300.3130964 +22.8645966     598.7875     72.83382      1.233     2.62     4.234323     20.51209      95.7123         9     0.773     0.739  23.08   0
       159    786.8859    662.9496 300.2506914 +22.8040187     309.3649     72.70431      1.116     2.76     4.052261     20.51209     45.54752         6     0.780     0.631  80.00   0
       160    450.9743    657.0107 300.1480300 +22.7015972     311.0813     72.70431      1.181     4.38     4.308273     20.51209     44.84977         7     1.031     0.529  59.72   0
       161    929.5662    655.3427 300.2976368 +22.8445928     374.8636     72.72282      1.310     3.32     4.089301     20.51209     53.11561         5     0.735     0.441 -67.33   0
       162    285.3273    652.7859 300.0978829 +22.6506946     9038.319     72.70431      1.237     2.17     4.041605     20.51209     1288.701        34     1.059     1.014  50.56   0
       163    407.7913    649.7897 300.1369426 +22.6865728     8926.444     72.59312      1.207     1.98     4.166321     20.51209     1556.637        30     1.032     0.933  82.49   0
       164    486.4389    646.7998 300.1623844 +22.7093033     296.6343     72.70431      1.540     3.44     4.467779     20.51209     31.41105         5     0.751     0.454 -70.51   0
       165    172.7500    647.1495 300.0647218 +22.6152982     405.8206     72.74134      1.584     4.19     4.144736     20.51209     38.96375         6     0.771     0.650  36.62   0
       166    654.1178    645.7286 300.2149313 +22.7592746     296.0907     72.83382      1.191     2.99     4.224344     20.51209     54.48497         7     0.936     0.530  77.91   0
       167   1012.4355    644.8145 300.3269018 +22.8663964       811.83     72.70431      1.278     2.54       4.1531     20.51209     136.6468        14     1.012     0.797  28.81   0
       168    904.1185    640.9432 300.2943837 +22.8328312     12392.83     72.74134      1.264     2.07     4.042336     20.51209      2098.48        42     1.094     1.063 -88.26   0
       169    819.4258    643.5635 300.2671333 +22.8082039     1892.158     72.72283      1.159     2.04     3.973238     20.51209     276.2598        17     0.969     0.852  59.80   0
       170    468.3678    639.3373 300.1591867 +22.7017420     11531.12     72.70432      1.144     2.00     4.438618     20.51209      1727.29        41     1.078     0.997  86.03   0
       171    195.9501    634.8598 300.0759262 +22.6187352     1390.134     72.75985      1.313     2.12      4.10946     20.51209     219.4688        22     1.164     0.968  52.51   0
       172    637.9156    635.0609 300.2133534 +22.7513545     459.7486     72.81534      1.120     2.04      4.28877     20.51209     108.9628         8     0.714     0.666  26.71   0
       173    442.6053    632.3939 300.1534276 +22.6920229     555.2669     72.55601      1.409     2.54     4.342735     20.51209     75.21284        10     0.839     0.773 -43.75   0
       174    400.0340    627.5621 300.1417541 +22.6778679     4373.408     72.74134      1.186     2.04     4.173666     20.51209     668.2341        24     0.960     0.934  85.10   0
       175    742.9221    627.2617 300.2485944 +22.7805928     835.8156     72.77835      1.185     2.20     4.042227     20.51209     125.7282        10     0.884     0.688 -89.50   0
       176    378.3435    625.8898 300.1355507 +22.6708820      1257.19     72.74134      1.227     2.14     4.110434     20.51209     195.2599        14     0.934     0.808  54.84   0
       177    132.6776    625.3822 300.0593446 +22.5970300     720.1235     72.70432      1.174     2.36     4.087463     20.51209     94.86449        11     0.826     0.777  44.24   0
       178    819.8892    622.8685 300.2740046 +22.8023989     1634.494     72.85231      1.290     2.61     3.881438     20.51209     218.8992        15     1.002     0.768 -31.41   0
       179    516.6658    615.0499 300.1821108 +22.7092552     201974.6     72.70431      1.187     1.94     4.598348     20.51209     36369.48       202     1.361     1.309  74.96   0
       180     66.6230    623.2521 300.0395163 +22.5765950     334.8966     72.72282      1.326     3.43     4.001019     20.51209     37.90328         5     0.739     0.459 -74.54   0
       181    340.2085    621.1583 300.1252279 +22.6580852     368.3847     72.72282      1.168     2.77     4.035859     20.51209     55.33149         6     0.824     0.502  55.94   0
       182    700.2825    619.8017 300.2377365 +22.7656696     822.2378     72.61166      1.076     1.77     4.132348     20.51209     166.3712        10     0.781     0.681  57.24   0
       183    904.9845    616.9556 300.3024507 +22.8261998     317.3095     72.72282      1.445     5.25     3.981048     20.51209     53.51658         8     1.172     0.666  58.40   0
       184    794.0569    618.0620 300.2675168 +22.7932767     182.2213     72.75984      1.087     3.44     3.835717     20.51209     35.46634         5     0.636     0.595 -86.04   0
       185    202.6445    615.0845 300.0844337 +22.6150718     3547.099     72.66727      1.314     2.24     4.067232     20.51209     540.5593        27     1.078     1.026  24.59   0
       186    768.8968    611.3038 300.2618737 +22.7837952     622.6536     72.88926      1.309     2.40     3.915928     20.51209     104.9834         9     0.900     0.687  -5.69   0
       187    382.4881    611.7602 300.1414320 +22.6680707     213.8415     72.68579      1.095     2.53     4.132701     20.51209     41.34848         5     0.714     0.464  70.02   0
       188    406.7306    599.5942 300.1529267 +22.6718506     387.9497     72.66727      1.144     2.13      4.21772     20.51209     57.12079         5     0.696     0.438 -30.56   3
       189    407.3076    595.3415 300.1544882 +22.6708032     2565.164     72.75985      1.133     1.95     4.216281     20.51209     418.6593        20     0.944     0.880  83.47   2
       190    251.5416    597.5441 300.1053329 +22.6247109     415.9682     72.77835      1.084     2.71     4.019804     20.51209     65.00734         6     0.841     0.451  72.55   0
       191    857.8699    594.7911 300.2949675 +22.8057154     373.2999     72.68579      1.813     5.88     3.943352     20.51209     43.61924         8     1.431     0.824 -27.25   0
       192    563.6784    592.7769 300.2039826 +22.7169580     265.6386     72.68579      1.027     3.88     4.481856     20.51209     34.70586         5     0.942     0.459  43.10   0
       193    818.7864    591.6624 300.2838032 +22.7931051     377.2866     72.68579      1.062     2.74     3.854398     20.51209     58.92772         7     0.767     0.642 -18.21   0
       194    836.2214    586.4799 300.2909211 +22.7968410      181.218     72.66727      1.066     2.28     3.902131     20.51209     45.10614         5     0.693     0.462  21.61   0
       195    724.6682    584.0094 300.2569650 +22.7627006     419.3034     72.70431      1.242     2.77     4.030017     20.51209     50.40308         7     0.816     0.585  63.10   0
       196    804.2892    581.3687 300.2826307 +22.7858041     1583.429     72.66727      1.095     1.95     3.852607     20.51209     272.3132        15     0.863     0.845  30.51   0
       197    690.7076    581.9565 300.2470536 +22.7519321     356.9042     72.72282      1.342     2.44     4.137343     20.51209      46.9257         7     0.702     0.662  77.01   0
       198    675.4212    579.1226 300.2432135 +22.7465363     2421.294     72.70431      1.103     1.93     4.189725     20.51209     426.6495        20     0.982     0.838  76.15   0
       199     34.8064    579.6296 300.0438096 +22.5545370     298.8972     72.70431      1.146     4.33     3.939851     20.51209     34.36029         7     0.892     0.598  81.55   0
       200    919.7705    576.0353 300.3203597 +22.8188737     560.1415     72.72282      1.345     2.86     3.960288     20.51209     64.61652        10     0.895     0.726 -84.65   3
       201    918.4428    572.1125 300.3212205 +22.8173489     736.3545     72.70431      1.251     2.20     3.960268     20.51209     103.0473        10     0.873     0.632  33.47   3
       202    884.8159    575.5844 300.3096089 +22.8082716      243.767     72.66727      1.189     3.28     3.960442     20.51209     62.00616         7     0.904     0.597  74.63   0
       203    580.2767    575.8843 300.2146393 +22.7170847     371.7697     72.81534      1.151     2.52     4.378505     20.51209     64.79967         9     0.832     0.670  19.39   0
       204    462.7703    574.9572 300.1783679 +22.6815858     748.0847     72.74134      1.141     2.07      4.38093     20.51209      139.072        11     0.896     0.755  -8.67   0
       205    932.8300    572.9839 300.3254231 +22.8219095     1334.102     72.70431      1.233     2.15     3.957583     20.51209     207.4974        16     0.961     0.845  78.32   0
       206    804.5029    571.4642 300.2859159 +22.7830231     2146.556     72.81534      1.377     2.76     3.883721     20.51209     358.3947        26     1.532     0.845  71.26   0
       207    557.8912    569.6248 300.2097046 +22.7085763     621.5984     72.64874      1.181     2.41     4.390445     20.51209     105.9699        12     0.942     0.734  51.15   0
       208    842.6927    566.5804 300.2994048 +22.7930638      4242.94      72.6302      1.158     2.05     3.936671     20.51209     681.0519        27     1.051     0.937  70.50   0
       209    343.7890    569.7186 300.1430575 +22.6443992     331.3953     72.66727      1.050     1.65     3.964046     20.51209      65.0069         5     0.662     0.434  13.42   0
       210    396.3881    568.3710 300.1598555 +22.6597882     482.3423     72.70432      1.209     2.66     4.157964     20.51209     70.47465         5     0.699     0.470  75.70   0
       211    557.5724    565.3541 300.2109931 +22.7072547     383.2999     72.74134      1.277     3.12     4.367001     20.51209     46.64938         6     0.802     0.545  45.91   0
       212    639.9739    562.0329 300.2377276 +22.7310036     133.2368     72.70431      0.968     2.21     4.249155     20.51209     38.92998         5     0.594     0.592  36.82   0
       213    503.0785    562.2952 300.1950256 +22.6900379     378.7503     72.83382      1.128     2.68     4.360944     20.51209     57.14403         6     0.834     0.493  37.93   0
       214     74.5555    557.3062 300.0634089 +22.5600643     977.3262     72.72282      1.319     2.30     3.939032     20.51209     136.8851        15     0.971     0.931 -14.71   0
       215    934.5125    557.0120 300.3311380 +22.8178243     792.9052     72.64874      1.178     2.09     3.956139     20.51209     138.8579        11     0.855     0.693  -8.09   0
       216    874.1695    554.4385 300.3131616 +22.7990067     300.0885     72.70431      1.127     3.04     3.960464     20.51209     39.44857         7     0.833     0.602  72.75   0
       217    735.6376    550.6164 300.2712333 +22.7563977     418.3872     72.70432      1.068     2.49     3.903991     20.51209     54.63809         5     0.694     0.462  17.07   0
       218    122.3856    548.9257 300.0809907 +22.5720132     254.1154     72.70431      1.288     3.52      3.93845     20.51209     39.87693         5     0.786     0.455 -74.39   0
       219     66.8396    547.0403 300.0643474 +22.5548046     544.6137     72.77835      1.497     3.47     3.930201     20.51209     61.14212        11     0.967     0.815   0.07   0
       220    930.6300    545.9565 300.3335198 +22.8134846     360.8968     72.74134      1.203     2.46      3.95868     20.51209     61.54489         6     0.783     0.476  82.70   0
       221    674.7957    541.1143 300.2553690 +22.7354340      499.133      72.6302      1.176     3.09     4.185665     20.51209     84.14771         9     0.865     0.765 -52.89   0
       222    616.1306    537.1384 300.2383919 +22.7167080     741.9251     72.74134      1.078     1.95     4.250002     20.51209     165.8067         8     0.678     0.665  60.31   0
       223   1023.4104    534.7298 300.3661022 +22.8380494     785.6257     58.06336      1.031     2.14     3.902801     20.51209     158.9151        11     0.948     0.636  82.13  24
       224    930.7625    529.2534 300.3389883 +22.8087247     610.9219     72.72282      1.219     2.34     3.970559     20.51209     87.86771        11     0.814     0.798 -69.67   0
       225    676.7817    529.2269 300.2598498 +22.7326153     723.1547     72.72282      1.106     1.87     4.175035     20.51209     161.8147        11     0.845     0.699 -53.09   0
       226    833.9992    525.5219 300.3100363 +22.7786636     888.1175     72.59312      1.055     1.90     3.975942     20.51209     175.1861        10     0.834     0.631  54.53   0
       227    792.5804    522.8448 300.2979984 +22.7654844     349.3276     72.74134      1.071     3.30     3.962793     20.51209     47.88924         5     0.731     0.467  73.66   0
       228    818.3514    521.7317 300.3063910 +22.7728864      683.533     72.70432      1.164     2.20         3.97     20.51209     107.6177        11     0.867     0.727  64.60   0
       229    798.8813    522.1361 300.3001921 +22.7671687     342.9424     72.81534      1.059     1.71     3.960975     20.51209     72.69965         6     0.668     0.534 -36.82   0
       230    562.6342    519.9176 300.2273314 +22.6957269      3065.71     72.66727      1.106     1.84     4.262212     20.51209     567.1079        19     0.912     0.827  78.66   0
       231    923.0802    518.3574 300.3401331 +22.8032925     469.5558     72.68579      1.150     3.14       3.9824     20.51209     79.66648         9     0.962     0.685  80.53   0
       232     38.3092    511.0960 300.0671625 +22.5359343     406.7507     72.88926      1.391     5.86     3.962421     20.51209     49.87872        10     1.374     0.704  82.62   0
       233    402.4774    506.9034 300.1817201 +22.6439724     431.1011     72.83382      1.200     2.63     4.224966     20.51209     56.73275         6     0.754     0.484  77.59   0
       234    974.0262    498.9128 300.3623365 +22.8129647     1306.942     72.64874      1.205     2.03     3.958336     20.51209     245.7395        16     0.929     0.811 -55.83   0
       235    845.6801    498.5937 300.3224255 +22.7744266     465.9606      72.6302      1.096     2.09     4.011981     20.51209     94.25522         9     0.866     0.594  79.15   0
       236    932.3243    497.5834 300.3497645 +22.8000919     917.2631     72.70432      1.082     2.33     3.992784     20.51209     151.0835        13     0.860     0.776 -61.97   0
       237    582.3951    495.8120 300.2413143 +22.6947288     214.0084     72.57456      1.059     2.06     4.235996     20.51209      49.7271         5     0.692     0.448 -68.12   0
       238    673.0838    493.7173 300.2702342 +22.7213087     1096.278     72.83382      1.138     1.77     4.174849     20.51209     215.5971        14     0.934     0.807  71.87   0
       239    468.9134    494.4856 300.2064240 +22.6603280     512.5513     72.83382      1.053     1.80     4.272373     20.51209     91.34353         6     0.692     0.495   8.07   0
       240    177.0712    492.0232 300.1164684 +22.5720968      626.997     72.74134      1.306     2.79     3.782331     20.51209     101.3316        12     0.999     0.795  38.28   0
       241    239.5471    487.9064 300.1372243 +22.5896565     3785.432     72.75985      1.247     2.14     3.938534     20.51209     588.7695        24     1.017     0.917  37.69   0
       242    972.7057    486.1023 300.3660863 +22.8088874     4492.932     72.88926      1.205     2.14      3.96706     20.51209     656.7828        26     1.026     0.963  82.76   0
       243    186.7422    482.7493 300.1224862 +22.5723372     7616.815     72.75985      1.285     2.20     3.793777     20.51209     1174.527        39     1.171     1.042  52.17   0
       244    327.4983    476.8759 300.1681529 +22.6128693     4717.882     72.85231      1.164     1.95     4.112158     20.51209     757.7327        26     1.058     0.874  68.34   0
       245    952.5810    477.1882 300.3627063 +22.8002980     1863.196     72.66727      1.142     1.97     3.987303     20.51209     298.8227        16     0.898     0.798  81.89   0
       246    571.7609    473.4980 300.2452519 +22.6851336     18022.39     72.68579      1.095     1.88     4.222502     20.51209     3110.459        48     1.087     0.962  82.84   0
       247    588.6708    474.2647 300.2502673 +22.6904223      688.783     72.74134      1.530     3.16     4.206497     20.51209     82.63045        10     1.023     0.679 -29.84   2
       248    590.6664    472.3515 300.2515101 +22.6904710     465.4356     72.70432      1.244     2.51       4.2011     20.51209     53.55425         5     0.672     0.490 -74.34   3
       249    419.2766    474.9843 300.1973144 +22.6398473     336.8575     72.70431      1.297     2.25     4.275237     20.51209     46.68022         7     0.691     0.655  75.45   0
       250    691.4269    482.3778 300.2796309 +22.7235489     226.3215     72.68579      0.932     2.88     4.168358     20.51209     47.16413         5     0.709     0.457  69.44   0
       251    768.8249    463.5833 300.3098475 +22.7413419      483.604     72.72282      1.389     2.09     4.154603     20.51209     66.64342         6     0.721     0.490  -5.82   0
       252    191.5772    460.8385 300.1311053 +22.5675008     328.7695     72.72282      1.079     2.95     3.879122     20.51209     57.38664         7     0.948     0.611  12.78   0
       253    905.2623    455.9560 300.3548491 +22.7800232     825.4423     72.70431      1.171     2.59     4.095267     20.51209     134.5137        11     0.960     0.675 -83.75   0
       254    442.1869    454.6817 300.2110365 +22.6408878     382.1519     72.68579      1.549     4.41     4.275361     20.51209     67.69667         7     1.307     0.499  73.91   0
       255    126.3560    453.8016 300.1131230 +22.5459169     1912.727     72.68579      1.268     2.23     3.797716     20.51209     294.6621        19     1.073     0.903  29.59   0
       256    512.4043    442.9661 300.2366922 +22.6585741     6552.256     72.70431      1.148     1.96     4.235916     20.51209     1138.892        28     0.978     0.931  87.67   0
       257    925.9595    443.1150 300.3654728 +22.7825319     1130.435     72.66727      1.164     1.95     4.023204     20.51209      232.541        13     0.975     0.664  71.04   0
       258    227.1867    442.5139 300.1481247 +22.5729235     575.3908     72.64874      1.199     2.46     4.171398     20.51209     103.3374         9     0.816     0.723  24.34   0
       259     84.8646    435.6838 300.1061161 +22.5282717     722.9904     72.81534      1.424     2.50     3.974535     20.51209     92.94475        10     0.906     0.685  83.84   0
       260    772.5687    434.6515 300.3204109 +22.7341514     304.4916     72.74134      1.060     3.58     4.319067     20.51209     57.83994         6     0.960     0.476  35.10   0
       261    626.2568    433.1223 300.2753328 +22.6898712     518.3827     72.74134      1.242     1.84     4.134153     20.51209     113.0667         8     0.734     0.609 -40.58   0
       262    716.6564    431.8232 300.3039098 +22.7165868     1154.557     72.72282      1.158     2.04     4.203341     20.51209     182.2054        14     0.861     0.814  43.17   0
       263   1003.4014    430.2763 300.3937928 +22.8020338      330.631     72.59312      1.596     5.10     3.944311     20.51209     31.85514         7     1.207     0.609 -52.51   0
       264    419.0363    429.3177 300.2120711 +22.6266652     6222.021     72.68579      1.175     1.98     4.275787     20.51209     1079.516        27     1.025     0.890  63.66   0
       265    997.1393    427.6423 300.3926952 +22.7994015     191.1122     72.68579      1.029     3.38      3.94947     20.51209     40.61671         5     0.791     0.418 -20.46   0
       266    908.2552    423.6080 300.3662884 +22.7716230     561.2308     72.70432      1.030     1.96     4.159274     20.51209     98.31864         9     0.791     0.613  72.16   0
       267    810.9597    423.5175 300.3359900 +22.7424535     1338.398     72.66727      1.094     1.97     4.498849     20.51209     233.7947        12     0.840     0.679  86.58   0
       268    403.4839    417.9366 300.2109286 +22.6187351     482.3853     72.79684      1.182     2.23     4.275704     20.51209     80.88818         7     0.701     0.619 -76.64   0
       269    486.4954    415.7248 300.2374755 +22.6429855     524.5901     72.85231      1.271     2.82     4.267536     20.51209     59.90231         8     0.843     0.640  32.94   0
       270    783.8354    411.2550 300.3315197 +22.7308044      537.574     72.72282      0.997     1.68     4.463439     20.51209     122.2123         7     0.647     0.611 -39.60   0
       271    306.5511    408.4993 300.1838448 +22.5869622     2618.194     72.74134      1.184     2.10     4.318705     20.51209     380.6576        18     0.940     0.856  54.54   0
       272     25.1657    405.8907 300.0972469 +22.5018143     984.2993     72.68579      1.331     2.43     4.720243     20.51209     146.8719        14     1.020     0.811  34.27   0
       273    275.9124    397.9988 300.1777277 +22.5747607     29662.03     72.61166      1.255     2.05     4.336917     20.51209     5052.856        61     1.177     1.055  62.29   0
       274    810.5151    395.2433 300.3450332 +22.7341956      1372.43     72.66727      1.161     2.01     4.486612     20.51209     204.0845        16     1.011     0.784 -86.20   0
       275    765.8768    393.0150 300.3318469 +22.7201834     295.8861     72.72282      1.388     3.76     4.341988     20.51209     40.53432         5     0.807     0.503  28.01   0
       276    725.8054    384.2549 300.3222069 +22.7056617     617.2328     72.70431      1.234     2.21     4.225408     20.51209     97.55059         9     0.834     0.632  74.31   0
       277    150.0370    384.1096 300.1431113 +22.5330241     538.9249     72.68579      1.400     2.53     4.068606     20.51209     67.07983         9     0.790     0.724  34.48   0
       278    374.3159    383.1913 300.2131373 +22.6000152     552.1616     72.64874      1.214     3.42       4.3168     20.51209     81.75827         7     0.770     0.583  66.28   0
       279    686.3677    377.5546 300.3120976 +22.6919210     1998.801     72.75985      1.087     1.82     4.196465     20.51209     338.4059        18     0.911     0.890  27.99   0
       280    494.4285    372.1959 300.2540782 +22.6328635     429.8126     72.66727      0.999     2.30     4.364745     20.51209     76.09578         5     0.714     0.429  64.42   0
       281    901.5648    370.2514 300.3815288 +22.7542834     696.1147     72.72282      1.207     2.19     4.223583     20.51209     104.4699        10     0.792     0.750  40.08   0
       282    755.1408    363.8175 300.3379821 +22.7085776     288.7545     72.64874      1.622     3.45     4.267446     20.51209     33.57479         5     0.735     0.694  21.76   0
       283    348.1368    362.2730 300.2117862 +22.5861610      2288.63     72.74134      1.373     2.59     4.347298     20.51209     293.3176        20     1.239     0.817  60.66   0
       284    560.4626    360.8215 300.2783249 +22.6493873     312.7556     72.68579      1.056     2.49     4.287567     20.51209     79.97275         7     0.907     0.476 -78.99   0
       285    787.3129    355.1160 300.3508318 +22.7157142     587.8346     72.81534      1.143     1.90      4.29804     20.51209     129.8756         8     0.827     0.572  77.00   0
       286    669.5221    352.7505 300.3149040 +22.6797477     271.8301     72.70432      1.000     2.32     4.199864     20.51209      61.7729         6     0.726     0.499  88.16   0
       287    686.7280    352.5717 300.3203211 +22.6848512     158.0809     72.70432      0.949     2.68     4.206012     20.51209     46.08131         5     0.691     0.484  11.87   0
       288    637.5941    351.7589 300.3052825 +22.6698966     292.5805     72.74134      0.937     1.77     4.219098     20.51209     60.63616         5     0.653     0.460  68.27   0
       289    747.8225    345.2774 300.3417213 +22.7010578     291.1609     72.68579      1.780     3.43     4.253982     20.51209     40.45448         5     0.971     0.351  46.85   0
       290    423.9412    341.5506 300.2420938 +22.6029355     1289.584     72.75985      1.239     2.07     4.346754     20.51209     208.9344        15     1.045     0.761  68.59   0
       291    231.4365    341.8762 300.1821211 +22.5453150     183.4719     72.66727      1.090     3.14     4.397508     20.51209      53.5898         5     0.830     0.549 -45.17   0
       292    509.4317    339.0135 300.2695203 +22.6278303     251.7228     72.68579      1.115     3.20     4.377033     20.51209     42.23577         6     0.783     0.495 -89.96   0
       293    807.4008    334.7125 300.3637157 +22.7158673     303.4252     72.61166      0.923     1.85      4.32317     20.51209     67.06372         5     0.675     0.459  69.77   0
       294    668.6648    333.4316 300.3209087 +22.6739404     2261.748     72.70432      1.099     2.05     4.232786     20.51209     369.8565        18     0.966     0.792  52.51   0
       295    930.0215    327.5900 300.4042518 +22.7505415     3078.553     72.68579      1.169     1.96     4.201645     20.51209     590.6991        22     1.016     0.854  70.12   0
       296    991.3529    322.4292 300.4250532 +22.7674211     438.7496     72.72282      1.130     2.32     4.372084     20.51209     74.86341         6     0.789     0.477  87.02   0
       297    301.4134    319.4583 300.2111544 +22.5598612    -239.2558     72.66727    -55.264     3.29     4.340113     20.51209     41.73452         6     0.913     0.418  71.29   0
       298    377.0312    317.2017 300.2354045 +22.5818823     741.4772     72.66727      1.231     2.25     4.344156     20.51209     110.9392         9     0.742     0.736 -44.34   0
       299    999.4337    315.4876 300.4298270 +22.7678445     1579.297     72.66727      1.142     2.11     4.474236     20.51209     256.3824        16     0.946     0.811  59.26   0
       300     82.7649    311.8788 300.1456570 +22.4921198     548.4832     72.64874      1.252     3.00     4.469598     20.51209      95.2757        10     1.091     0.613  49.53   0
       301     51.9900    311.6874 300.1361593 +22.4828343      1341.22     72.64874      1.517     3.10     4.572584     20.51209     171.7461        20     1.222     0.920 -40.54   0
       302    945.8300    308.1613 300.4154881 +22.7496893     526.6874     72.70431      1.052     1.94     4.403802     20.51209     104.2934         8     0.770     0.590  51.61   0
       303    789.7246    305.0509 300.3678359 +22.7020483     348.0934     72.70431      1.227     3.42     4.306695     20.51209     60.92852         7     0.992     0.556  69.71   0
       304    135.8976    303.7741 300.1647956 +22.5057291     459.5438     72.64874      1.337     2.66     4.405955     20.51209     80.62984        10     0.915     0.705  71.55   0
       305    931.1971    300.6082 300.4133770 +22.7431365     317.3672     72.51889      0.999     1.73     4.414255     20.51209     66.18847         5     0.648     0.464 -19.73   0
       306    811.6760    296.8964 300.3773236 +22.7062789     315.9665     72.85231      1.281     2.31     4.315954     20.51209     69.87238         5     0.756     0.395  67.15   0
       307    740.2864    294.8404 300.3557459 +22.6843063     575.0228     72.68579      1.022     1.85     4.298083     20.51209     123.1296         8     0.725     0.613  50.00   0
       308    330.8974    294.3624 300.2284686 +22.5614950     383.9685     72.70431      1.094     1.98     4.339315     20.51209     61.95825         7     0.679     0.625 -10.21   0
       309    838.5279    283.7431 300.3899617 +22.7105395     2027.215     72.74134      1.115     2.07      4.30759     20.51209     333.7716        19     0.990     0.813  81.06   0
       310    257.0309    281.4780 300.2096817 +22.5356512      2150.25     72.68579      1.253     2.20     4.345706     20.51209     318.7261        22     1.032     1.014 -15.57   0
       311    335.1211    276.4949 300.2355810 +22.5576307     982.6506     72.81534      1.278     2.62     4.338198     20.51209     145.3912        15     0.966     0.852  47.46   0
       312     87.0529    277.1865 300.1582483 +22.4834502     335.1448     72.74134      1.443     2.76     4.515017     20.51209     39.73005         6     0.779     0.648   9.19   0
       313    736.9398    275.4854 300.3609852 +22.6777415     585.3027     72.81534      1.122     2.07     4.303986     20.51209     94.78529         9     0.827     0.615  69.91   0
       314    844.1260    272.6046 300.3953217 +22.7090141     283.4211      72.6302      1.012     2.10     4.298167     20.51209      68.4655         6     0.719     0.558  71.73   0
       315    151.8751    268.6367 300.1811638 +22.5004355     874.9708     72.64874      1.477     2.65     4.430428     20.51209     90.95258        13     0.968     0.796  34.55   0
       316    269.9097    267.6960 300.2181584 +22.5355555     326.3291     72.88926      1.304     3.47     4.339387     20.51209     46.72561         7     0.860     0.686  71.93   0
       317    689.6363    265.2919 300.3495577 +22.6606433      1697.44     72.64874      1.155     2.14     4.372178     20.51209     241.6035        17     0.997     0.820 -50.12   0
       318    754.4018    264.9525 300.3698441 +22.6799443     492.4234     72.68579      1.012     1.91     4.300143     20.51209     104.6921         7     0.684     0.612  78.92   0
       319    121.2098    264.3317 300.1730320 +22.4900042     277.6019     72.70431      1.307     3.47     4.486827     20.51209     38.00623         5     0.929     0.399 -84.30   0
       320    173.3353    261.7484 300.1900683 +22.5048932     575.0808     72.74134      1.292     2.56     4.404089     20.51209     78.94359        10     0.846     0.758  86.77   0
       321    961.0605    257.5813 300.4366545 +22.7397061     808.9144     72.66727      1.071     1.86     4.575631     20.51209      173.574        10     0.851     0.622 -59.31   0
       322    462.6379    257.9681 300.2812627 +22.5905290     354.9073     72.72282      1.168     3.10     4.333233     20.51209      66.6782         5     0.852     0.507 -50.02   0
       323    693.6041    256.6709 300.3535914 +22.6593544     823.1539     72.64874      1.179     2.01     4.387171     20.51209     117.6869         9     0.834     0.588  82.25   0
       324    614.1539    255.9797 300.3290719 +22.6353559     1229.437     72.75985      1.189     1.78     4.431664     20.51209     260.2036        13     0.917     0.690  67.53   0
       325    540.4577    247.8573 300.3087637 +22.6109429     995.1759     72.77835      1.093     2.32     4.594791     20.51209     177.2634        15     0.950     0.802  68.69   0
       326    809.6110    247.3841 300.3927493 +22.6914285     1474.768     72.64874      1.115     1.98      4.27335     20.51209     220.9501        16     0.886     0.834  86.56   0
       327    821.6003    246.5191 300.3967666 +22.6947701     850.3684     72.57456      1.139     2.19     4.274212     20.51209     119.4057        12     0.826     0.788  44.43   0
       328    868.1710    245.2115 300.4117068 +22.7083390     251.6759     72.70431      1.265     2.21     4.278402     20.51209     53.85914         6     0.743     0.514  46.32   0
       329    380.6211    243.7643 300.2603546 +22.5618696     277.4534     72.72282      1.291     3.44     4.338198     20.51209     34.41412         5     0.736     0.464  75.68   0
       330    982.5351    237.3607 300.4499138 +22.7403200       1646.4     72.66727      1.104     2.05     4.695632     20.51209     254.0163        15     0.854     0.840  -1.02   0
       331    938.3619    236.6237 300.4363775 +22.7268846     1015.433     72.72282      1.090     2.01     4.369479     20.51209     205.1476        13     0.865     0.752  64.49   0
       332    172.3219    230.2319 300.1999798 +22.4955423     780.9952     72.68579      1.341     2.68     4.407431     20.51209     123.1835        11     0.993     0.701  51.08   0
       333     34.3513    225.0659 300.1587896 +22.4526869     2125.003     72.68579      1.359     2.56     5.102256     20.51209      253.814        23     1.184     0.903  65.12   0
       334    857.3972    221.6541 300.4159928 +22.6983404     753.2271     72.66727      1.117     2.02     4.263108     20.51209     113.6281        11     0.847     0.712  49.46   0
       335    191.7827    218.3367 300.2098877 +22.4979621      5652.96     72.68579      1.263     2.27     4.369275     20.51209     767.0687        30     1.136     0.963  64.73   0
       336    173.6192    219.1677 300.2039728 +22.4927550     388.0011     72.70431      1.207     1.94     4.403904     20.51209     57.63644         5     0.670     0.461 -71.85   0
       337    175.0976    209.1983 300.2076668 +22.4903363     709.7826     72.61166      1.269     2.50      4.40198     20.51209     90.27564         9     0.849     0.650 -70.04   0
       338    990.5672    205.4370 300.4627778 +22.7335435     18167.85     72.74134      1.162     2.09     4.845722     20.51209     2560.139        47     1.143     1.014  83.91   0
       339    835.7610    199.5464 300.4164221 +22.6855063     3469.743     72.70432      1.124     1.99     4.317359     20.51209     597.2361        21     0.940     0.880  54.51   0
       340    939.4681    198.2064 300.4491881 +22.7161685     2794.609     72.66727      1.193     2.20     4.444131     20.51209     387.7213        22     1.034     0.894 -78.57   0
       341    138.5659    195.6964 300.2006943 +22.4755073     439.1114     72.70432      1.502     2.55     4.585291     20.51209     58.19773         6     0.818     0.491 -42.40   0
       342    385.2559    194.8887 300.2776544 +22.5492212     616.1646     72.74134      1.157     2.21     4.261173     20.51209     117.4535         8     0.912     0.501  59.91   0
       343    499.3996    192.8657 300.3138270 +22.5828426      356.328     72.66727      1.169     2.95     4.450581     20.51209      58.7672         6     0.763     0.654 -67.09   0
       344    309.3748    186.8741 300.2566536 +22.5241779     627.9111     72.72282      1.386     2.92     4.294479     20.51209     82.92296         9     0.958     0.628 -47.79   1
       345    313.5848    185.3701 300.2584507 +22.5250078     475.0233     72.70432      1.469     4.87     4.285738     20.51209      57.0832         8     0.915     0.735  73.69   0
       346    844.3517    184.8258 300.4238757 +22.6838460     279.5143     72.72282      1.134     3.06     4.342151     20.51209     40.49088         5     0.716     0.464 -77.97   0
       347    436.5792    182.2816 300.2977117 +22.5609794     1613.158     72.66727      1.150     2.10     4.256505     20.51209     246.5765        19     1.063     0.779  70.65   0
       348     75.5867    184.1300 300.1848789 +22.4533035     686.9028     72.70431      1.295     2.31     5.014001     20.51209      93.1044         9     0.799     0.691 -38.14   0
       349    364.5206    182.4944 300.2752254 +22.5394473     491.2649     72.83382      1.147     3.05     4.227796     20.51209     71.77568        10     0.996     0.688  83.38   0
       350    498.1901    181.2250 300.3172270 +22.5791358     319.9655     72.70431      1.088     2.02     4.440827     20.51209     58.07735         6     0.695     0.545  46.60   0
       351    180.0925    177.7316 300.2194273 +22.4827998     535.3716     72.83382      1.370     2.90     4.392361     20.51209      62.6016         7     0.744     0.627  -1.42   0
       352    725.0003    171.1608 300.3911169 +22.6441804     308.8261     72.70431      1.177     2.29     4.550188     20.51209     66.99902         5     0.878     0.359  63.71   0
       353    226.6272    171.7656 300.2358270 +22.4950367     433.2403     72.72282      0.741     1.15     4.305963     20.51209     202.1678         5     0.589     0.403 -17.71   0
       354    871.1282    166.2493 300.4382490 +22.6865210     365.0545     72.68579      1.161     3.17     4.348658     20.51209     57.87152         7     0.911     0.556  52.71   0
       355    309.5096    166.9220 300.2631679 +22.5184883     297.7622     72.85231      1.411     4.14     4.269602     20.51209     38.14046         6     1.003     0.489  83.14   0
       356   1001.1108    162.7558 300.4799138 +22.7244234     3531.093     72.72282      1.248     2.07     5.130814     20.51209     593.0076        27     1.186     0.942  29.85   0
       357    996.2667    164.3275 300.4778930 +22.7234257     351.8734     72.74134      1.279     3.78      5.08171     20.51209     48.12945         5     0.952     0.431  45.98   0
       358    210.6422    162.1478 300.2339778 +22.4874834     6066.128     72.70431      1.283     2.30     4.332723     20.51209     844.0696        34     1.223     0.965  60.57   0
       359    716.7314    162.6896 300.3912890 +22.6392691      295.959     72.85231      1.172     3.35     4.600386     20.51209     69.52011         6     0.888     0.569 -25.77   0
       360     61.6349    161.4585 300.1878989 +22.4426125     779.0842     72.70432      1.441     2.92     5.117696     20.51209     101.8205        15     1.063     0.898  65.35   0
       361    839.6850    159.4856 300.4306419 +22.6751628     433.6891     72.83382      1.436     3.22     4.419027     20.51209     68.25794         7     0.975     0.656  55.27   0
       362    182.3242    155.6848 300.2272724 +22.4771389     305.5422     72.81534      1.171     3.00     4.436086     20.51209     56.14512         8     0.902     0.636  77.19   0
       363    686.0639    152.8425 300.3849302 +22.6272547     171.4783     72.70431      1.240     2.52     4.697752     20.51209     42.36644         5     0.764     0.490  51.16   0
       364    225.8313    153.0151 300.2416618 +22.4894140      344.989     72.70431      1.301     4.86     4.377035     20.51209     44.95284         8     0.999     0.678  68.22   0
       365    456.6948    147.4498 300.3152698 +22.5569999     6228.446     72.75985      1.165     2.07     4.254149     20.51209     923.1105        32     1.094     0.960 -82.11   0
       366    341.9753    147.2980 300.2796301 +22.5225817     674.2516     72.61166      1.222     2.58      4.25225     20.51209     99.11652        11     0.847     0.807  60.56   0
       367    513.7522    142.0701 300.3347719 +22.5725479     245.1751     72.68579      1.152     2.56     4.525732     20.51209     43.55403         6     0.729     0.553 -48.61   0
       368    709.2244    136.7984 300.3973490 +22.6295784     773.9847     72.64874      1.272     2.50     4.725436     20.51209     125.2403        10     0.880     0.662  56.67   2
       369    650.6285    138.3040 300.3786093 +22.6124637     229.1308      72.6302      1.053     2.84     4.713051     20.51209     43.83279         6     0.676     0.651  -0.22   0
       370    801.7307    135.6340 300.4265498 +22.6569418      358.131     72.70432      1.094     2.63     4.700294     20.51209     77.26794         7     0.876     0.546  70.14   0
       371    149.5067    131.1909 300.2250177 +22.4602684     419.5567      72.6302      1.164     2.87     4.786305     20.51209     64.51477         9     0.853     0.715 -52.48   0
       372    585.0642    127.4595 300.3617104 +22.5897103     6365.238     72.74134      1.221     2.00     4.699724     20.51209     1066.707        35     1.103     0.977  75.80   0
       373    507.9858    129.3743 300.3370950 +22.5671725     413.9777     72.72282      1.113     1.98     4.467711     20.51209     69.53635         7     0.689     0.625   0.54   0
       374    359.9673    126.4764 300.2919796 +22.5219925     1603.031     72.70431      1.274     2.20     4.308939     20.51209     226.7471        17     0.983     0.851  55.75   0
       375    626.2449    124.7293 300.3754187 +22.6012594     852.2734     72.66727      1.191     2.46     4.699281     20.51209     138.7411        10     0.911     0.648  78.20   0
       376    695.7950    121.9478 300.3979824 +22.6212879     447.4943     72.68579      1.151     2.56     4.762104     20.51209     54.72402         6     0.740     0.533  57.15   0
       377    642.2402    120.8351 300.3816629 +22.6049304     607.8457     72.74134      1.139     1.91     4.704529     20.51209     104.1376         7     0.685     0.586 -85.44   0
       378    911.9122    118.4352 300.4664737 +22.6849789     593.3635     72.68579      1.264     3.13     4.434202     20.51209     96.17701        13     1.090     0.766 -57.83   0
       379    108.9271    119.0829 300.2163351 +22.4446268     640.5142     72.83382      1.393     3.90     5.038933     20.51209     90.14069        14     1.246     0.736  11.40   0
       380    680.5496    116.3020 300.3950647 +22.6150998     497.0085     72.77835      1.138     2.30     4.739373     20.51209     68.33678         7     0.840     0.484  80.38   0
       381    629.3698    112.2896 300.3804264 +22.5986198     2864.732     72.66727      1.178     2.11     4.693893     20.51209     438.1646        21     1.012     0.889  48.73   0
       382    270.0900    113.1398 300.2683544 +22.4912280     380.2554     72.79684      1.113     2.16     4.510865     20.51209     65.40996         8     0.764     0.652 -50.49   0
       383    644.4984    111.0110 300.3855524 +22.6027829     942.2119     72.59312      1.701     4.52     4.702091     20.51209     100.1409        15     1.499     0.665  53.51   0
       384    715.6460    103.7390 300.4100719 +22.6219973     1454.016     72.72282      1.167     2.09     4.887187     20.51209     248.1636        16     0.944     0.823 -89.21   0
       385    793.6259     98.4611 300.4360806 +22.6438269     320.5687     72.70432      1.185     3.25     5.011996     20.51209     47.43378         7     0.847     0.666 -78.65   0
       386    653.5665     96.9140 300.3929484 +22.6014463     752.3818     72.66727      1.139     2.21     4.704807     20.51209      118.955        10     0.784     0.715  -8.72   0
       387    459.2825     96.4085 300.3326292 +22.5431101     1167.819     72.64874      1.296     2.41     4.237158     20.51209     149.9629        13     0.917     0.791  59.12   0
       388    362.9873     94.7433 300.3032102 +22.5137816      684.275     72.68579      1.200     2.12     4.429789     20.51209     118.4475        12     0.931     0.736  89.95   0
       389     32.2606     96.4366 300.1998622 +22.4151402     411.1408     72.72282      1.167     4.10     5.062498     20.51209     73.77972         6     0.709     0.677 -33.89   0
       390    745.3822     93.1058 300.4227846 +22.6278436     392.7483      72.6302      1.010     1.97     5.020852     20.51209     83.63725         5     0.691     0.439  67.10   0
       391   1006.1410     91.1432 300.5047111 +22.7053288     2394.416     72.77835      1.319     2.21     4.261744     20.51209     339.5667        23     1.114     0.942  86.28   0
       392    134.5515     84.7541 300.2354295 +22.4424520     3715.809     72.72282      1.355     2.29     5.056529     20.51209     498.1295        31     1.177     1.025  54.48   0
       393    702.4960     84.9570 300.4120665 +22.6126603     585.4071     72.72282      1.090     2.50     4.849504     20.51209     101.2798         8     0.787     0.657  58.13   0
       394    557.1855     82.0075 300.3677714 +22.5682975     359.7382     72.61166      1.190     3.72     4.575902     20.51209     54.96613         6     0.900     0.567  27.53   0
       395    460.0475     82.2209 300.3374681 +22.5392627     265.0371     72.74134      1.388     3.82     4.302289     20.51209     38.94199         5     0.849     0.493  49.73   0
       396    695.8144     77.0817 300.4125389 +22.6083955     1021.826     72.68579      1.240     2.00      4.81499     20.51209     171.6201        13     0.929     0.722 -83.11   0
       397    250.5602     76.7471 300.2740838 +22.4749228      1171.78     72.68579      1.320     2.57     4.841929     20.51209     159.9041        18     1.016     0.962 -54.18   0
       398    661.8050     76.6067 300.4020998 +22.5980756     499.9875     72.55601      1.843     5.02     4.687082     20.51209     56.95695         8     1.041     0.786  41.43   0
       399    182.0003     76.3768 300.2528918 +22.4542687     214.5932      72.6302      1.286     3.22     5.024977     20.51209     36.24483         5     0.772     0.575  89.96   0
       400    788.9485     73.6488 300.4426695 +22.6352918     216.8358     72.74134      0.951     3.91     5.024759     20.51209     38.54362         5     0.961     0.576  75.74   0
       401    733.3600     71.6764 300.4259882 +22.6180828     691.8048     72.66727      1.415     4.48     5.004368     20.51209     75.27934        10     1.276     0.517  67.98   0
       402    657.0157     71.9065 300.4021323 +22.5952903     484.2871      72.6302      1.237     2.38     4.676083     20.51209     70.79053         7     0.839     0.511  48.80   0
       403    753.7151     68.1805 300.4334639 +22.6231717     2002.912      72.6302      1.163     2.10     5.025992     20.51209     328.3473        20     1.034     0.873 -80.72   0
       404    459.6023     66.7309 300.3423525 +22.5346782     441.9162     72.66727      1.047     2.19     4.370812     20.51209     81.93716         6     0.676     0.584  -0.15   0
       405    136.7864     63.5488 300.2429997 +22.4370330      1060.05     72.74134      1.579     3.77     5.055207     20.51209     111.7307        18     1.189     1.010 -10.83   0
       406    928.5910     61.3478 300.4901881 +22.6735507     756.9256     72.70432      1.110     2.24     4.590707     20.51209     115.2042        11     0.874     0.689  70.43   0
       407    702.1700     60.7888 300.4198021 +22.6056142     933.5229     72.70431      1.253     1.82     4.837785     20.51209      181.872        13     1.079     0.711  31.70   0
       408    409.6368     58.8109 300.3293737 +22.5174345     345.6463     72.68579      1.669     4.54     4.718712     20.51209     44.99915         8     1.133     0.550 -16.57   0
       409    322.2088     55.0931 300.3033841 +22.4901727     249.4113      72.6302      1.415     4.37     4.895292     20.51209     33.65544         5     0.865     0.627  50.37   0
       410    459.6491     53.2576 300.3467356 +22.5308206     367.1841     72.75985      0.993     2.71     4.434768     20.51209     49.68853         6     0.705     0.615  41.32   0
       411    152.2718     52.9635 300.2512439 +22.4386348     227.9832     72.68579      1.509     4.56      5.05398     20.51209     35.20819         5     1.238     0.477  62.43   0
       412    287.0701     50.7117 300.2938773 +22.4783852     405.3026     72.87079      1.401     3.17     4.948749     20.51209      59.8574         7     0.869     0.545  32.21   0
       413    554.6121     45.5910 300.3787785 +22.5570600     831.1422     72.59312      1.110     2.33     4.379246     20.51209      132.181        13     0.879     0.771 -74.80   0
       414    689.6579     43.3006 300.4215749 +22.5968400     302.1711     72.79684      1.239     2.03     4.759692     20.51209     53.02977         5     0.686     0.449 -72.72   0
       415    289.1956     43.6973 300.2968125 +22.4770072     313.5961     72.61166      1.119     1.94     5.020099     20.51209     53.50427         5     0.706     0.427 -17.55   0
       416    164.0332     42.9936 300.2581315 +22.4392968     471.2468     72.70431      1.304     2.59     5.055681     20.51209     84.00639         9     0.855     0.721  82.99   0
       417    348.3859     41.7201 300.3158614 +22.4941739     211.3887     72.68579      0.929     2.30     5.025815     20.51209     42.79444         5     0.677     0.472 -76.02   0
       418    717.8429     40.5356 300.4312515 +22.6044834     732.8995     72.68579      1.182     2.35     4.921059     20.51209     109.9887        11     0.845     0.777  57.25   0
       419    526.3477     38.6641 300.3722258 +22.5466042     1923.477     72.74134      1.207     2.13      4.28858     20.51209      297.392        18     0.990     0.832  88.06   0
       420    249.2584     36.0593 300.2868712 +22.4628460     637.6994     72.77835      1.176     2.39      5.11861     20.51209     104.1804         9     0.838     0.653  27.22   0
       421    483.5456     32.6859 300.3608420 +22.5320665     1351.637     72.75985      1.207     2.30     4.263012     20.51209     191.0449        14     0.957     0.779  79.95   0
       422    588.9593     29.2015 300.3947858 +22.5626349     1301.939     72.70431      1.181     1.91      4.45377     20.51209     240.6658        12     0.833     0.734  14.19   0
       423    184.2609     28.3246 300.2691739 +22.4411462     569.4926     72.75985      1.413     2.39     5.091166     20.51209     66.03346         9     0.839     0.649 -67.76   0
       424    233.0480     26.0661 300.2850713 +22.4551179       461.85     72.72282      1.269     2.39      5.17204     20.51209     65.57211         8     0.797     0.633  47.93   0
       425    409.4757     23.1351 300.3408903 +22.5071352     2284.683     72.77835      1.325     2.32     5.206425     20.51209      281.535        23     1.114     0.971  70.93   0
       426     56.6449     21.0288 300.2318853 +22.4008012     1420.453     72.74134      1.394     2.74     5.058529     20.51209      175.468        19     1.041     0.985  48.60   0
       427    900.2640     20.5809 300.4945739 +22.6533467     247.1466     72.66727      1.322     2.63     4.925479     20.51209     39.05334         5     0.690     0.481 -12.88   0
       428    540.3591     17.8480 300.3833361 +22.5448174     476.1985     72.75985      1.296     2.24     4.179208     20.51209     66.11234         7     0.765     0.591  65.48   0
       429    418.0697   1021.7020 300.0191582 +22.7963298     970.9734     66.59579      1.453     3.10     3.069883     20.51209     110.8808        16     1.054     0.938 -27.28  16
       430    348.6398   1019.8978 299.9981514 +22.7749698     6546.739     72.20258      1.567     3.23     2.909553     20.51209     647.0732        38     1.270     1.231  71.81  16
       431    189.3903   1020.2864 299.9485200 +22.7272640      708.873       71.283      2.584     4.15     11.39078     20.51209     28.62296         5     1.188     0.414 -76.64  17
