#   1 NUMBER                 Running object number                                     
#   2 X_IMAGE                Object position along x                                    [pixel]
#   3 Y_IMAGE                Object position along y                                    [pixel]
#   4 ALPHA_J2000            Right ascension of barycenter (J2000)                      [deg]
#   5 DELTA_J2000            Declination of barycenter (J2000)                          [deg]
#   6 FLUX_APER              Flux vector within fixed circular aperture(s)              [count]
#   7 FLUXERR_APER           RMS error vector for aperture flux(es)                     [count]
#   8 FLUX_RADIUS            Fraction-of-light radii                                    [pixel]
#   9 FWHM_IMAGE             FWHM assuming a gaussian core                              [pixel]
#  10 BACKGROUND             Background at centroid position                            [count]
#  11 THRESHOLD              Detection threshold above background                       [count]
#  12 FLUX_MAX               Peak flux above background                                 [count]
#  13 ISOAREA_IMAGE          Isophotal area above Analysis threshold                    [pixel**2]
#  14 A_IMAGE                Profile RMS along major axis                               [pixel]
#  15 B_IMAGE                Profile RMS along minor axis                               [pixel]
#  16 THETA_IMAGE            Position angle (CCW/x)                                     [deg]
#  17 FLAGS                  Extraction flags                                          
         1    234.4927     23.8716 300.2354706 +22.4424366     3994.524     72.53896      1.634     2.85     4.283848     20.42387     412.7081        40     1.433     1.276  69.67   0
         2    795.7743     16.6217 300.4124932 +22.6084316     846.9691     72.37316      1.347     3.03     5.010247     20.42387     126.3292        14     1.006     0.863 -80.07   0
         3    350.5294     16.1456 300.2740501 +22.4749800     1158.536     72.42847      1.430     2.73      4.27583     20.42387     135.3422        19     1.091     1.006 -40.93   0
         4    833.5482     11.6788 300.4258654 +22.6183144     561.5049      72.3916      1.563     3.51     4.764566     20.42387     63.61775        12     1.168     0.717  60.80   0
         5    757.1648     11.1489 300.4022373 +22.5953018        461.8      72.3916      1.401     4.18     5.101274     20.42387     52.78544        12     1.137     0.861  10.43   0
         6    853.7323      7.8345 300.4334013 +22.6232486     2145.445      72.3916      1.453     2.71     4.612914     20.42387      265.679        26     1.200     1.070  61.75  16
         7    559.2496      5.9906 300.3422781 +22.5345700     403.9383     72.41004      1.432     2.44     4.480801     20.42387     54.98513         6     0.719     0.554 -46.15   0
         8    237.2727      3.1474 300.2430489 +22.4373155     916.0294     65.58067      1.421     2.96     4.283848     20.42387     122.1501        14     1.046     0.829  39.07  24
         9    802.2993      1.3901 300.4194613 +22.6060030     398.6158     56.60029      0.924     2.70     5.111763     20.42387     106.5613         6     0.899     0.453  32.15  24
        10    797.3403   1007.7474 300.0911767 +22.8936772     585.0918      72.4469      1.891     6.13     2.974444     20.42387     41.00319        10     1.150     0.919  38.65   0
        11    262.7875   1020.3437 299.9207429 +22.7368869     1562.841     70.88231      7.517    24.80     73.08664     20.42387      62.1358        79     6.035     2.831 -25.07  27
        12    293.8079   1020.5299 299.9303241 +22.7462534     1563.341     70.39098      3.021    11.18      65.6788     20.42387     68.82233        38     2.498     1.575  -5.21  19
        13    308.8441   1017.7611 299.9358990 +22.7499736      1970.79     72.48374      4.655    18.91     48.88832     20.42387     48.71756        81     3.407     2.915 -40.82  19
        14    263.3737   1006.5630 299.9254084 +22.7331125     3948.737     72.41004      6.837    19.17       64.106     20.42387     83.08119       216     4.756     3.934 -42.70  19
        15    301.6444    994.5316 299.9412180 +22.7411525     7351.134     72.35471      8.294    26.73     42.93384     20.42387     159.8924       639     8.919     4.905  61.38  19
        16    234.9671   1017.8335 299.9129135 +22.7278145     3176.444     72.46532      5.864    24.43     74.95301     20.42387     71.48395       160     4.451     3.723  52.17  19
        17    238.0035   1010.0151 299.9164007 +22.7264850     1241.794     72.24394      3.048     8.29     69.15443     20.42387     57.08688        20     2.197     0.875 -59.10  19
        18    198.1955   1023.2227 299.8997339 +22.7183180     159.3026     58.70717      1.624     6.45     74.51823     20.42387     58.37627         9     1.471     0.794  26.39  24
        19    141.7413   1014.8793 299.8849094 +22.6989743     5351.468     72.42847     12.782    50.04     50.86807     20.42387     112.7325      1016    11.974     7.286  18.42  27
        20    139.5430    975.5916 299.8970068 +22.6870544     4975.934     72.37316     24.497    83.69     32.66768     20.42387     96.83824      3375    19.044    15.880 -19.32  19
        21    594.2934    968.2489 300.0407985 +22.8214386     383.0324     72.42847      1.959     5.16     3.095214     20.42387     39.75748         7     1.299     0.620  26.72   0
        22    623.5297    964.6750 300.0510617 +22.8291839     1546.067     72.46532      1.847     4.04     3.088977     20.42387     112.5516        24     1.288     1.168 -10.52   0
        23    517.4958    961.0831 300.0192296 +22.7963418     903.5322     72.57576      1.803     4.96     3.034484     20.42387     70.92523        18     1.305     0.993  54.12   0
        24    448.0248    959.2062 299.9982271 +22.7749575     6643.144     72.37316      1.827     3.83     3.101626     20.42387     502.1928        45     1.425     1.418 -75.89   0
        25    186.7700    990.5132 299.9068249 +22.7055121     612.9196      72.3916      2.318     4.28      53.2308     20.42387     38.90331         5     0.898     0.583  47.61   0
        26    480.6946    946.0754 300.0126611 +22.7809945     513.1766     72.53896      1.631     5.48     3.021471     20.42387     48.03035        11     1.094     0.873  56.06   0
        27    139.5385    937.1690 299.9095022 +22.6760403      3600.23     72.41004     15.259    45.17     15.77499     20.42387     88.39091       672     9.165     6.179 -49.17   3
        28    209.6775    977.0999 299.9183057 +22.7085453     1417.414     72.55737      4.085    13.30     46.96941     20.42387     43.34836        28     3.070     1.603  44.62   2
        29    994.3322    937.9459 300.1752812 +22.9327007     2292.626     72.42847      2.191     5.01     3.108397     20.42387      115.965        37     1.577     1.476  52.07   0
        30    644.4817    934.3788 300.0674389 +22.8267758     474.2072     72.35471      1.994     4.26     3.080662     20.42387     45.34759         6     1.022     0.529  59.60   0
        31    783.0770    926.9034 300.1130323 +22.8661960     695.8781     72.52056      2.066     5.55     3.458215     20.42387     47.24884        14     1.376     0.937  27.88   0
        32    227.3521    989.3843 299.9198020 +22.7173732     775.3927     72.42847      2.564     7.47     56.24382     20.42387     33.06642        15     1.303     1.199  14.91   3
        33    230.5804   1003.4728 299.9162221 +22.7223810     886.2961      72.3916      3.110    12.51     65.23705     20.42387     43.98371        26     2.966     1.469 -50.96   3
        34    595.4782    922.2551 300.0561274 +22.8085977     410.8237     72.42847      1.671     3.20     3.123131     20.42387     39.50319         5     0.804     0.658 -47.08   0
        35    715.0331    974.0409 300.0765057 +22.8593186     6700.405      72.4469      1.873     3.98     3.136739     20.42387     386.4192        47     1.480     1.425 -21.99   0
        36     28.5471    918.3123 299.8811647 +22.6373071     551.7977     72.42847      1.464     3.25     3.480157     20.42387     59.49425         8     0.914     0.652  86.49   0
        37    840.1753    914.8353 300.1347469 +22.8798521     11284.66     72.41004      1.828     3.81     3.440005     20.42387     714.8927        53     1.493     1.413 -39.36   0
        38    817.7440    921.0853 300.1257249 +22.8749208     1000.567     72.48374      1.813     4.59     3.459082     20.42387       72.978        20     1.263     1.088 -15.70   0
        39    229.7643    997.8083 299.9178113 +22.7205122     1364.957      72.3916      2.898    10.39     61.96733     20.42387     49.23924        25     2.320     1.297 -11.79   3
        40    885.9660    914.8034 300.1490270 +22.8935712     450.9282      72.3916      1.658     5.63     3.332247     20.42387     45.74922        10     1.545     0.651 -29.99   0
        41    152.0707    906.2607 299.9234467 +22.6709431      800.695     72.42847      2.328     6.67     10.90756     20.42387     49.48188        13     1.373     1.052  51.15   0
        42    544.9922    903.2047 300.0466102 +22.7879868     425.5473     72.24394      1.687     5.81     3.220707     20.42387     39.84141         8     1.255     0.757  29.11   0
        43    848.6304    896.8581 300.1432282 +22.8772258     1411.104     72.41004      1.834     4.25       3.4322     20.42387     86.39838        25     1.315     1.194  43.28   0
        44    230.7453    993.5641 299.9194968 +22.7195901     894.9167     72.41004      2.421     7.58     59.12908     20.42387     46.61541        12     1.424     1.129 -26.14   3
        45    700.2048    894.9574 300.0976103 +22.8321751     829.1229     72.41004      1.964     8.17     3.236658     20.42387     243.2561        15     1.598     1.167 -17.56   0
        46    886.8539    890.3578 300.1572540 +22.8868185     854.7338      72.3916      1.982     4.23     3.357363     20.42387     71.31091        17     1.198     1.051 -42.42   0
        47    935.3932    881.6163 300.1752264 +22.8988584     567.9978     72.31781      1.596     3.88     3.277331     20.42387     70.16589         9     1.016     0.882  36.71   0
        48    786.4311    880.6917 300.1291061 +22.8539362     679.3715     72.33627      1.661     4.92     3.460817     20.42387     82.12936        12     1.321     0.720  -7.06   0
        49    499.1249    876.9180 300.0408859 +22.7666849     4101.806     72.50215      1.664     3.30     3.456909     20.42387      404.181        35     1.350     1.254  38.66   0
        50     46.1807    878.6711 299.8995297 +22.6312413     504.2344     72.42847      1.863     4.98     3.369146     20.42387     39.41853         8     1.089     0.644  60.80   0
        51    797.8728    877.6780 300.1336506 +22.8565015     585.7872     72.50215      1.551     5.55     3.471223     20.42387     54.55079        13     1.027     0.963 -46.92   0
        52    277.9698    865.6474 299.9757749 +22.6970909     309.2766     72.41004      1.401     3.95     4.741843     20.42387     42.93568         5     1.062     0.420  66.51   0
        53    542.2820    864.5095 300.0583496 +22.7760713     387.5469     72.50215      1.841     4.50     3.413006     20.42387     33.67721         5     1.214     0.473  57.82   0
        54    224.5502    862.8279 299.9600890 +22.6802488     882.1859     72.41004      1.913     4.86      4.88274     20.42387     65.04872        15     1.249     0.946  65.39   0
        55    282.4772   1005.4246 299.9317164 +22.7385214     4859.642     72.41004      8.706    29.53     60.42653     20.42387     87.26344       368     6.552     4.770 -60.83  19
        56    132.4527    861.3923 299.9319413 +22.6521909     356.0271      72.3916      1.775     5.65     4.250308     20.42387     30.40085         7     1.095     0.822  19.51   0
        57    201.3878    859.5963 299.9539420 +22.6723697     1540.291     72.24394      1.818     4.58     4.811959     20.42387     128.8851        25     1.343     1.226  15.61   0
        58     76.8370    849.7036 299.9184674 +22.6321429     312.7335      72.3916      1.535     5.01     3.416083     20.42387      30.8944         7     0.987     0.720  10.63   0
        59    732.7593    847.7448 300.1231009 +22.8283852     474.4041     72.37316      1.799     4.06     3.463469     20.42387      42.5207         6     1.086     0.434  -2.24   0
        60    810.9326    840.9310 300.1496681 +22.8498668     622.3126      72.4469      1.776     4.18     3.524161     20.42387     67.23817        10     1.069     0.809  60.49   0
        61    233.7413    841.2527 299.9699596 +22.6768209     412.9459      72.4469      1.589     5.78      4.35794     20.42387     52.66568        11     1.191     0.790 -59.81   0
        62    679.2491    834.9902 300.1105837 +22.8086786     4763.182     72.41004      1.592     3.17     3.303366     20.42387     411.6252        35     1.276     1.226 -18.00   0
        63    169.0086    835.4762 299.9517231 +22.6557345     406.1152     72.35471      1.693     5.01     4.210464     20.42387     42.06672        10     1.105     0.643  65.10   0
        64    481.5074    832.0262 300.0500005 +22.7485199     643.3385     72.33627      1.611     4.76     3.494511     20.42387      53.2005        13     1.253     0.792 -37.86   0
        65    229.4044    828.5944 299.9727269 +22.6718893     1410.706     72.24394      1.821     4.15     4.101796     20.42387     114.4884        21     1.267     1.113 -86.48   0
        66    699.8058    827.6815 300.1193612 +22.8127448     674.1899     72.31781      1.564     3.79     3.414541     20.42387     61.35858        12     0.945     0.874 -79.16   0
        67    498.1509    826.7861 300.0568823 +22.7520090     309.9277     72.42847      1.354     3.87     3.460678     20.42387     38.18213         7     0.868     0.588  30.25   0
        68    249.3126    826.0952 299.9797265 +22.6771476     436.4706     72.57576      1.585     3.15     4.003626     20.42387     46.39977         7     0.817     0.606 -73.02   0
        69    616.2675    818.5505 300.0963196 +22.7850729     206.6592      72.3916      1.187     3.34     3.407593     20.42387     37.12376         5     0.752     0.431 -23.81   0
        70    855.2488    814.8762 300.1719477 +22.8556700     4144.318      72.3916      1.677     3.35     3.485182     20.42387     292.5478        37     1.325     1.284 -18.13   0
        71    263.6580    808.7470 299.9898245 +22.6764776     517.4868      72.4469      1.519     4.95     3.643675     20.42387     53.40729         9     1.074     0.844 -30.12   0
        72    571.9816    807.3843 300.0861648 +22.7685866     612.6104     72.37316      1.555     4.18     3.416799     20.42387     60.07528        12     1.231     0.744 -33.91   0
        73    218.6061    805.3110 299.9769398 +22.6619715     948.6199     72.29935      1.641     3.93       3.5551     20.42387     95.06501        16     1.078     1.040  61.19   0
        74    633.7786    800.6291 300.1075969 +22.7851804     461.2056      72.3916      1.433     2.56     3.444391     20.42387     60.49316         7     0.796     0.616  66.90   0
        75    368.2503    797.2895 300.0260654 +22.7045758     53066.32      72.3916      1.644     3.07     3.514478     20.42387       4807.4       102     1.499     1.427  43.80   0
        76    626.2145    796.4199 300.1066104 +22.7817039      1659.25     72.37316      1.585     3.06     3.455614     20.42387     150.5222        21     1.193     0.984  22.65   0
        77    296.7191    795.6071 300.0043723 +22.6826301     499.9783     72.31781      1.607     5.92     3.498524     20.42387     42.72203        10     1.319     0.771  50.28   0
        78    341.9418    794.9644 300.0186407 +22.6960153     313.8595      72.3916      1.358     3.73     3.538999     20.42387     30.01411         5     0.635     0.630 -20.95   0
        79     21.8055    792.3997 299.9200059 +22.5991940     718.7219     72.20698      1.769     3.98     3.372056     20.42387     68.39806        12     1.217     0.834  64.44   0
        80    655.1353    792.3439 300.1169393 +22.7892063     823.2479      72.4469      1.522     3.12     3.452127     20.42387     87.81277        14     1.095     0.821 -30.17   0
        81     54.6189    791.7878 299.9303936 +22.6088699     826.8878     72.35471      1.732     4.29     3.378326     20.42387     74.74261        17     1.155     1.080  77.95   0
        82    665.7369    790.8675 300.1207202 +22.7919614      574.699      72.4469      1.364     3.47     3.447734     20.42387     65.42818        11     1.025     0.710  11.23   0
        83    771.6752    786.6997 300.1550684 +22.8225268     393.9044     72.52056      1.526     4.10     3.628956     20.42387     46.71918        10     0.970     0.747 -37.01   0
        84    808.9631    777.2221 300.1697657 +22.8309830     733.8866     72.41004      1.578     4.30     3.578496     20.42387     68.81252        16     1.268     0.919  60.87   0
        85    417.9671    774.5557 300.0489163 +22.7129692     31033.16     72.42847      1.573     3.05     3.627353     20.42387     2829.713        78     1.410     1.377  78.22   0
        86    432.2888    774.9777 300.0532338 +22.7173866     1897.674     72.31781      1.680     3.00     3.627353     20.42387     189.2601        24     1.287     1.026  49.05   2
        87    428.8936    769.0832 300.0540936 +22.7146768     682.6442     72.57576      1.700     4.59     3.678869     20.42387     54.14172        12     1.073     0.838  22.21   2
        88    941.1819    770.5977 300.2131256 +22.8687078     2754.629     72.29935      1.746     3.50     3.529594     20.42387     201.8724        31     1.322     1.201 -61.85   0
        89    698.8476    766.6533 300.1389012 +22.7949376     997.9617     72.42847      1.566     3.73     3.527926     20.42387      99.2059        17     1.175     0.922  49.12   0
        90    535.2671    766.4844 300.0880330 +22.7458373     413.8392     72.50215      1.545     5.66     3.559918     20.42387     48.04241        10     1.197     0.753  32.88   0
        91    300.2907    766.2678 300.0150185 +22.6752861     859.6863     72.52056      1.597     4.96     3.520745     20.42387     80.31968        19     1.319     1.068  43.88   0
        92    105.3906    762.3470 299.9557300 +22.6156703     409.4617      72.3916      1.606     5.82     3.384329     20.42387     46.49086         8     1.194     0.800 -53.69   0
        93    546.1935    761.1095 300.0931802 +22.7475716     917.4872     72.29935      1.592     3.73     3.551784     20.42387     78.80977        14     1.098     0.938  42.99   0
        94    947.1167    758.1518 300.2190211 +22.8669111     516.1009      72.3916      1.421     4.58     3.571349     20.42387     48.96556         9     0.948     0.762 -13.67   0
        95    491.9046    756.4716 300.0777945 +22.7299584     424.9295     72.50215      1.445     3.96     3.752586     20.42387     46.34988         8     0.872     0.688 -44.02   0
        96    448.2757    757.4607 300.0639000 +22.7171559     266.1073      72.4469      1.228     3.40       3.7819     20.42387     39.70073         5     0.768     0.436  22.44   0
        97    403.8092    756.6193 300.0503424 +22.7035757     246.5227     72.37316      1.476     4.19     3.777201     20.42387      31.8152         5     0.957     0.741 -85.82   0
        98    700.8599    755.2787 300.1432249 +22.7922752     258.2273     72.42847      1.431     4.71     3.534352     20.42387     32.10137         6     0.985     0.638  64.52   0
        99    133.6805    755.7394 299.9666649 +22.6222670     548.9105      72.4469      1.752     4.63     3.375763     20.42387     53.48368         9     1.020     0.849   5.61   0
       100    924.8245    753.1609 300.2136939 +22.8587973     463.7157     72.41004      1.568     4.24     3.482219     20.42387     46.31953         6     0.789     0.650  11.24   0
       101    298.2277    750.8802 300.0193780 +22.6702531     533.3066     72.41004      1.409     4.08     3.520798     20.42387     55.23375         9     0.959     0.730   2.65   0
       102    727.0098    746.7971 300.1541255 +22.7976796     784.9646     72.20698      0.539     0.99     3.617887     20.42387     543.5945         6     0.473     0.341 -76.34   0
       103    621.1720    741.1931 300.1229907 +22.7643390     480.4081      72.3916      1.552     5.62     3.593394     20.42387     43.21086        10     0.972     0.916  -3.68   0
       104    590.9373    739.1602 300.1142396 +22.7546895     568.5494      72.3916      1.626     4.59     3.633539     20.42387     55.18726        12     1.128     0.821 -69.22   0
       105   1007.5707    735.8858 300.2451072 +22.8786282     4501.837      72.3916      1.776     3.59     4.001501     20.42387     321.8156        39     1.356     1.337 -47.00   0
       106    612.9935    736.7944 300.1218742 +22.7606240     1439.447     72.24394      1.598     3.43      3.62778     20.42387      134.451        22     1.252     1.073 -56.40   0
       107    532.5869    735.9405 300.0971256 +22.7362672     245.9323     72.37316      1.442     2.85     3.703255     20.42387     52.00166         6     0.927     0.630 -11.89   0
       108    995.9782    727.3391 300.2442700 +22.8726995     1579.517     72.37316      1.660     3.46     3.941374     20.42387     130.3414        23     1.230     1.097  41.56   0
       109    358.7855    721.2083 300.0478483 +22.6799090     819.3344     72.29935      1.476     3.42     3.866439     20.42387     94.27798        10     0.978     0.670   7.13   0
       110    822.5015    718.4965 300.1930703 +22.8181759     2684.858     72.57576      1.713     3.31     3.573546     20.42387     220.2374        33     1.481     1.161  10.44   0
       111     44.8412    708.6713 299.9543671 +22.5821050     891.4559     72.37316      1.819     4.27     3.673592     20.42387     86.60918        20     1.297     1.129 -26.14   0
       112    905.1136    704.3508 300.2234125 +22.8388697     727.1553      72.3916      2.068     4.72       3.6864     20.42387     59.31639        11     1.220     0.794 -67.80   0
       113    207.5855    704.9282 300.0061376 +22.6298742     607.9242      72.3916      1.506     5.32     3.634988     20.42387     71.66373        14     1.419     0.811 -21.45   0
       114    940.7760    695.4620 300.2374178 +22.8470018     146832.8     72.37316      1.662     3.16      3.79944     20.42387     12824.28       179     1.584     1.542  83.73   0
       115    703.2571    699.3648 300.1621420 +22.7769395     418.7715     72.41004      1.608     3.77     3.651791     20.42387      44.0546         6     1.121     0.522  27.93   0
       116    792.8956    695.8325 300.1912109 +22.8027934     818.0873     72.37316      1.539     3.59     3.600881     20.42387     83.33834        14     1.027     0.970 -30.62   0
       117    973.9962    688.0641 300.2501787 +22.8548293     368.2618     72.37316      1.452     4.03      3.95035     20.42387     39.26361         7     0.909     0.511 -43.60   0
       118    808.2977    681.5532 300.2006493 +22.8033083     9533.921     72.42847      1.563     2.90     3.632355     20.42387     930.6157        52     1.319     1.296 -27.04   0
       119    627.0239    684.1842 300.1433375 +22.7497270     1631.049      72.3916      1.440     2.96     3.938047     20.42387     180.4117        20     1.074     0.997  27.39   0
       120    290.3208    683.2276 300.0389027 +22.6484728     226.6277     72.41004      1.376     3.78     3.808103     20.42387     42.82345         5     0.765     0.684 -22.35   0
       121    309.6817    676.5737 300.0470832 +22.6523720      4894.91     72.37316      1.596     2.99     3.852575     20.42387     525.3409        36     1.299     1.215  35.01   0
       122     23.6107    674.8746 299.9587547 +22.5660418      1629.72     72.41004      1.709     3.31     4.061023     20.42387     168.2684        27     1.319     1.193 -88.95   0
       123    391.7610    674.5118 300.0732753 +22.6764014     1055.196     72.37316      1.374     3.06      3.65003     20.42387     131.2953        15     1.054     0.880  77.35   0
       124    267.5007    672.7201 300.0352228 +22.6386120     408.3571     72.52056      1.468     3.44     3.869277     20.42387     50.64215         9     1.016     0.675 -40.17   0
       125    599.8190    670.3494 300.1393635 +22.7375986     750.8831     72.37316      1.481     3.46     4.106963     20.42387     73.35712        11     0.996     0.767  37.45   0
       126    591.6916    662.3367 300.1394368 +22.7328615     3163.215     72.50215      1.435     2.52     4.100669     20.42387     365.3473        25     1.138     1.034  10.01   0
       127    581.8847    656.1870 300.1383821 +22.7281556     1379.833     72.33627      1.400     2.59     4.090417     20.42387     181.9274        18     1.084     0.884  42.81   0
       128    442.1340    656.8640 300.0946764 +22.6864446     1089.042      72.4469      0.547     2.32     3.747671     20.42387      745.468         6     0.435     0.375 -41.36   0
       129    975.5052    654.1862 300.2616566 +22.8455471     450.2292     72.31781      1.296     3.20     4.079768     20.42387     56.24627        10     0.943     0.726  -0.17   0
       130    492.7261    652.5838 300.1118064 +22.7003878     234.8967      72.3916      1.271     3.85     3.977543     20.42387     38.61507         5     0.995     0.427 -81.81   0
       131    245.2458    652.2208 300.0349649 +22.6260541     690.7321      72.4469      1.612     3.46     3.899695     20.42387     69.42958        12     1.034     0.839  64.18   0
       132    259.4861    650.5424 300.0399362 +22.6298448     548.8799     72.50215      1.549     3.63     3.901144     20.42387     72.20075        13     1.074     0.943  37.62   0
       133    316.4742    647.8042 300.0585411 +22.6461549     381.8555     72.29935      1.456     3.71     3.904111     20.42387     42.34833         7     1.000     0.601 -11.73   0
       134    285.2389    647.3491 300.0489786 +22.6366544      447.764     72.41004      1.302     3.10     3.906937     20.42387     75.58905         9     0.845     0.719 -73.52   0
       135    606.1006    646.5937 300.1490365 +22.7326614      439.771     72.28088      1.456     3.66     4.141362     20.42387     49.99171         9     0.958     0.770  -0.83   0
       136    506.6119    645.8326 300.1183202 +22.7026137     1753.028     72.37316      1.446     2.68     4.000329     20.42387     211.2524        21     1.142     0.990  46.19   0
       137    160.6521    640.7460 300.0124052 +22.5973812     19593.25     72.42847      1.675     3.32     4.016439     20.42387     1874.143        65     1.465     1.357  46.06   0
       138     81.7119    642.3950 299.9873481 +22.5741657     821.1746     72.29935      2.188     4.85     4.051465     20.42387     67.84669        13     1.244     0.860   0.10   0
       139    591.6234    641.2781 300.1462568 +22.7267949     1076.272     72.37316      1.462     3.08      4.12633     20.42387     105.4531        17     1.045     0.970   6.55   0
       140    626.8920    640.1774 300.1575934 +22.7370521      412.198     72.31781      1.354     4.52     4.098832     20.42387     43.41039         8     0.787     0.739  50.30   0
       141    344.8617    632.8486 300.0722254 +22.6503784     330.7907      72.4469      1.446     3.94     3.922644     20.42387     46.08678         6     0.768     0.580  36.21   0
       142    106.5028    625.1322 300.0006552 +22.5766542      1475.39     72.50215      1.926     4.57     4.074741     20.42387     102.8072        26     1.441     1.183  88.60   0
       143    876.3488    625.5546 300.2400480 +22.8076138     536.7238     72.41004      1.632     4.22     3.785508     20.42387     44.26872        11     1.110     0.766  65.52   0
       144    173.7396    625.4825 300.0214293 +22.5969297      275.348     72.50215      1.125     4.21     4.036779     20.42387     47.56215         7     0.967     0.522 -57.27   0
       145    950.0084    620.4766 300.2646583 +22.8282226     738.2143     72.35471      2.110     4.60     4.037025     20.42387     58.28017        14     1.236     0.958 -36.40   2
       146    414.1656    619.6810 300.0980552 +22.6673849     223.3685     72.33627      1.552     5.16     3.877835     20.42387     29.05686         5     1.052     0.714 -76.06   0
       147   1009.9191    627.5908 300.2810277 +22.8482133     1001.746     72.33627      1.656     3.70     4.376387     20.42387     84.08147        17     1.231     0.897 -14.00   0
       148    511.7647    614.1512 300.1302146 +22.6950639     780.2827     72.42847      1.366     2.36     4.047759     20.42387     102.3542        10     0.850     0.717 -32.10   0
       149    659.9930    612.6185 300.1768514 +22.7390607     600.9664     72.35471      1.594     3.50     4.157716     20.42387     66.95799        10     0.955     0.800 -26.79   0
       150    706.8018    611.1912 300.1918914 +22.7526806     522.9689     72.20698      1.489     3.43     4.138093     20.42387     59.74173         9     0.948     0.649  29.96   0
       151    677.6949    610.8146 300.1829494 +22.7438485      511.947     72.31781      1.232     2.34      4.16264     20.42387     85.76945         8     0.788     0.662 -79.86   0
       152    556.0305    609.8056 300.1454016 +22.7070879     972.4652      72.3916      1.566     3.90     4.130519     20.42387     90.61347        15     1.176     0.896  13.57   0
       153    989.7235    605.5141 300.2819015 +22.8358195     3334.421     72.50215      1.570     2.86     4.350364     20.42387     323.1891        27     1.225     1.117  88.58   0
       154    521.5471    605.4193 300.1360948 +22.6954901     1619.875     72.37316      1.416     2.63     4.084375     20.42387     179.9502        18     1.050     0.948 -81.29   0
       155    886.2714    602.9716 300.2504762 +22.8040983      365.979      72.3916      1.609     3.43     3.819418     20.42387     44.09545         6     0.839     0.756 -16.37   0
       156     83.4657    598.9374 300.0020074 +22.5622280     4902.041     72.42847      1.665     3.31     4.099269     20.42387     487.4758        34     1.335     1.232  48.72   0
       157    550.8388    596.0158 300.1482647 +22.7015722     305.0211     72.41004      1.376     3.44       4.1717     20.42387     37.08421         5     0.805     0.487 -27.46   0
       158    384.9411    592.0917 300.0979266 +22.6507020     8989.444     72.46532      1.468     2.70     3.918083     20.42387     1012.297        48     1.275     1.254  28.00   0
       159    507.4031    589.1420 300.1369802 +22.6865763     9066.375     72.35471      1.402     2.50     4.089199     20.42387     1020.257        41     1.195     1.168  36.42   0
       160    918.9503    583.1921 300.2670867 +22.8082048     1851.017      72.3916      1.511     3.07     3.842853     20.42387     183.3429        23     1.185     1.086 -70.99   0
       161   1003.7335    580.5287 300.2943856 +22.8328350      12544.1     72.42847      1.611     2.98     4.462626     20.42387     1198.503        49     1.342     1.285 -32.56   0
       162    567.9719    578.7700 300.1591981 +22.7017567     11500.21      72.3916      1.410     2.55     4.314299     20.42387     1457.213        48     1.239     1.161  71.47   0
       163    737.4141    574.6669 300.2132886 +22.7513640     546.4951     72.37316      1.487     3.86     4.282078     20.42387     60.56577        13     1.182     0.823  31.51   0
       164    295.5025    574.2056 300.0759255 +22.6187448     1389.646     72.29935      1.499     3.08     3.958947     20.42387     159.4055        21     1.158     1.067  54.17   0
       165    453.5224    573.5507 300.1252799 +22.6659453     327.3923      72.3916      1.391     3.74     3.962995     20.42387     41.51422         6     0.953     0.422 -17.97   0
       166    541.9928    571.4463 300.1534911 +22.6918657     358.7099     72.41004      1.423     3.43     4.212445     20.42387     46.57607         9     0.972     0.643  52.96   0
       167    842.2894    566.9978 300.2484531 +22.7805852     801.0469     72.29935      1.398     3.20     3.905973     20.42387     91.34461        15     1.142     0.830  49.16   0
       168    499.6068    566.8438 300.1417959 +22.6778370     4479.359     72.41004      1.439     2.52     4.122289     20.42387     569.8128        32     1.182     1.110  69.70   0
       169    477.8436    565.3384 300.1355133 +22.6708799     1186.773      72.3916      1.286     2.61     4.067587     20.42387     158.3707        15     1.049     0.803  56.74   0
       170    232.3112    564.6539 300.0593852 +22.5970496     725.8893     72.42847      1.555     3.78      3.96198     20.42387     84.87002        15     1.202     0.886 -27.08   0
       171    919.4852    562.6112 300.2739376 +22.8024508     1682.837     72.33627      1.626     3.19     3.812506     20.42387     162.4277        22     1.165     1.062 -55.20   0
       172    616.2709    554.4843 300.1821194 +22.7092605     199657.2     72.50215      1.404     2.45     4.768948     20.42387     22792.91       209     1.488     1.469   2.16   0
       173    799.8504    559.5950 300.2376336 +22.7657431     827.4291     72.37316      1.450     3.00     4.189433     20.42387     93.65668        13     1.001     0.817 -60.46   0
       174    439.8882    560.4352 300.1252976 +22.6580920     265.9079     72.37316      1.271     4.07     3.889254     20.42387     43.36334         7     1.105     0.484   6.28   0
       175   1003.8248    556.6287 300.3021762 +22.8259930     336.1193      72.3916      1.587     3.14     4.470044     20.42387     43.05614         7     0.823     0.620 -29.67   0
       176    869.6087    555.1659 300.2608094 +22.7853701     263.9572      72.3916      1.718     3.74     3.786598     20.42387      36.7439         5     1.082     0.485  86.55   1
       177    302.3103    554.4205 300.0844667 +22.6151087      3425.47     72.33627      1.494     2.74       3.9541     20.42387     382.1057        30     1.211     1.123  48.99   0
       178    867.9683    550.5708 300.2617904 +22.7835583     466.6964      72.3916      1.519     5.07     3.785699     20.42387     51.26835        10     1.069     0.830  46.75   0
       179    886.4105    548.5913 300.2681811 +22.7885142     123.4488     72.28088      1.213     4.16     3.787554     20.42387     30.88777         5     1.003     0.492 -89.68   0
       180    647.7320    541.5016 300.1961302 +22.7149613      137.635     72.48374      0.846     3.42     4.684281     20.42387     39.70266         5     0.749     0.451  21.13   0
       181    506.8223    535.0447 300.1543669 +22.6708701     2829.783      72.4469      1.574     2.58      4.19345     20.42387     347.7696        35     1.583     1.107 -85.27   0
       182    351.2105    536.6839 300.1054300 +22.6246832     379.5197     72.35471      1.266     2.24     3.924873     20.42387     51.59492         5     0.704     0.446 -13.81   0
       183    956.4998    535.0082 300.2944409 +22.8056049     234.1767     72.29935      1.386     4.67       4.0484     20.42387     30.11311         5     1.042     0.594  17.37   0
       184    918.4093    531.2430 300.2837887 +22.7931138     431.9417     72.41004      2.124     5.20     3.819813     20.42387     39.08125         7     1.155     0.662   8.53   0
       185    824.0602    523.4136 300.2569260 +22.7626008     501.3685     72.35471      1.668     5.07     4.221805     20.42387     46.76501        10     1.009     0.917 -75.46   0
       186    903.8823    521.0256 300.2825781 +22.7858261     1731.752     72.37316      1.490     2.92     3.891803     20.42387     168.6154        24     1.162     1.052  18.97   0
       187    775.0561    518.6671 300.2431992 +22.7465555     2543.119      72.4469      1.349     2.38     4.377046     20.42387     352.6517        22     1.055     1.011  83.77   0
       188     33.8697    519.6026 300.0123656 +22.5245900     778.6329     72.33627      1.653     3.88     3.999753     20.42387     69.47284        12     0.988     0.891  -0.33   0
       189   1019.4635    516.3829 300.3201222 +22.8191080     404.1081     72.37316      1.314     2.47     4.696977     20.42387     58.31001         5     0.714     0.468  19.55  18
       190   1018.6617    511.9364 300.3213159 +22.8175896     901.4247     72.42847      2.031     4.54     4.708772     20.42387     70.53338        16     1.325     0.930  76.98  18
       191    679.7510    515.3206 300.2146013 +22.7170368     489.4846      72.3916      1.987     3.84     4.464225     20.42387     44.48462         6     0.876     0.683   5.63   0
       192    562.1685    514.5924 300.1782316 +22.6815878     696.6439      72.3916      1.213     2.49     4.450086     20.42387     92.60494        11     0.855     0.811 -20.13   0
       193    904.1089    511.1581 300.2858527 +22.7830582     2356.964      72.3916      1.791     3.60     3.936224     20.42387     258.7049        28     1.467     1.083  77.90   0
       194    657.4898    509.1662 300.2096677 +22.7085980     775.8845     72.37316      1.558     2.80     4.565745     20.42387     76.48312        10     0.939     0.671  28.50   0
       195    496.0473    508.1417 300.1597491 +22.6599151     422.1924      72.4469      1.364     2.37     4.182795     20.42387     64.71709         8     0.815     0.612 -46.92   0
       196    942.3474    506.1414 300.2994018 +22.7930693     4228.084      72.4469      1.490     2.79     3.952037     20.42387     414.7002        33     1.198     1.169 -89.65   0
       197    602.8387    502.0338 300.1949685 +22.6901708     246.0945     72.42847      1.346     2.77     4.845722     20.42387     48.39362         5     0.776     0.492  29.38   0
       198    174.3519    496.3287 300.0635578 +22.5600584     1107.398     72.37316      1.572     3.21      4.05004     20.42387     113.0745        18     1.170     0.975 -26.02   0
       199    835.4024    490.6385 300.2711017 +22.7565807     239.2807     72.41004      1.014     2.95     4.343491     20.42387     50.42668         6     0.859     0.479  -2.83   0
       200    167.0125    486.1439 300.0645836 +22.5549344     489.3872      72.3916      1.775     4.36     4.056252     20.42387     50.57983         8     0.967     0.660  88.06   0
       201    774.6360    480.6487 300.2554117 +22.7355061      520.249     72.42847      1.461     2.99     4.394276     20.42387     54.07623        10     0.832     0.827  65.22   0
       202    383.6444    478.7034 300.1343399 +22.6177646     324.7279     72.41004      1.122     3.44      4.05529     20.42387     35.79993         5     0.742     0.461  77.35   0
       203    663.3993    477.8065 300.2216888 +22.7013606     250.2599     72.20698      1.265     2.96     4.452152     20.42387     39.04305         6     0.927     0.603  60.75   0
       204    715.6816    476.4731 300.2384033 +22.7166433     872.1474     72.52056      1.512     3.01     4.399758     20.42387     85.14795        16     1.067     0.896 -26.74   0
       205    776.3872    468.7963 300.2598049 +22.7326251     899.7905     72.22546      1.450     2.37     4.326826     20.42387     117.0188        15     0.958     0.879  -3.65   0
       206    933.7960    465.1187 300.3100542 +22.7787169     957.0867     72.31781      1.384     2.95     3.887501     20.42387     116.1079        13     1.060     0.859  66.10   0
       207    918.0366    461.1504 300.3064295 +22.7728566     688.3335     72.41004      1.573     4.59     3.912508     20.42387     73.02276        10     1.010     0.801  62.17   0
       208    662.2753    459.4053 300.2273122 +22.6957376     3249.021     72.31781      1.318     2.38     4.416012     20.42387     384.6605        23     1.070     0.968 -76.07   0
       209   1022.7170    458.1890 300.3400303 +22.8033523     452.8045     61.50536      1.470     2.27     4.571726     20.42387     65.12988         7     0.890     0.669  56.40  24
       210    138.3668    450.4232 300.0672782 +22.5360919      390.658      72.3916      1.623     5.51      4.05449     20.42387     38.44638         8     1.163     0.737  68.55   0
       211    667.7812    447.6602 300.2328391 +22.6940132       187.06     72.33627      1.061     3.43     4.368526     20.42387     32.71925         5     0.760     0.448  14.50   0
       212    502.2297    446.3761 300.1817234 +22.6440314     335.7777      72.3916      1.203     2.39     4.161684     20.42387     48.48943         5     0.708     0.451  18.94   0
       213    945.3843    438.4156 300.3223350 +22.7745113     635.8363     72.35471      1.691     4.78     3.928123     20.42387     61.80289        13     1.201     0.882  74.43   0
       214    682.2975    435.4234 300.2413313 +22.6948471     307.2709     72.31781      1.342     2.99     4.341628     20.42387     46.49183         5     0.883     0.492   3.60   0
       215    773.0374    433.3072 300.2702812 +22.7214236     1083.252      72.3916      1.426     2.94     4.143691     20.42387     125.6573        18     1.151     0.969  54.20   0
       216    568.8560    433.8757 300.2065155 +22.6604096     492.9321     72.42847      1.578     3.43     4.295343     20.42387     50.53017        10     0.944     0.731  70.03   0
       217    276.8402    431.4422 300.1164713 +22.5721729      675.319     72.48374      1.596     3.29     4.324822     20.42387     87.42277        14     1.036     0.937  74.77   0
       218    339.2431    427.1869 300.1372536 +22.5896621     3636.188     72.41004      1.385     2.57     4.263137     20.42387     400.2655        28     1.188     1.031  53.86   0
       219    286.4457    421.9930 300.1225240 +22.5723407     7554.644     72.41004      1.456     2.63     4.465114     20.42387     909.6473        42     1.287     1.151  55.68   0
       220    427.1947    416.2524 300.1681557 +22.6128893     4850.747     72.37316      1.365     2.50      4.14297     20.42387     517.2833        35     1.194     1.106  70.86   0
       221    671.4049    412.9393 300.2452368 +22.6851236     18515.57     72.35471      1.377     2.42       4.3082     20.42387     2269.409        62     1.358     1.191  33.58   0
       222    689.3543    412.9790 300.2508135 +22.6905127     810.7991      72.4469      1.934     7.05     4.304998     20.42387     69.64041        18     1.612     0.970 -36.88   0
       223    530.1440    409.7884 300.2022847 +22.6418894     462.9367     72.37316      2.362     6.58     4.165309     20.42387     28.20134         8     1.943     0.625   6.54   0
       224    868.3666    403.4317 300.3096820 +22.7413904     426.1261     72.41004      1.463     3.88     3.847071     20.42387     50.89247         7     1.017     0.516  47.03   0
       225    291.4165    399.6470 300.1313210 +22.5674161     334.0623     72.42847      1.364     4.10     4.542538     20.42387     38.05801         7     0.972     0.711 -52.70   0
       226   1005.0914    395.7151 300.3548113 +22.7801126     751.5972     72.55737      1.538     4.17     4.260548     20.42387     74.51591        15     1.319     0.871 -32.13   0
       227    542.0607    394.7204 300.2108832 +22.6411326     454.5302      72.4469      1.482     2.44     4.205763     20.42387     51.37484         7     0.720     0.647   3.55   0
       228    226.2023    393.0124 300.1132029 +22.5459573     2034.915     72.20698      1.536     2.85     4.115149     20.42387     209.0656        25     1.169     1.120 -88.42   0
       229    612.1128    382.3735 300.2366950 +22.6585769     6518.329     72.37316      1.355     2.43     4.279263     20.42387     849.5347        36     1.160     1.075  78.47   0
       230    326.9586    381.7044 300.1481936 +22.5729207     691.0265     72.41004      1.445     2.86      4.41279     20.42387     85.86329        13     1.019     0.795  36.70   0
       231    184.3305    375.0530 300.1060180 +22.5282462     573.9896      72.3916      1.471     3.35     4.109883     20.42387     76.03561        12     1.067     0.819 -33.80   0
       232    871.9437    374.2128 300.3202791 +22.7340626     362.8665      72.3916      1.402     3.56     3.863362     20.42387     47.00949         5     1.139     0.320  65.51   0
       233     31.9142    372.6060 300.0594663 +22.4818313     1338.903     72.31781      1.539     3.24     4.014348     20.42387     135.0129        20     1.205     1.005  38.99   0
       234    816.2726    371.4447 300.3038284 +22.7165945     1229.084     72.37316      1.475     3.04     3.825739     20.42387     135.6436        18     1.206     0.853  63.45   0
       235    725.8588    372.4072 300.2753490 +22.6897902      405.529     72.37316      1.260     3.68     3.991433     20.42387     71.14983        10     1.081     0.656  71.72   0
       236      1.9601    369.8344 300.0510645 +22.4720507     876.7787     59.83323      1.501     4.43     4.014348     20.42387     94.42207        16     1.342     0.862 -69.68  24
       237    518.8075    368.6790 300.2120969 +22.6266839     6324.264     72.31781      1.358     2.38     4.206889     20.42387     867.0562        35     1.156     1.115  29.82   0
       238   1008.1513    363.4718 300.3662290 +22.7717573     460.1249     72.37316      1.293     3.95     4.625429     20.42387     61.28178        10     1.032     0.698  76.84   0
       239    910.7762    363.0223 300.3360143 +22.7424738     1371.411     72.35471      1.372     2.66     4.000673     20.42387     166.7173        19     1.082     1.000 -53.55   0
       240     10.2875    357.6977 300.0575877 +22.4710663     376.1793     72.55737      1.659     4.55     4.014348     20.42387     43.02288         7     1.149     0.512  59.01   0
       241    503.4821    357.3378 300.2110078 +22.6188336     571.8192     72.48374      1.490     2.91     4.190788     20.42387     57.81053        10     0.929     0.697   9.53   0
       242    585.8390    355.2974 300.2373016 +22.6429257     529.8715     72.37316      1.264     2.73     4.281453     20.42387     65.43861         8     0.860     0.648  87.65   0
       243     30.2144    354.0374 300.0649628 +22.4759933     1135.869      72.3916      1.781     3.69     4.014348     20.42387     101.8587        20     1.293     1.026  19.27   0
       244    864.3810    354.1770 300.3244234 +22.7260382     340.5516      72.3916      1.316     3.04     3.843858     20.42387     38.82052         7     0.831     0.609   8.31   0
       245    883.6483    350.7655 300.3315354 +22.7308269      513.084     72.42847      1.318     2.75     3.937548     20.42387     82.21755        12     0.989     0.773  -3.17   0
       246    406.3886    347.8763 300.1838711 +22.5870170      2591.11     72.41004      1.396     2.38     4.274541     20.42387      327.477        23     1.094     0.999  71.23   0
       247    124.7025    345.1583 300.0971908 +22.5017842     976.4465      72.3916      1.535     3.26     4.027187     20.42387     104.3265        18     1.186     0.974  16.46   0
       248    375.6501    337.3112 300.1777385 +22.5747695     29266.38      72.3916      1.397     2.42     4.316161     20.42387      3564.84        72     1.370     1.202  58.44   0
       249    910.3428    334.9091 300.3450011 +22.7342613     1224.117      72.4469      1.315     2.44     4.145839     20.42387     175.9241        16     0.987     0.882  81.62   0
       250     71.9759    325.0737 300.0873283 +22.4802071      4922.79     72.42847      1.582     3.01     4.064764     20.42387     442.6662        37     1.339     1.201  36.81   0
       251    825.6891    323.7328 300.3222433 +22.7056998     410.2314     72.52056      1.271     2.69     3.942515     20.42387     66.06965         9     0.847     0.702   8.11   0
       252    250.0532    323.5130 300.1431648 +22.5331569     446.0461     72.42847      1.452     4.48     4.432459     20.42387     41.00847         8     0.826     0.729 -88.59   0
       253    474.1545    322.3852 300.2132223 +22.6000048      561.921     72.41004      1.435     3.27     4.215663     20.42387     60.48997        11     0.930     0.850  71.50   0
       254    786.1525    317.0775 300.3120835 +22.6919466     1975.078      72.3916      1.368     2.47     3.827513     20.42387     245.1506        20     1.086     0.924  53.44   0
       255    594.1481    311.9203 300.2539611 +22.6329523     235.3271      72.3916      1.248     3.51     4.353056     20.42387     48.37727         7     0.938     0.568  70.38   0
       256   1001.1101    309.7904 300.3814504 +22.7542121     592.1337     72.31781      1.432     3.32     4.191972     20.42387     67.86349        11     0.942     0.807 -41.35   0
       257    447.8926    301.6090 300.2117914 +22.5861669     2142.188     72.31781      1.613     3.37     4.259616     20.42387     242.3609        27     1.424     0.956  59.77   0
       258    660.0668    300.4466 300.2782064 +22.6494024      256.767      72.3916      1.170     3.59     3.984108     20.42387     49.47741         6     0.837     0.605  38.41   0
       259    887.1238    294.7867 300.3507800 +22.7157733     616.0499     72.41004      1.432     2.40       4.4044     20.42387     77.04741        11     0.830     0.793  15.15   0
       260    879.5220    295.3448 300.3482296 +22.7136578     267.6839     72.42847      1.225     2.80     4.401758     20.42387     42.11433         5     0.696     0.480 -74.23   0
       261     17.7218    294.5991 300.0803645 +22.4551896     409.7862     72.28088      1.555     3.95     4.294861     20.42387     40.81226         5     0.961     0.465 -51.29   3
       262     20.9836    292.0293 300.0822109 +22.4554304     507.8504      72.3916      1.412     3.77     4.299082     20.42387     49.68736         9     0.990     0.651  38.98   2
       263    786.4989    291.8795 300.3203656 +22.6848070     249.5546     72.52056      1.194     3.74     3.841646     20.42387     44.89521         7     0.977     0.482  81.07   0
       264    769.5147    292.1514 300.3149861 +22.6797990     367.5291     72.37316      1.087     2.29     3.830386     20.42387      53.0222         6     0.734     0.498  85.77   0
       265    737.4415    291.2992 300.3052712 +22.6699486     433.7054     72.37316      1.484     3.08     3.807163     20.42387     38.18089         5     0.715     0.460  69.95   0
       266    846.9465    283.5455 300.3419045 +22.7005117     200.6669     72.42847      1.702     4.77     4.288092     20.42387     31.85914         5     1.398     0.462   8.08   0
       267    523.6936    281.0997 300.2420296 +22.6029884     1133.045     72.57576      1.315     2.17     4.410933     20.42387     174.2779        16     0.950     0.888 -89.53   0
       268    331.2492    280.8933 300.1822322 +22.5452587     368.6808     72.42847      1.528     5.77     4.395668     20.42387     33.62544         8     1.009     0.929  80.84   0
       269    907.1764    274.4515 300.3636269 +22.7159297     236.9022     72.41004      1.503     4.14     4.438042     20.42387     30.85051         5     0.890     0.550 -49.59   0
       270    768.5743    272.9554 300.3209197 +22.6739993     2234.205     72.41004      1.359     2.43     3.819181     20.42387     278.3318        22     1.118     0.947  53.26   0
       271      2.3011    258.3436 300.0873347 +22.4401598     58531.06     61.67874      1.397     3.10     4.615565     20.42387     6808.421        73     1.498     1.087  85.05  24
       272    477.0681    256.7574 300.2354162 +22.5820249     678.1647     72.37316      1.347     2.89     4.373057     20.42387     84.44714        11     0.885     0.837   2.41   0
       273    151.7387    250.7822 300.1362021 +22.4828002     1490.974     72.33627      1.895     3.93     4.045112     20.42387     122.5906        26     1.468     1.127 -30.65   0
       274    182.4422    250.9380 300.1456918 +22.4920500     568.5504     72.37316      1.320     3.35     4.128162     20.42387     71.86386        12     1.112     0.711 -36.58   0
       275    889.3034    244.3078 300.3678327 +22.7019110     263.8611     72.57576      1.228     3.78     4.445078     20.42387     44.10123         6     0.776     0.568  49.64   0
       276    235.9642    242.9078 300.1649294 +22.5057892     480.5429     72.33627      1.429     2.72     4.331551     20.42387     57.96477         8     0.828     0.632  42.68   0
       277     91.4723    240.4598 300.1208271 +22.4617671     312.6581     72.42847      1.510     3.98     4.131676     20.42387     36.34005         5     1.194     0.379 -54.93   0
       278    911.7388    236.9734 300.3772048 +22.7065181     362.0261      72.3916      1.310     4.64     4.388769     20.42387     49.98917         9     1.003     0.773  48.71   0
       279    840.2971    234.3482 300.3557891 +22.6843755     639.5977     72.46532      1.350     2.88     4.250281     20.42387     79.92862        12     0.978     0.781  86.00   0
       280    430.5956    233.9635 300.2283502 +22.5615517     279.4073     72.41004      1.175     2.83     4.444715     20.42387      52.8109         8     0.787     0.685   0.18   0
       281    938.5057    223.2700 300.3899935 +22.7105895      2131.24     72.50215      1.511     2.54     4.241185     20.42387     275.2424        26     1.206     1.105  76.93   0
       282    357.0167    220.6283 300.2097892 +22.5356724     2138.006      72.3916      1.431     2.58       4.3495     20.42387     267.4888        26     1.188     1.054  86.81   0
       283    434.8307    215.8403 300.2355446 +22.5576142     1058.445     72.42847      1.524     3.23     4.445219     20.42387     118.2679        19     1.150     1.007 -33.65   0
       284    187.1881    215.6197 300.1586193 +22.4833320     261.1316     72.35471      1.454     3.69     4.185016     20.42387     36.98392         5     1.051     0.372 -83.02   0
       285    836.8169    214.9053 300.3610098 +22.6777429     521.2545     72.31781      1.305     3.64     4.232275     20.42387     67.39134         9     0.879     0.747 -79.78   0
       286    943.4825    211.9061 300.3952303 +22.7088108     307.4287     72.55737      1.210     3.59     4.153018     20.42387     46.98923         8     1.008     0.658  49.79   0
       287    251.4751    208.0769 300.1810451 +22.5004362     783.7194     72.48374      1.556     2.81     4.394973     20.42387     108.1071        12     0.992     0.787  80.56   0
       288     33.0348    209.1643 300.1128252 +22.4352610     464.7097     72.46532      2.157     4.96     4.570093     20.42387      33.4816         6     0.888     0.783 -67.67   0
       289    789.3539    204.7941 300.3494992 +22.6606254     1673.979      72.3916      1.383     2.42     3.943716     20.42387     205.0543        17     1.002     0.940  65.88   0
       290    854.5199    204.2368 300.3699863 +22.6799750     552.8639     72.35471      1.317     3.98     4.375613     20.42387     67.07174        10     1.080     0.779  18.35   0
       291    272.9693    201.0571 300.1900028 +22.5048625     491.4385     72.41004      1.394     5.30     4.454081     20.42387     46.10816         9     1.072     0.770  -1.00   0
       292    562.7768    197.4709 300.2813145 +22.5906665     212.2455     72.42847      1.283     4.36     4.427577     20.42387     38.98064         6     0.921     0.620  71.39   0
       293    793.3061    195.9848 300.3535870 +22.6592758     875.7802     72.31781      1.585     3.82     4.002385     20.42387     99.34348        14     1.185     0.795  84.32   0
       294    714.1456    195.5206 300.3290776 +22.6354399     1207.932     72.42847      1.320     2.68      3.93526     20.42387     168.4071        16     0.985     0.904 -79.13   0
       295    535.3948    191.6501 300.2746794 +22.5807915     459.9549     72.37316      1.292     3.99     4.458141     20.42387     56.14346         6     1.013     0.448  56.15   0
       296    909.6235    187.0630 300.3927304 +22.6915309      1351.56     72.37316      1.393     2.98     4.157636     20.42387     145.7435        20     1.086     0.990  68.12   0
       297    640.1823    187.3908 300.3086802 +22.6109533     799.9159     72.33627      1.219     2.20     4.151926     20.42387      121.393        13     0.872     0.796 -83.85   0
       298    921.5564    186.1318 300.3967523 +22.6948349     818.9365     72.37316      1.581     3.46     4.086274     20.42387     76.21416        14     1.168     0.903 -20.81   0
       299     11.2877    175.3062 300.1170492 +22.4190211     401.4392     72.57576      1.536     3.75     4.509009     20.42387     37.54133         5     0.883     0.458  45.38   0
       300     61.9334    173.2174 300.1334543 +22.4336069     393.5904     72.37316      1.507     3.49     4.421206     20.42387     46.24387         7     0.874     0.702   0.61   0
       301    272.2533    169.6509 300.1999625 +22.4956277     744.6643     72.42847      1.476     5.06     4.479199     20.42387     77.88229        12     1.360     0.689 -54.13   0
       302    154.6646    168.7463 300.1637104 +22.4601232     234.2369     72.42847      1.279     3.41     4.427207     20.42387     28.27951         5     1.214     0.276 -34.70   0
       303    134.2033    164.1838 300.1588322 +22.4526795     2399.743     72.28088      1.590     2.95     4.444273     20.42387     216.1167        26     1.206     1.123  56.63   0
       304    957.2267    161.5125 300.4158556 +22.6984294     732.3376     72.37316      1.423     3.74     3.875257     20.42387     91.38937        16     1.314     0.899 -69.82   0
       305    291.5907    157.5186 300.2099073 +22.4979381     5572.986     72.33627      1.513     2.59     4.468159     20.42387     691.0261        39     1.308     1.163  75.72   0
       306      2.1822    155.2135 300.1207353 +22.4105231     139.9294     60.89465      0.933     3.43     4.524284     20.42387     27.35653         5     0.987     0.345 -43.54  24
       307     75.6505    151.8707 300.1446347 +22.4315908     1359.664      72.3916      1.764     3.54     4.480446     20.42387     139.7805        23     1.243     1.125  25.38   0
       308    274.9626    148.5973 300.2076299 +22.4903925     674.7413     72.42847      1.558     4.15     4.448983     20.42387     65.90185        12     1.006     0.918  47.70   0
       309    935.6978    139.1467 300.4163941 +22.6855526     3572.754     72.48374      1.492     2.79     3.883086     20.42387     377.0473        28     1.200     1.106 -82.63   0
       310    238.1906    135.5334 300.2004340 +22.4756201     319.5225      72.3916      1.305     4.31     4.407699     20.42387     41.41111         7     0.948     0.559 -51.42   0
       311    484.8732    134.2450 300.2775679 +22.5491611     753.9699     72.37316      1.495     2.30     4.245114     20.42387     83.51066         8     0.739     0.678  47.46   0
       312    599.3737    132.2162 300.3138623 +22.5828722     201.3127     72.41004      1.186     3.37     4.206262     20.42387     41.09002         5     0.751     0.438  70.37   0
       313    409.4239    126.0671 300.2567459 +22.5242090     830.3568     72.37316      2.154     3.62     4.276939     20.42387     70.72425        12     1.107     0.851  -7.23   2
       314    943.8516    124.3100 300.4237459 +22.6837248     297.6063     72.41004      1.550     4.19     3.915817     20.42387     35.81355         5     0.739     0.723  40.25   0
       315    175.3784    123.5895 300.1847845 +22.4533644     579.2766     72.37316      1.418     2.56     4.424191     20.42387     84.98228         8     0.877     0.594 -24.27   0
       316    536.4722    121.5734 300.2977327 +22.5609745     1591.656      72.3916      1.361     2.45     4.323536     20.42387     190.5657        18     1.011     0.943  51.88   0
       317    464.6811    122.0009 300.2752541 +22.5395939       547.29     72.28088      1.329     2.11     4.232618     20.42387      68.4252         7     0.679     0.649 -60.37   0
       318     73.3589    122.2182 300.1535344 +22.4223901     323.2498     72.41004      1.542     3.36     4.666161     20.42387     40.17708         5     0.728     0.696  -3.57   0
       319    598.1528    120.4556 300.3172944 +22.5791259      412.102     72.42847      1.439     3.96      4.20073     20.42387     48.04053         7     0.934     0.588  52.76   0
       320     15.3022    121.2579 300.1358154 +22.4047091     270.1125     72.48374      1.311     3.40     4.989958     20.42387     44.30848         5     0.750     0.446  79.59   0
       321    279.8086    116.9570 300.2193923 +22.4827561     409.5285     72.41004      1.424     3.56     4.347362     20.42387     52.77233         8     0.930     0.730   5.65   0
       322    824.6019    110.9209 300.3909161 +22.6441829      413.001     72.29935      1.463     3.28     4.327671     20.42387     54.99493         5     0.797     0.391  64.90   0
       323    971.0709    105.8943 300.4382023 +22.6865722     368.1746     72.50215      1.261     3.44       4.0613     20.42387     43.32669         6     0.771     0.547 -31.30   0
       324    310.6051    101.4659 300.2339879 +22.4875339     6032.451      72.3916      1.501     2.53     4.289809     20.42387     719.4567        43     1.336     1.179  73.80   0
       325    816.7557    102.3093 300.3912624 +22.6393575     307.5158      72.3916      1.013     1.88     4.365505     20.42387      63.3196         5     0.702     0.425 -19.03   0
       326    161.3810    100.9171 300.1877833 +22.4426578     740.1995     72.35471      1.677     3.27     4.409883     20.42387     74.13112        12     1.006     0.934  24.85   0
       327    939.8676     98.9514 300.4307237 +22.6752375     351.2229      72.3916      1.356     3.26     3.925232     20.42387     35.93801         8     0.814     0.674 -50.63   0
       328      5.5896     97.9856 300.1403419 +22.3951159      644.926     72.29935      1.552     4.12     5.389852     20.42387     62.47798        12     1.021     0.895 -22.71  16
       329    282.5182     95.1952 300.2272878 +22.4773166     368.7372     72.31781      1.178     2.71     4.283848     20.42387     49.47298         6     0.697     0.643  29.51   0
       330     72.5069     91.5929 300.1631953 +22.4133412     441.8446     72.29935      1.533     3.73     4.822514     20.42387     42.86414         6     0.979     0.407  70.99   0
       331    556.6514     86.8103 300.3152806 +22.5570259     6258.049      72.3916      1.431     2.40     4.267775     20.42387     805.8557        39     1.253     1.117  72.05   0
       332    442.1008     86.7198 300.2796640 +22.5226911     705.6375     72.52056      1.502     2.53     4.235242     20.42387     92.85499        11     0.932     0.712 -68.55   0
       333    809.0674     76.7331 300.3971562 +22.6297003     753.6719      72.4469      1.442     4.21      4.53818     20.42387     86.34631        15     1.222     0.984  32.42   0
       334    749.7644     77.7307 300.3783565 +22.6122358     309.9676      72.3916      1.454     5.02     4.444036     20.42387     27.04671         7     1.010     0.706 -83.95   0
       335    901.4223     75.2505 300.4264201 +22.6569143      463.399      72.3916      1.399     3.68     4.117239     20.42387     66.15269        11     1.065     0.857  43.11   0
       336    249.1610     70.5719 300.2248980 +22.4602478     545.6325     72.42847      1.688     3.70     4.283848     20.42387     65.44312         7     0.865     0.671  50.40   0
       337    684.9965     66.9148 300.3616880 +22.5897362     6330.907     72.31781      1.417     2.45     4.458572     20.42387     824.4387        36     1.266     1.090  81.84   0
       338    607.8712     69.2609 300.3369125 +22.5673188      340.908     72.42847      1.307     3.57     4.172043     20.42387     47.07467         9     0.920     0.662  65.11   0
       339    459.7981     65.8874 300.2919212 +22.5220049     1430.183     72.31781      1.397     2.62     4.191816     20.42387     208.9901        20     1.174     0.907  65.68   0
       340    726.0599     64.3172 300.3753195 +22.6012824     948.8298     72.48374      1.452     2.82     4.544067     20.42387     119.7556        15     1.108     0.783  74.55   0
       341    742.1470     60.2824 300.3816381 +22.6049377     641.8895     72.42847      1.365     3.52     4.611178     20.42387     72.98276         9     0.930     0.680  -0.54   0
       342    208.8489     58.2305 300.2163675 +22.4446229      604.864     72.42847      1.492     3.64      4.31407     20.42387     68.29942        11     1.042     0.887  40.83   0
       343   1012.0597     57.7245 300.4665965 +22.6849764     602.3491      72.4469      1.662     3.99     4.249396     20.42387     73.48827        14     1.204     1.062 -30.34   0
       344    780.5378     56.0129 300.3949818 +22.6152014     497.7498     72.35471      1.339     2.39     4.701075     20.42387     71.76123         9     0.839     0.670 -28.37   0
       345    369.9022     52.6526 300.2682462 +22.4912739      324.923     72.48374      1.373     4.07     4.276196     20.42387      48.5361         7     1.127     0.599  79.36   0
       346    744.4611     50.8779 300.3854066 +22.6029258       918.57      72.4469      1.850     5.30     4.706413     20.42387      75.3689        17     1.643     0.687  51.81   0
       347    729.1543     51.7803 300.3803461 +22.5986034     2809.378     72.42847      1.486     2.63     4.669751     20.42387     339.6891        29     1.257     1.042  64.84   0
       348     22.5759     45.9084 300.1624919 +22.3852557      723.684     72.31781      1.661     4.45     5.244174     20.42387     84.35847        11     1.275     0.825  44.56   0
       349    815.8205     43.3540 300.4100775 +22.6221206     1598.437      72.4469      1.481     2.71     4.720282     20.42387       192.66        22     1.180     0.982  20.06   0
       350    975.1967     42.4452 300.4600523 +22.6695510     364.5073      72.3916      1.672     3.48     4.196284     20.42387     30.34143         5     0.794     0.439  20.56   0
       351    753.4303     36.4011 300.3928918 +22.6014470     680.2461     72.35471      1.439     3.63     4.861735     20.42387      102.618        11     1.078     0.714  89.53   0
       352    559.4175     35.8830 300.3326451 +22.5432142     1137.723     72.35471      1.586     2.70     4.400498     20.42387     129.3853        16     1.070     0.931  75.83   0
       353    132.2958     36.0581 300.1997638 +22.4153130     567.1498     72.46532      1.570     3.13     4.537937     20.42387     62.86269         8     0.933     0.632  82.19   0
       354    463.0291     34.0302 300.3032494 +22.5138163     898.2375      72.3916      1.435     2.69     4.163903     20.42387     119.0739        14     1.006     0.861  25.91   0
       355    844.9502     32.0198 300.4228279 +22.6275781     533.9553     72.37316      1.539     6.75     4.579756     20.42387     73.93027        12     1.488     0.859  60.13   0
       356    550.3323   1019.6568 300.0103922 +22.8229960     470.5712     72.26241      2.085     4.74     3.095214     20.42387     32.90393         6     0.910     0.701 -84.53  16
       357    802.5344     24.6966 300.4119832 +22.6127776     626.0893     72.50215      1.382     2.84     4.933198     20.42387     97.00053        11     1.020     0.744  37.44   0
       358     27.2329     24.5810 300.1708481 +22.3805275      405.799      72.3916      1.493     3.23     5.210936     20.42387     45.95719         6     0.733     0.622  43.68   0
       359    560.5615     21.6493 300.3376131 +22.5394647     281.6027     72.41004      1.409     3.42     4.427221     20.42387     42.34308         5     0.767     0.440  68.60   0
       360    656.6381     21.3920 300.3676081 +22.5681561      260.789     72.41004      1.115     3.32     4.587807     20.42387     53.14507         5     0.927     0.434 -15.90   0
       361    418.8286   1018.4462 299.9698746 +22.7831844      624.144     72.42847      2.181     6.48     2.520512     20.42387     54.51706        11     1.406     0.838 -38.41  16
       362    225.2565   1018.4843 299.9096841 +22.7250854     1207.838     72.48374      3.044    12.00     76.11301     20.42387     41.94238        26     2.421     1.656 -50.93  19
       363    610.2888   1011.6898 300.0316450 +22.8387001     2300.064     72.55737      1.856     4.09     3.094798     20.42387     151.1606        32     1.443     1.246  24.22   0
       364    696.6778   1006.8914 300.0601023 +22.8632395     8327.311     72.53896      1.911     4.21     3.039917     20.42387     462.9645        46     1.570     1.383  43.43   3
       365    702.2579   1004.6279 300.0625764 +22.8642638     9586.779      72.3916      2.014     4.80     3.038892     20.42387      524.567        55     1.708     1.470 -17.64   3
       366    989.8194    990.6938 300.1567144 +22.9464945     814.9922     72.31781      2.326     7.71     3.108397     20.42387     40.59761        14     1.383     1.202  51.07   0
       367     45.1534    992.2975 299.8622582 +22.6634956     478.7354     72.42847      1.934     6.80     6.208309     20.42387     38.56755        10     1.329     0.975  46.42   0
