#   1 NUMBER                 Running object number                                     
#   2 X_IMAGE                Object position along x                                    [pixel]
#   3 Y_IMAGE                Object position along y                                    [pixel]
#   4 ALPHA_J2000            Right ascension of barycenter (J2000)                      [deg]
#   5 DELTA_J2000            Declination of barycenter (J2000)                          [deg]
#   6 FLUX_APER              Flux vector within fixed circular aperture(s)              [count]
#   7 FLUXERR_APER           RMS error vector for aperture flux(es)                     [count]
#   8 FLUX_RADIUS            Fraction-of-light radii                                    [pixel]
#   9 FWHM_IMAGE             FWHM assuming a gaussian core                              [pixel]
#  10 BACKGROUND             Background at centroid position                            [count]
#  11 THRESHOLD              Detection threshold above background                       [count]
#  12 FLUX_MAX               Peak flux above background                                 [count]
#  13 ISOAREA_IMAGE          Isophotal area above Analysis threshold                    [pixel**2]
#  14 A_IMAGE                Profile RMS along major axis                               [pixel]
#  15 B_IMAGE                Profile RMS along minor axis                               [pixel]
#  16 THETA_IMAGE            Position angle (CCW/x)                                     [deg]
#  17 FLAGS                  Extraction flags                                          
         1    610.8350     17.2437 300.3721673 +22.5465569     1779.551     72.59863      1.349     2.44     4.959847     20.46664     231.6973        22     1.129     0.975  84.09   0
         2    333.9121     14.6578 300.2868390 +22.4628920      695.759     72.61709      1.426     2.76      5.07708     20.46664     102.5598        12     0.964     0.828  57.99   0
         3     48.5324     13.3906 300.1985601 +22.3770271     648.5151     72.54321      1.578     3.63     5.070487     20.46664     64.41013        11     0.993     0.840 -43.40   0
         4    568.0380     10.9567 300.3608816 +22.5319370     1509.691     72.63554      1.445     2.82     4.947493     20.46664     169.1375        23     1.250     1.003  59.61   0
         5    673.6813      7.7135 300.3948254 +22.5626282     1405.737     72.67245      1.397     2.43     4.957023     20.46664     203.4865        19     1.053     0.978  20.43   0
         6    268.9489      6.8694 300.2691642 +22.4411949     529.9255     72.52473      1.445     2.92     5.151404     20.46664     58.50487        10     0.899     0.727 -12.80   0
         7    317.6969      4.5724 300.2850651 +22.4551367     434.1811     70.76608      1.219     3.61     5.095327     20.46664     61.02477         7     0.896     0.700  44.70  16
         8   1013.4206      4.1620 300.5018586 +22.6632593     168.2226     69.58178      1.620     5.10     5.232287     20.46664     28.20287         6     1.121     0.657   7.98  16
         9    493.9739      1.9318 300.3407549 +22.5071675     1845.699     59.80184      1.238     2.35     4.287159     20.46664     296.2994        17     1.076     0.807   8.45  24
        10      1.4077   1004.0627 299.8622235 +22.6470913     488.3233     56.90758      4.254     4.78    -6.162119     20.46664     28.26896         5     1.390     0.465 -83.08  25
        11    257.0327   1022.8776 299.9355048 +22.7292400     927.4507     60.80213      7.118    10.98      16.3811     20.46664     40.50792        24     3.367     0.997   4.79  27
        12    245.1174   1022.3069 299.9319873 +22.7254995     1481.905     63.79293     12.798    18.44     18.57191     20.46664     51.86327        67     5.171     1.827  -3.20  27
        13    280.9047   1021.1407 299.9434899 +22.7359083      4570.93     68.63135     12.199    30.35      11.6052     20.46664     108.1701       351     8.820     3.917  18.35  27
        14    223.5444   1021.8506 299.9254315 +22.7188922     1168.668     65.71801      6.303     8.58      22.4514     20.46664     44.79883        18     1.567     1.311  82.16  27
        15    195.1267   1016.9514 299.9181955 +22.7089560     3217.524     72.54321     19.771    49.02     23.08263     20.46664     73.53118       505    10.428     6.394  -0.99  27
        16    130.7001   1004.0914 299.9023647 +22.6859260     5006.306     72.70933     21.630   101.94     22.82151     20.46664     105.1677      3284    18.266    17.418  -9.91  26
        17    662.0847    971.6696 300.0781732 +22.8360929     233.1471       72.654      1.471     4.58     3.055337     20.46664     29.87466         5     1.346     0.442 -31.98   0
        18    767.7986    966.3535 300.1128258 +22.8662697     789.3641     72.54321      2.153     7.63     3.251366     20.46664      39.6287        17     1.506     1.082  76.86   0
        19    432.7957    998.3505 299.9981355 +22.7749604     6385.014     72.52473      1.842     4.07     3.187865     20.46664     486.7711        44     1.483     1.385   6.54   0
        20    802.7864    960.1350 300.1257490 +22.8749755     971.5151     72.50625      1.760     4.19     3.219793     20.46664     58.52393        22     1.228     1.155  53.79   0
        21    580.0517    961.2470 300.0560273 +22.8084967     283.0978     72.58016      1.488     4.44     2.666749     20.46664      34.6776         6     0.842     0.667  -1.32   0
        22    502.0342   1000.5386 300.0189630 +22.7963636     1031.291     72.56169      1.809     6.06     2.858489     20.46664     78.91879        23     1.460     1.180 -39.58   0
        23     13.4041    957.2852 299.8811678 +22.6372896     691.8901     72.46927      2.717     4.29     1.323541     20.46664     62.86168        11     1.198     0.756 -61.15   0
        24    825.0383    953.8657 300.1347220 +22.8798474     11131.38     72.52473      1.824     4.03     3.157725     20.46664     637.1711        51     1.456     1.421 -39.71   0
        25    871.7060    953.4893 300.1493869 +22.8937302     517.4045     72.72776      1.811     5.16     3.013481     20.46664     35.99949         8     1.130     0.666  73.24   0
        26      3.5530   1017.6296 299.8584747 +22.6516230     1353.136     67.36978      6.916    13.86    -6.884245     20.46664     47.87912        35     2.474     2.160 -85.96  26
        27    876.6938    941.9746 300.1546880 +22.8919193     426.1983     72.46927      1.681     6.33     3.170582     20.46664     30.67194        12     1.242     0.905 -18.27   0
        28    529.5527    941.7926 300.0466411 +22.7877664     461.8983     72.56169      1.783     5.57     2.774983     20.46664     43.70188         8     1.442     0.607 -11.96   0
        29    465.2746    984.7471 300.0126654 +22.7808044     403.9677     72.54321      1.579     5.56     3.039823     20.46664     40.25384         9     1.011     0.861  40.84   0
        30   1016.7462    935.6105 300.2004202 +22.9320694     396.9777     72.54321      1.660     5.97     3.334061     20.46664     30.98204        10     1.324     0.758 -54.09  16
        31    833.4868    935.9011 300.1431997 +22.8772227      1338.54     72.70933      1.805     4.59     3.291187     20.46664     85.98022        23     1.322     1.134  39.80   0
        32    685.5215    933.2441 300.0979736 +22.8320940     517.6191     72.52473      1.980     5.58     2.955309     20.46664     38.90316        10     1.423     0.616  38.13   0
        33    871.7797    929.5439 300.1572010 +22.8868770     884.7351     72.54321      2.117     8.20     3.351969     20.46664     52.56915        22     1.391     1.353 -49.04   0
        34    920.2034    920.6149 300.1751990 +22.8988281     618.4636     72.39524      1.775     5.28     3.364954     20.46664     49.21445        12     1.361     0.903 -22.85   0
        35    771.5525    919.7538 300.1291573 +22.8540185     683.2936     72.54321      1.719     4.87     3.336098     20.46664     51.33556        13     1.092     1.018  -6.84   0
        36     30.6519    918.5275 299.8991312 +22.6313611     312.9641     72.54321      1.504     5.79      3.67057     20.46664     41.01772         8     1.146     0.824  -3.54   0
        37    484.0782    916.0483 300.0408672 +22.7667383     3979.477     72.54321      1.590     3.17     2.907125     20.46664      369.899        33     1.258     1.252   2.76   0
        38    782.7746    916.6534 300.1336619 +22.8564930     675.5918     72.56169      1.973     4.45     3.354555     20.46664     48.70148        12     1.069     0.892  25.28   0
        39   1013.7704    910.2826 300.2077329 +22.9239028     1179.667     72.56169      0.748     1.12     3.440005     20.46664     478.7899         7     0.672     0.420 -88.97   0
        40    527.3383    903.6567 300.0583586 +22.7761601     369.7105     72.61709      1.346     4.01     2.835601     20.46664     37.92142         6     0.864     0.532  40.59   0
        41    979.0490    976.8978 300.1752305 +22.9326286     2201.798     72.59863      1.987     4.88     3.154939     20.46664     125.1816        31     1.481     1.321  69.21   0
        42    209.4401    902.0488 299.9600270 +22.6803110     797.3022     72.58016      1.603     3.99     6.600019     20.46664     81.66587        16     1.316     0.855 -38.87   0
        43    186.3804    898.7578 299.9539322 +22.6724458     1403.263     72.58016      1.708     4.18     6.528716     20.46664     143.6426        25     1.400     1.236  20.30   0
        44    785.0170   1000.1810 300.1071813 +22.8811426     224.3744     72.52473      1.667     4.70     3.142975     20.46664     26.86268         5     0.940     0.668  27.02   0
        45     61.3574    888.2205 299.9185238 +22.6318934      509.062     72.58016      2.275     5.92     3.769062     20.46664     34.37786         8     1.311     0.753  33.63   0
        46   1012.3874    886.3228 300.2150963 +22.9166061     1982.985     72.56169      1.825     4.30     3.619082     20.46664     123.2112        28     1.325     1.277 -22.91   0
        47    717.7598    886.8972 300.1230908 +22.8284576     503.0584     72.54321      1.807     4.65     3.209251     20.46664     49.46444         7     0.807     0.759 -16.13   0
        48    489.5140    886.0407 300.0523197 +22.7597595     223.8612     72.52473      1.228     4.30     2.940524     20.46664     35.52154         6     1.327     0.397 -18.80   0
        49    218.9443    880.7969 299.9698929 +22.6770697     245.7045     72.50625      1.445     6.03       5.0774     20.46664     37.71382        10     1.316     0.777 -37.14   0
        50    796.0808    880.0992 300.1496988 +22.8499875     672.1534     72.67245      1.689     5.61     3.480619     20.46664     48.11993        14     1.228     0.925 -63.33   0
        51    664.0457    874.1294 300.1105170 +22.8086865     4854.684     72.52473      1.644     3.25      2.88787     20.46664     392.1577        37     1.281     1.257  84.54   0
        52    629.5565    974.3477 300.0671744 +22.8271051     341.0911     72.58016      1.622     4.53     2.799402     20.46664     39.86884         5     1.135     0.515 -31.29   0
        53    466.4506    870.9511 300.0500524 +22.7485115     614.9575     72.58016      1.508     3.69     3.030131     20.46664     71.18015        14     1.036     0.957 -14.73   0
        54    214.1733    868.2464 299.9724922 +22.6720388     1342.266     72.58016      1.682     3.67     4.179161     20.46664     120.6139        19     1.199     1.031   6.26   0
        55    684.5900    866.6494 300.1193472 +22.8126996     799.7134     72.56169      1.688     3.68     2.993136     20.46664     66.13454        13     1.079     0.810  27.00   0
        56    233.2200    865.3775 299.9793444 +22.6769324     416.6027     72.54321      1.480     4.94      3.97806     20.46664     42.82554         9     1.070     0.647 -67.20   0
        57    600.9872    857.5350 300.0962827 +22.7850137      458.497     72.48776      1.632     5.33      2.87083     20.46664     44.87338        11     1.176     0.873  22.92   0
        58    840.0497    853.9279 300.1719113 +22.8556529     3927.443     72.54321      1.628     3.32     3.632633     20.46664     314.3026        34     1.310     1.224   5.11   0
        59    249.0938    848.0513 299.9899126 +22.6767273     570.0499     72.61709      1.607     4.94     3.966536     20.46664     47.99731        13     1.147     0.985 -32.15   0
        60    557.1754    846.3910 300.0862704 +22.7686762     665.1151     72.54321      1.494     3.76     2.933324     20.46664     56.62531        13     0.998     0.912  56.01   0
        61    203.3591    844.1900 299.9769552 +22.6618947     894.7546     72.54321      1.817     4.57     3.923061     20.46664     94.02505        17     1.281     0.995  80.65   0
        62    353.1204    836.4952 300.0260100 +22.7046269     53237.33       72.654      1.652     3.15     3.884919     20.46664     4982.423       101     1.471     1.447 -17.80   0
        63    618.7724    839.7144 300.1076150 +22.7852322     471.1099     72.54321      1.666     4.14     2.971855     20.46664     40.60158         9     0.924     0.849  34.41   0
        64    611.0122    835.5065 300.1065677 +22.7816974     1712.941     72.48776      1.528     3.16     2.986727     20.46664     165.1379        18     1.082     0.992 -17.43   0
        65   1023.1564    834.6559 300.2352604 +22.9049907     500.5055     59.39701      1.381     4.33     3.824049     20.46664     70.31976        11     1.251     0.722  89.71  24
        66    281.3436    834.8481 300.0042304 +22.6826181     347.0471     72.58016      1.365     3.16     3.995876     20.46664     62.26181         8     0.912     0.712 -17.70   0
        67    639.7000    831.7945 300.1167059 +22.7892342     783.1841     72.45077      1.385     2.93     3.024681     20.46664      90.6181        14     1.019     0.820 -30.35   0
        68     39.4326    831.1539 299.9302739 +22.6089522     749.0642     72.58016      1.729     4.10     3.827558     20.46664     83.30904        14     1.290     0.800  52.38   0
        69      6.5120    831.5632 299.9199191 +22.5991862      676.481     72.52473      1.787     4.63      3.83781     20.46664     65.46941        13     1.262     0.916  32.88  16
        70    650.7321    830.0008 300.1207240 +22.7920273     525.5252     72.50625      1.443     5.01     3.040242     20.46664     58.15043        12     1.072     0.800  -0.36   0
        71    971.2466    826.8198 300.2216221 +22.8871858      257.587     72.58016      1.302     3.61     3.842371     20.46664     31.17797         5     1.158     0.325  10.67   0
        72    756.1895    826.4333 300.1547264 +22.8226201     449.9971     72.52473      1.541     3.01     3.452016     20.46664      43.3294         6     0.936     0.581 -31.24   0
        73    551.2526    823.3799 300.0919106 +22.7602958     193.5462     72.52473      1.438     5.05     3.053105     20.46664     31.37084         6     1.128     0.639  20.87   0
        74    794.1411    816.7599 300.1696951 +22.8312189     817.2372     72.54321      1.657     3.71     3.588847     20.46664      69.1718        17     1.101     1.032 -36.25   0
        75    402.8245    813.7254 300.0488714 +22.7130058     31258.31     72.58016      1.602     3.15     3.882129     20.46664     2916.647        75     1.395     1.359  68.66   0
        76    417.0566    814.3341 300.0531001 +22.7174498     1886.171     72.59863      1.600     3.22     3.860073     20.46664     175.3712        26     1.255     1.137 -10.90   0
        77    925.8771    809.5600 300.2130908 +22.8686328     2758.587     72.52473      1.659     3.53     3.877624     20.46664     212.0029        32     1.363     1.170 -30.31   0
        78    413.9368    808.5073 300.0540244 +22.7148421     524.3102       72.654      1.402     3.37     3.927714     20.46664     59.54954         8     0.937     0.692 -30.67   0
        79    520.5070    806.1721 300.0879382 +22.7461365     428.6647     72.46927      2.033     5.38     3.303378     20.46664     33.90038         6     1.129     0.723 -35.67   0
        80    683.7392    805.7181 300.1388983 +22.7949526     986.2781     72.63554      1.523     3.45     3.194196     20.46664      100.375        15     1.059     1.007  39.01   0
        81    285.2643    805.5496 300.0149762 +22.6753906     658.1105     72.59863      1.549     4.24     3.966128     20.46664     75.62817        14     1.306     0.802  51.21   0
        82    531.0482    800.5207 300.0930561 +22.7476759     662.0438     72.54321      1.422     3.07     3.267049     20.46664     72.80436        12     0.963     0.792 -77.41   0
        83     90.0447    801.1182 299.9557578 +22.6155337     442.4962     72.50625      1.426     5.96      3.83494     20.46664     53.85593         9     1.124     0.889  15.79   0
        84    932.2621    797.7213 300.2189310 +22.8671455     550.7441     72.61709      1.656     4.56     3.900157     20.46664     52.43206         9     1.077     0.736 -34.37   0
        85    679.3996    797.4407 300.1402385 +22.7912751     369.2757     72.56169      1.477     4.14     3.208193     20.46664     31.04286         5     0.998     0.490 -89.23   0
        86    433.0219    796.6430 300.0638185 +22.7171626     343.4788     72.59863      1.484     5.77     3.933504     20.46664     37.31902        10     0.996     0.940 -10.30   0
        87    476.7192    795.3162 300.0778436 +22.7298884     554.6606     72.69089      1.417     3.12      3.68061     20.46664     60.20227         9     0.881     0.715 -84.32   0
        88    118.3957    794.6260 299.9666747 +22.6221817     501.2333     72.50625      1.775     4.82     3.850891     20.46664      49.5515        12     1.084     0.829  43.90   0
        89    685.0949    794.3436 300.1430191 +22.7920933      424.957     72.59863      1.600     4.27     3.240248     20.46664     40.05374         6     1.196     0.434  34.91   0
        90    910.0557    792.5685 300.2136843 +22.8590110     334.3552     72.56169      1.429     4.93     3.908462     20.46664     39.87183         9     1.103     0.623 -55.40   0
        91    283.0617    789.9703 300.0193570 +22.6702608      527.756     72.56169      1.464     4.08     3.957765     20.46664     54.90239        11     1.078     0.732  58.72   0
        92    605.9636    780.1826 300.1229860 +22.7643029     446.4855     72.54321      1.436     3.78     3.247158     20.46664     42.34436         8     0.836     0.666  39.45   0
        93    575.8509    778.4933 300.1141620 +22.7547887     553.2148     72.61709      1.445     4.34     3.292204     20.46664      58.1039         8     0.945     0.773 -35.59   0
        94    992.3179    774.8699 300.2450858 +22.8785748     4445.573       72.654      1.672     3.44     4.003178     20.46664     333.9747        38     1.397     1.278  63.33   0
        95    597.8892    775.9686 300.1218427 +22.7606722     1316.376     72.50625      1.480     3.02      3.27316     20.46664     136.4656        18     1.087     0.994  18.57   0
        96    485.1379    777.2736 300.0863293 +22.7272354     219.4243     72.58016      1.376     4.01     3.736987     20.46664     46.66677         6     0.971     0.474  37.63   0
        97    517.4272    775.4383 300.0969729 +22.7363922     348.1932     72.56169      1.561     3.08     3.537358     20.46664     50.07966         5     0.737     0.456  19.76   0
        98    980.7778    766.3350 300.2442625 +22.8726652     1675.676     72.52473      1.678     3.72     4.028351     20.46664     126.8991        21     1.167     1.145  -1.93   0
        99    343.6473    760.3768 300.0478141 +22.6799472     798.3152     72.56169      1.573     3.57     4.000557     20.46664     83.49483        15     1.063     0.948  -4.98   0
       100    807.1953    757.5850 300.1930036 +22.8181375     2597.468     72.41376      1.598     3.23     3.668236     20.46664     241.7814        29     1.411     1.107   9.95   0
       101   1011.9645    756.4459 300.2572027 +22.8791669     1569.112     72.58016      1.656     3.67     4.128515     20.46664     118.4698        23     1.226     1.131  27.63   0
       102     29.6213    748.1061 299.9542272 +22.5821971     832.7518     72.46927      1.700     4.82     4.162818     20.46664     86.74297        15     1.345     0.963 -19.27   0
       103    889.4789    743.3438 300.2232755 +22.8387050     633.8646     72.58016      1.915     4.75     3.990403     20.46664     61.04477        12     1.202     0.795 -88.25   0
       104    192.6524    744.2471 300.0061227 +22.6300180      487.195     72.58016      1.415     3.44     3.953368     20.46664     65.38257         8     0.956     0.744 -60.28   0
       105    925.5899    734.5220 300.2373995 +22.8469906     145752.4     72.50625      1.644     3.17     4.015235     20.46664     12780.49       164     1.531     1.488 -62.64   0
       106    688.2132    738.3821 300.1621846 +22.7769602     455.1313     72.50625      1.773     4.75     3.451665     20.46664     35.58046         7     1.096     0.583 -75.99   0
       107    777.9094    734.8469 300.1912717 +22.8028300     653.2281     72.52473      1.332     3.21     3.648608     20.46664     79.48588         9     0.836     0.747 -65.15   0
       108    958.4385    727.3707 300.2499652 +22.8547775     348.7209     72.58016      1.494     4.09     4.146863     20.46664      35.7342         6     1.087     0.440 -34.84   0
       109    611.8074    723.4432 300.1432512 +22.7497658     1493.156     72.56169      1.377     2.76     3.590809     20.46664     159.0675        21     1.094     1.045 -65.05   0
       110    793.0662    720.6357 300.2006134 +22.8032908      9366.57     72.54321      1.496     2.87     3.717614     20.46664     984.8622        45     1.271     1.213 -78.25   0
       111    274.6957    722.7111 300.0386213 +22.6484557     408.4969     72.72776      1.672     3.70     4.005179     20.46664     42.06051         8     0.932     0.640  72.34   0
       112    294.5301    715.7594 300.0470466 +22.6524114     4939.358     72.50625      1.570     2.84     3.986819     20.46664     589.2399        35     1.233     1.188  53.56   0
       113    376.5456    713.8267 300.0731760 +22.6764582     1050.895     72.56169      1.439     3.08      3.99039     20.46664     120.0096        16     1.052     0.919  50.16   0
       114      8.5817    714.2453 299.9587003 +22.5661730     1473.597     72.58016      1.766     3.59     4.234451     20.46664     140.1671        20     1.258     1.029  35.47   0
       115    252.4178    711.7831 300.0352485 +22.6386371     481.1427     72.52473      1.565     4.00     4.102399     20.46664       53.235         9     1.032     0.659 -24.68   0
       116    584.7997    709.2825 300.1394469 +22.7376033     651.6935     72.41376      1.407     3.52     3.825008     20.46664     80.96198        13     1.045     0.892  74.01   0
       117    947.6811    706.5276 300.2533867 +22.8455660     392.4278     72.67245      2.537     3.97     4.262454     20.46664     27.81661         6     1.993     0.226  57.26   0
       118    576.4924    701.5212 300.1393839 +22.7328844     3308.475     72.67245      1.432     2.66     3.922807     20.46664     384.9676        28     1.183     1.062 -59.38   0
       119    566.7360    695.2780 300.1383764 +22.7281670     1406.285     72.63554      1.358     2.80     4.012999     20.46664     156.0402        16     0.974     0.925  57.80   0
       120    960.5975    693.0207 300.2618042 +22.8455544     349.5515     72.48776      1.435     5.18     4.371341     20.46664     41.20922         9     0.926     0.818 -19.60   0
       121    477.3033    692.1628 300.1115585 +22.7004576     289.1214     72.54321      1.478     3.88     4.107603     20.46664     39.32648         5     0.919     0.471  41.55   0
       122    230.1401    691.6445 300.0348698 +22.6261760     604.2968     72.56169      1.652     2.70     4.327298     20.46664     73.30378         8     0.945     0.569 -16.06   0
       123    244.3844    690.0453 300.0398166 +22.6299906     548.8318     72.56169      1.413     3.39     4.264951     20.46664     80.18826        10     1.040     0.719  75.65   0
       124    270.0508    686.4897 300.0489499 +22.6366701     516.5235     72.56169      1.592     4.08     4.132403     20.46664     51.20284        12     1.063     0.767  82.86   0
       125   1013.7424    685.8978 300.2806910 +22.8594269     562.7762     72.63554      2.060     6.45     4.446304     20.46664     45.92574        10     1.535     0.760  53.01   0
       126    590.8491    685.9539 300.1489124 +22.7327190     447.1136     72.56169      1.362     3.09     4.103641     20.46664     63.95823         9     0.919     0.717 -14.12   0
       127    491.6200    685.0046 300.1183395 +22.7026958     1744.654     72.50625      1.451     2.55      4.13064     20.46664      222.939        22     1.088     1.024  58.19   0
       128    524.9858    684.4886 300.1288896 +22.7125520     262.4304     72.48776      1.372     5.06     4.138848     20.46664     29.53545         6     1.134     0.639  55.51   0
       129    145.5515    679.9404 300.0123891 +22.5974395     19768.11     72.59863      1.642     3.07     4.266213     20.46664     2092.951        64     1.452     1.348  38.53   0
       130     66.6442    681.6411 299.9873262 +22.5742493     750.9037     72.61709      1.899     4.10     4.245024     20.46664     58.57736        13     1.082     0.878  22.33   0
       131    576.5340    680.3331 300.1462833 +22.7268137     988.2808     72.59863      1.313     2.85      4.17962     20.46664     111.6661        15     1.006     0.898  35.93   0
       132    611.7903    679.5421 300.1575152 +22.7371558     277.7573     72.50625      1.285     3.19     4.178485     20.46664     43.74499         7     0.909     0.528  53.87   0
       133    493.7837    677.7581 300.1213678 +22.7012643     266.7157     72.56169      1.202     3.72     4.158647     20.46664     38.70004         5     0.889     0.446  45.67   0
       134    330.5289    671.8372 300.0725135 +22.6506066     346.4565     72.52473      1.573     5.28     3.942367     20.46664     43.47703         7     1.229     0.641  -8.23   0
       135    994.5187    666.6378 300.2809561 +22.8481339     1026.355     72.50625      1.600     3.79     4.499208     20.46664     91.95624        17     1.116     1.035 -64.13   0
       136    660.0149    668.0292 300.1762712 +22.7483053     246.7675     72.56169      1.379     3.42     4.300884     20.46664      34.2243         5     0.627     0.606 -89.01   0
       137     91.5064    664.1437 300.0007339 +22.5766916     1578.656     72.59863      2.057     4.43      4.28194     20.46664     110.7009        29     1.555     1.212 -66.58   0
       138    861.1135    664.3758 300.2401034 +22.8075198     572.3145     72.50625      1.498     4.45      4.08417     20.46664     47.42186        10     1.073     0.655  38.51   0
       139    539.9775    661.0071 300.1411862 +22.7103054     491.0276     72.52473      1.262     3.03      4.32336     20.46664      59.1082         9     0.891     0.685  67.10   0
       140    934.6195    659.0529 300.2647452 +22.8280117      795.738     72.52473      1.789     3.65     4.499208     20.46664     86.74284        13     1.142     0.827  36.57   0
       141    496.5453    653.1497 300.1302242 +22.6950280     725.0219     72.58016      1.354     2.86     4.300478     20.46664     75.81695        12     0.953     0.764 -10.57   0
       142    644.6770    652.1300 300.1766624 +22.7391422     589.9311       72.654      1.300     2.63     4.393277     20.46664     72.84985         9     0.822     0.732  -3.28   0
       143    691.7788    650.0682 300.1919994 +22.7526674     480.4001     72.54321      1.379     3.59     4.328044     20.46664     60.40607         9     0.947     0.674  64.70   0
       144    662.1368    649.9418 300.1828099 +22.7437470     407.8389     72.59863      1.256     2.62     4.396115     20.46664      68.6171         9     0.808     0.701 -36.77   0
       145    540.9617    649.1948 300.1453311 +22.7072091     906.7853     72.56169      1.539     2.98     4.406143     20.46664     103.8478        13     1.100     0.703  33.05   0
       146    727.2462    648.5831 300.2035281 +22.7628702      269.455     72.56169      1.482     3.46     4.216735     20.46664     29.89663         5     0.736     0.470 -15.16   0
       147    974.6102    644.5397 300.2819299 +22.8358201     3260.001     72.50625      1.567     3.06     4.499208     20.46664     310.3974        28     1.196     1.120 -79.19   0
       148    506.3787    644.5211 300.1360878 +22.6954991      1701.93     72.54321      1.347     2.62     4.365073     20.46664     212.6794        19     1.056     0.977 -89.24   0
       149    871.5769    641.5966 300.2507672 +22.8041098      313.425     72.50625      1.644     3.94     4.138202     20.46664         37.4         7     0.872     0.837 -37.53   0
       150    481.4947    640.2523 300.1297323 +22.6868129     172.6001     72.61709      1.279     3.44     4.344241     20.46664     36.84352         5     0.743     0.461  70.57   0
       151     68.3040    638.1119 300.0019860 +22.5622628     5100.222     72.72776      1.627     3.12     4.236845     20.46664     526.0445        36     1.325     1.229  52.09   0
       152   1014.0188    634.4606 300.2974942 +22.8447267     354.7914     72.50625      1.468     4.67     4.499208     20.46664     34.63545         8     1.032     0.600 -44.21   0
       153    535.3184    635.1449 300.1481403 +22.7014833     316.2486     72.58016      1.358     4.81     4.487949     20.46664     33.52295         9     0.938     0.699 -26.29   0
       154    369.7021    631.2679 300.0978775 +22.6507121     9096.777     72.63554      1.415     2.56      3.90968     20.46664     1077.188        39     1.207     1.134  68.95   0
       155    492.2560    628.3046 300.1369628 +22.6866093     8778.373     72.59863      1.351     2.44     4.436167     20.46664     964.9182        43     1.192     1.148  48.25   0
       156    256.9839    625.3246 300.0647637 +22.6152002     314.7966     72.54321      1.499     4.18     4.231469     20.46664      36.2524         5     1.034     0.482 -37.12   0
       157    903.8371    622.1711 300.2671347 +22.8081924     1850.301     72.56169      1.496     2.93     4.340872     20.46664     186.1367        25     1.199     1.078 -81.37   0
       158    737.9645    624.2868 300.2147617 +22.7591033     214.7149     72.52473      1.151     3.88      4.27178     20.46664     37.22672         5     0.833     0.517  52.35   0
       159    136.3542    623.8920 300.0277438 +22.5786020     197.8329     72.56169      1.455     4.28     4.188504     20.46664     33.89962         5     1.128     0.463 -83.34   0
       160    988.5486    619.5917 300.2943832 +22.8328248     12515.32     72.54321      1.580     2.96     4.499208     20.46664     1228.172        51     1.322     1.292  75.44   0
       161    552.7774    617.8994 300.1591774 +22.7017655     11507.49     72.48776      1.367     2.32     4.626172     20.46664     1627.814        44     1.155     1.135 -24.25   0
       162    722.3306    613.8839 300.2132723 +22.7514301     640.7906       72.654      1.580     2.67     4.375026     20.46664     69.40907        11     0.933     0.725 -22.08   0
       163    280.3546    613.3499 300.0759190 +22.6187737         1395     72.56169      1.474     2.99     4.008425     20.46664     143.5864        17     1.066     0.928  38.37   0
       164    437.7237    612.4705 300.1251418 +22.6657135     256.6523     72.63554      1.148     2.97     4.099465     20.46664     43.16587         6     0.873     0.447 -89.88   0
       165    526.8906    610.7499 300.1534440 +22.6919524     466.3773     72.54321      1.235     3.67     4.626386     20.46664     65.19201         9     1.030     0.653  46.17   0
       166    484.4350    606.0216 300.1417693 +22.6778670     4405.617     72.56169      1.407     2.40     4.529075     20.46664     566.8729        29     1.124     1.076  74.52   0
       167    827.4370    605.6638 300.2486876 +22.7805616     891.1272     72.54321      1.506     3.79     4.005249     20.46664     98.16051        14     1.201     0.859 -60.91   0
       168    462.8315    604.4302 300.1355649 +22.6709332     1279.281     72.54321      1.378     2.56      4.35356     20.46664     164.2021        16     1.019     0.877  -0.59   0
       169    217.0972    603.7855 300.0593646 +22.5970554     700.0893     72.43227      1.274     3.20     4.442699     20.46664      92.4242        13     1.102     0.776 -79.43   0
       170    904.2373    601.5245 300.2739681 +22.8023792     1612.208     72.48776      1.517     3.01     4.335902     20.46664     160.9143        21     1.118     1.037  -3.86   0
       171    601.0713    593.6128 300.1821004 +22.7092672       197789     72.56169      1.360     2.40     4.703582     20.46664     26536.14       198     1.447     1.398 -45.77   0
       172    424.7749    599.8345 300.1252191 +22.6582035     352.8757     72.56169      1.408     3.89     4.007536     20.46664       40.111         6     0.815     0.530  52.51   0
       173    784.6859    598.5327 300.2376842 +22.7657043      906.236     72.63554      1.325     3.12     4.075972     20.46664     96.62466        13     1.035     0.808  60.14   0
       174    287.0750    593.4977 300.0844577 +22.6150921     3626.299     72.67245      1.452     2.72     3.934246     20.46664     431.5291        32     1.236     1.141  35.96   0
       175    853.2649    590.0172 300.2618199 +22.7838034     516.3815     72.52473      1.498     2.76      4.01129     20.46664      76.2802        10     0.895     0.807  52.43   0
       176    871.4315    587.4483 300.2683162 +22.7885072     356.5509     72.58016      1.765     5.32     4.042829     20.46664      26.4236         7     0.917     0.872 -25.13   0
       177    632.7253    580.6010 300.1961823 +22.7150173     242.5196     72.43227      1.144     3.80     4.675585     20.46664      34.3073         6     0.856     0.523 -44.19   0
       178    491.6281    573.8282 300.1544662 +22.6707801     2685.503     72.50625      1.421     2.28     4.589814     20.46664     364.5956        24     1.129     0.976 -75.91   2
       179    335.9845    576.4678 300.1051962 +22.6248719     392.1499     72.52473      1.325     2.37     3.997926     20.46664     55.49565         8     0.772     0.661  77.04   0
       180    903.5019    570.2735 300.2838920 +22.7931780     304.1151     72.69089      1.180     3.37     4.313181     20.46664      44.7599         5     0.741     0.444 -67.13   0
       181    722.5243    569.1219 300.2278753 +22.7386297     259.1067       72.654      1.264     3.80     4.391131     20.46664     35.02006         6     0.830     0.498  86.78   0
       182    624.1298    565.0049 300.1985726 +22.7079618     528.8752     72.50625      2.507     5.12      4.70817     20.46664     40.54349         8     1.228     0.605  67.14   0
       183    808.6739    562.7911 300.2567697 +22.7626219     347.1706     72.54321      1.226     2.56     4.138794     20.46664     49.55676         6     0.711     0.602 -30.70   0
       184    888.7448    560.1223 300.2825899 +22.7858405     1520.016     72.58016      1.427     2.71     4.136749     20.46664     182.7533        20     1.101     0.976 -38.63   0
       185    775.0762    559.9591 300.2472219 +22.7517427     333.9036     72.50625      1.347     4.62     4.248901     20.46664     32.83555         7     1.088     0.558  55.65   0
       186     18.5459    558.6661 300.0123425 +22.5245448     991.9737     72.58016      1.958     5.30     4.008109     20.46664     85.90714        18     1.397     1.093  52.96   0
       187    759.7916    557.7026 300.2431934 +22.7465151     2449.449     72.41376      1.323     2.40     4.285861     20.46664     344.2021        21     1.051     0.949 -18.96   0
       188   1004.1993    555.3328 300.3201412 +22.8190414     429.3202     72.50625      1.376     3.20      4.59739     20.46664     54.36605         8     0.915     0.703  26.72   0
       189    969.4870    554.6363 300.3095433 +22.8084462     310.5826     72.52473      1.437     4.69      4.59739     20.46664     36.58222         8     0.932     0.720 -41.20   0
       190    664.7828    554.2403 300.2147272 +22.7170526     468.4899     72.56169      1.283     3.89     4.617867     20.46664     60.09539        11     1.003     0.804  63.53   0
       191   1017.0757    551.5620 300.3253818 +22.8218133     1173.063     72.48776      1.546     3.22     4.602844     20.46664     137.1561        17     1.052     1.001  42.49  16
       192    888.9120    550.1377 300.2858855 +22.7830211     2226.076     72.63554      1.654     3.41      4.11448     20.46664     255.6889        29     1.650     0.963  77.86   0
       193   1002.8928    550.6804 300.3212451 +22.8173128     661.2419     72.69089      1.439     3.53     4.604662     20.46664     70.07251        10     0.880     0.838  64.80   0
       194    642.2907    548.1670 300.2096965 +22.7085680     559.0557     72.50625      1.354     2.69     4.677978     20.46664     70.71845         8     0.787     0.708  69.00   0
       195    428.2107    548.1408 300.1430804 +22.6443929     357.6138     72.48776      1.371     2.38     4.217487     20.46664     60.29389         5     0.824     0.410  42.46   0
       196    480.6488    547.0591 300.1597455 +22.6598025     334.5507     72.59863      1.272     2.40     4.610317     20.46664      59.0525         5     0.717     0.438 -70.50   0
       197    927.0912    545.1710 300.2994001 +22.7930287     4143.592     72.50625      1.441     2.72      4.58996     20.46664     459.2451        31     1.169     1.127 -20.30   0
       198    641.9323    544.1190 300.2108999 +22.7072978     253.6974       72.654      1.040     2.38     4.679648     20.46664     47.32929         5     0.621     0.565  83.07   0
       199    547.0231    553.4918 300.1783106 +22.6815454     761.2339     72.46927      1.414     3.22      4.68949     20.46664     76.45068        13     1.044     0.812  67.49   0
       200    588.0044    541.0493 300.1951080 +22.6902547     372.1611     72.52473      1.444     4.89     4.740809     20.46664     46.37911         8     1.039     0.652 -10.02   0
       201   1018.9819    535.7399 300.3311159 +22.8178356     757.1963     72.50625      1.433     3.60     4.617723     20.46664      81.0391        14     1.074     0.926  27.65  16
       202    159.1668    535.6451 300.0634972 +22.5601265     1007.154     72.59863      1.488     3.01     4.088001     20.46664     114.1448        16     1.109     0.873  36.02   0
       203    819.9250    529.6840 300.2710297 +22.7564790     353.1029     72.63554      1.377     3.84     4.194721     20.46664     46.42958         7     0.905     0.657   5.65   0
       204    151.8272    525.6091 300.0644762 +22.5550451     491.7864     72.54321      1.594     3.44     4.064359     20.46664     40.84183         5     0.749     0.456  17.01   0
       205    759.4552    519.7751 300.2554081 +22.7355170     536.0544     72.56169      1.457     2.60     4.383645     20.46664     66.33687         5     0.703     0.473 -72.51   0
       206    648.1808    517.5278 300.2214823 +22.7015318     455.4632     72.54321      1.471     3.58     4.659427     20.46664     51.91096         9     0.967     0.802 -85.88   0
       207    700.5781    515.5192 300.2384514 +22.7166546       859.89     72.50625      1.369     2.83     4.525245     20.46664     101.5004        14     0.956     0.902  49.97   0
       208    679.3682    514.0209 300.2323327 +22.7098692     258.7288     72.54321      1.125     2.96     4.575191     20.46664     41.99176         6     0.777     0.642  57.85   0
       209   1015.2934    507.8839 300.3390134 +22.8087227     635.5865     72.72776      1.545     4.46     4.624419     20.46664      60.4381        14     1.155     0.918  50.68   0
       210    761.4311    508.0714 300.2598249 +22.7327459     806.7843     72.54321      1.266     2.40     4.413478     20.46664     113.6433        12     0.974     0.719  36.61   0
       211    918.4379    504.2600 300.3099907 +22.7786780     960.8909     72.56169      1.321     2.58     4.568261     20.46664     106.6191        14     0.995     0.812  51.14   0
       212    902.7214    500.7032 300.3062466 +22.7729488     734.7964       72.654      1.328     2.35     4.505579     20.46664      89.6521         9     0.800     0.696   1.02   0
       213    107.6895    500.9976 300.0587567 +22.5347437      316.965     72.45077      1.545     3.82     4.091593     20.46664     38.99123         5     0.903     0.463  89.47   0
       214    647.1166    498.5308 300.2273206 +22.6957556     3224.199       72.654      1.247     2.11     4.659141     20.46664      481.441        23     1.061     0.905  70.25   0
       215   1007.6563    497.4588 300.3400176 +22.8034388     476.3192     72.61709      1.273     2.97     4.627049     20.46664     66.47746        10     0.872     0.801 -23.17   0
       216    123.3147    489.5477 300.0673286 +22.5361450     373.6932     72.56169      1.332     3.34     4.045669     20.46664     46.49938         7     0.948     0.682  87.42   0
       217    486.6308    485.4780 300.1816066 +22.6439117     412.5721     72.52473      1.359     3.89     4.805888     20.46664     52.95403         9     0.989     0.680  49.67   0
       218    418.6939    486.2607 300.1602169 +22.6237726     266.3638     72.63554      1.237     2.60      4.38461     20.46664     49.55991         5     0.730     0.439 -75.96   0
       219   1016.7047    476.3075 300.3497086 +22.8000667     874.5794     72.72776      1.407     3.13     4.641247     20.46664     102.5352        14     1.070     0.820  44.27  16
       220    930.2253    477.1221 300.3224787 +22.7744069     456.7775     72.54321      1.315     3.18     4.631924     20.46664     60.00926         8     0.840     0.623  49.00   0
       221    666.6527    474.1948 300.2413067 +22.6946175     310.3265     72.52473      0.974     3.51     4.561012     20.46664     41.46643         5     0.929     0.388   5.47   0
       222    757.6337    472.6000 300.2701613 +22.7214156     1049.137     72.48776      1.229     2.45     4.508137     20.46664     145.4274        14     0.906     0.857  40.62   0
       223    553.3323    473.0427 300.2064020 +22.6603307      458.766     72.52473      1.447     4.13     4.644468     20.46664     48.14528         9     0.880     0.797  11.58   0
       224    261.6777    470.7433 300.1164310 +22.5722428      693.197     72.58016      1.256     2.72     4.158162     20.46664     89.73782         9     0.838     0.719  -2.42   0
       225    324.0236    466.3043 300.1372550 +22.5896617     3880.976     72.43227      1.396     2.53     4.203253     20.46664     440.2518        31     1.203     1.057  52.47   0
       226    271.2171    461.1973 300.1224959 +22.5723628     7440.382     72.45077      1.396     2.48     4.203704     20.46664       825.05        39     1.232     1.096  49.71   0
       227    873.2121    462.1733 300.3095612 +22.7530364     145.7373     72.54321      1.248     4.23     4.592239     20.46664     31.12188         5     0.742     0.708  83.15   0
       228    412.0285    455.4143 300.1681597 +22.6129171     4685.586     72.56169      1.324     2.27     4.379694     20.46664      620.059        29     1.106     1.023  50.55   0
       229    656.2426    452.0900 300.2452427 +22.6851477     18250.35     72.56169      1.295     2.25     4.471267     20.46664     2551.851        48     1.170     1.091  78.08   0
       230    503.9153    454.1965 300.1971423 +22.6401080     240.6891     72.46927      1.126     4.04     4.716474     20.46664     44.57428         5     0.995     0.468  65.56   0
       231    673.8809    452.2399 300.2506866 +22.6904751     878.8321     72.50625      1.954     5.88      4.44493     20.46664     74.73638        14     1.702     0.571 -40.51   0
       232    282.9754    449.8668 300.1298299 +22.5726357     215.1006     72.52473      1.237     4.51       4.2538     20.46664     37.93924         5     1.201     0.482  73.88   0
       233    900.3045    448.1177 300.3225698 +22.7571092     220.6163     72.70933      1.125     4.66     4.619654     20.46664     34.89104         6     1.161     0.543 -64.94   0
       234    852.9896    442.6093 300.3096111 +22.7413567     400.6304     72.43227      1.292     3.39      4.57756     20.46664     56.30752         5     0.769     0.432  20.89   0
       235    276.6089    439.1662 300.1313248 +22.5676549     529.5699     72.54321      1.847     2.82     4.303896     20.46664     48.44566         6     0.718     0.623  15.86   0
       236    989.8494    434.6999 300.3548443 +22.7800631     752.9996     72.63554      1.451     3.12     4.700432     20.46664     93.35609        15     1.118     0.872  17.83   0
       237    526.8009    433.8349 300.2108751 +22.6411180     356.2948     72.50625      1.264     1.86     4.507201     20.46664      61.8836         6     0.680     0.540  51.14   0
       238    210.9651    432.2249 300.1131746 +22.5459797     2009.456     72.56169      1.392     2.49     4.285947     20.46664     235.8587        23     1.082     1.031 -26.11   0
       239    596.8959    421.5090 300.2366943 +22.6585807     6613.182     72.72776      1.329     2.27     4.316115     20.46664     988.7098        37     1.146     1.060  42.91   0
       240   1010.4580    421.7645 300.3654710 +22.7825133     1202.592     72.54321      1.462     2.51     4.744668     20.46664     145.5918        15     1.036     0.864 -76.84   0
       241    311.7552    420.9584 300.1481626 +22.5729645     608.6605     72.61709      1.283     2.58      4.38707     20.46664     88.15849         9     0.852     0.669 -24.28   0
       242    856.7703    413.2198 300.3203313 +22.7340408      352.612     72.54321      1.247     4.18      4.61088     20.46664     48.38209         7     1.055     0.472  66.06   0
       243    169.3913    414.0425 300.1061580 +22.5282942     402.7625     72.56169      1.067     2.00     4.211973     20.46664     77.46343         7     0.678     0.628 -71.76   0
       244     16.6712    411.7868 300.0594523 +22.4818441     1288.851     72.54321      1.582     2.81     4.171231     20.46664     167.6645        18     1.097     1.067 -55.81   0
       245    710.7275    411.5654 300.2753676 +22.6898255     456.3385     72.54321      1.543     3.60     4.441073     20.46664     61.50073         7     0.901     0.602  72.78   0
       246    800.9907    410.5090 300.3038293 +22.7165571     1006.478     72.46927      1.280     2.40     4.570288     20.46664     158.6249        13     0.970     0.794  79.64   0
       247    503.5079    407.7623 300.2120908 +22.6266486       6237.7     72.54321      1.290     2.27      4.62958     20.46664      868.892        34     1.137     1.046  73.51   0
       248    895.5519    402.2611 300.3359766 +22.7425032     1375.901     72.59863      1.342     2.54     4.623741     20.46664     172.6922        19     1.094     0.881 -82.80   0
       249    992.8746    402.3316 300.3662966 +22.7716614      576.957     72.61709      1.311     2.79     4.731649     20.46664      87.2217        12     0.977     0.799 -19.30   0
       250    487.9901    396.5891 300.2108891 +22.6187889     518.8117     72.43227      1.390     2.05      4.77026     20.46664     73.76768         7     0.700     0.612  -7.41   0
       251    570.7702    394.7434 300.2372506 +22.6430633      356.781     72.56169      1.166     2.63     4.268001     20.46664     50.35403         6     0.718     0.568  42.78   0
       252     15.0572    393.4169 300.0649138 +22.4760889     1038.225     72.50625      1.552     3.20     4.251295     20.46664     95.05519        16     1.040     0.988  67.43   0
       253    848.7732    393.0543 300.3243855 +22.7258491     262.6352     72.58016      1.280     3.86     4.592632     20.46664     35.77174         5     0.833     0.513  41.94   0
       254    551.3373    392.3197 300.2319888 +22.6365444     305.9684       72.654      0.943     2.98      4.26865     20.46664     52.00397         6     0.729     0.653 -65.26   0
       255    868.3510    389.8914 300.3315138 +22.7308022     545.0543     72.58016      1.234     2.07     4.601139     20.46664     85.35046         9     0.817     0.633  23.60   0
       256    391.0660    387.0052 300.1838477 +22.5869886     2568.078     72.54321      1.310     2.27     4.606966     20.46664     369.7117        24     1.040     0.980  55.69   0
       257    109.4760    384.4176 300.0971593 +22.5018239     994.2515     72.54321      1.395     3.03     4.302124     20.46664     115.1892        13     0.969     0.861  40.38   0
       258    360.3833    376.4282 300.1777383 +22.5747546     29256.23     72.54321      1.356     2.35     4.698352     20.46664     3639.766        70     1.318     1.177  59.69   0
       259    338.3421    380.1394 300.1696796 +22.5692137     210.9568     72.61709      1.149     2.50     4.651558     20.46664     41.78127         5     0.740     0.425  69.69   0
       260    895.2804    374.0245 300.3450581 +22.7343037     1409.125     72.52473      1.405     2.51     4.606681     20.46664     184.8546        17     1.000     0.930  88.32   0
       261    850.2659    371.9315 300.3317073 +22.7202237     187.1053     72.59863      1.070     2.76     4.579891     20.46664     48.96951         5     0.770     0.478  41.65   0
       262     56.7317    364.1989 300.0873385 +22.4802034     5011.024     72.50625      1.581     3.03     4.373496     20.46664     485.3127        38     1.379     1.186  32.76   0
       263    810.3962    362.8196 300.3222406 +22.7056655      467.849     72.50625      1.227     2.69     4.560389     20.46664     63.72111        10     0.917     0.676   0.84   0
       264    234.7532    362.6706 300.1431450 +22.5331446     496.5457     72.52473      1.587     4.91     4.492726     20.46664     49.03846         8     0.923     0.774 -60.27   0
       265    458.9641    361.4423 300.2132662 +22.5999950     560.2551     72.59863      1.332     2.12     4.812808     20.46664     100.0806        10     0.886     0.651 -85.32   0
       266    637.7542    358.9694 300.2697158 +22.6528518     159.6164     72.58016      1.034     3.78     4.254999     20.46664     37.33404         5     0.827     0.496  26.83   0
       267    770.8127    356.2015 300.3120557 +22.6919093     1898.039      72.3582      1.290     2.27     4.535573     20.46664     272.2317        19     1.070     0.880  40.60   0
       268    579.3144    351.2444 300.2540293 +22.6331252     426.1963     72.52473      1.485     3.03     4.253576     20.46664     62.24063         6     0.926     0.425   4.64   0
       269    985.9202    349.0465 300.3814247 +22.7542563     573.7526     72.56169      1.387     2.97      4.69428     20.46664     79.05053        10     0.909     0.732   2.79   0
       270    432.6138    340.8424 300.2117541 +22.5861814     2106.649     72.56169      1.494     3.13     4.835612     20.46664     255.7012        23     1.293     0.914  55.28   0
       271    645.0256    339.9368 300.2781569 +22.6495606      320.489     72.52473      1.361     2.11     4.259757     20.46664     45.18488         5     0.596     0.579  85.32   0
       272    871.7598    333.7363 300.3508033 +22.7156779     541.3104     72.50625      1.258     2.82     4.521451     20.46664     89.02907        11     1.016     0.668 -82.61   0
       273      4.6883    331.7907 300.0816939 +22.4552944     867.3711     71.06849      2.310     6.67     4.503164     20.46664     71.20107        18     1.814     1.035 -32.41  16
       274    754.2812    331.3116 300.3149836 +22.6798040     391.0494     72.67245      1.435     2.95     4.474687     20.46664     59.80748         7     0.831     0.667 -23.30   0
       275    722.8848    330.1772 300.3055718 +22.6700754      276.716     72.48776      1.365     4.51     4.422448     20.46664     53.01661         5     1.199     0.482 -26.05   0
       276    508.3570    319.9335 300.2421060 +22.6028704     1176.194     72.52473      1.338     3.39     4.590223     20.46664     144.0364        17     1.224     0.870  68.72   0
       277   1019.7711    315.8675 300.4027495 +22.7548458     333.8068      72.3026      1.496     4.28     4.489301     20.46664     40.08768         8     1.185     0.544  42.51  16
       278    891.7482    313.7049 300.3635344 +22.7159024     346.0356     72.61709      1.608     3.68     4.467484     20.46664      36.1922         5     0.887     0.439  45.95   0
       279    753.2800    312.0675 300.3209169 +22.6739722     2224.586       72.654      1.264     2.34      4.43294     20.46664     299.3466        19     1.014     0.897  67.47   0
       280   1014.6807    306.3770 300.4042417 +22.7505925     3066.436     72.48776      1.453     2.62     4.412979     20.46664     350.1085        28     1.165     1.100 -84.25   0
       281    461.5052    295.7964 300.2353599 +22.5818983     665.8378     72.45077      1.253     2.25     4.823711     20.46664     98.87268        11     0.811     0.775  56.59   0
       282    136.3851    289.8013 300.1362228 +22.4827327     1566.652     72.39524      1.902     3.91     4.589365     20.46664      107.955        25     1.307     1.200  10.35   0
       283    167.1371    290.0576 300.1456945 +22.4920258     719.6467     72.59863      1.333     2.83     4.531563     20.46664     85.43867        11     0.961     0.743 -11.96   0
       284    874.2227    283.4135 300.3679011 +22.7019453     353.3331     72.52473      1.418     2.93      4.38841     20.46664     49.86142         6     0.727     0.632 -62.27   0
       285    220.6308    281.9508 300.1649487 +22.5057341     556.2615     72.58016      1.379     2.96     4.519358     20.46664     78.25813         9     0.859     0.739   6.88   0
       286   1015.2628    279.6044 300.4131109 +22.7430658      380.357     72.52473      1.575     3.38     4.287389     20.46664     49.96061         6     0.980     0.635 -48.46   0
       287      5.8745    277.3575 300.0997235 +22.4400278     423.4152     72.52473      2.936     3.72     4.703017     20.46664      43.8698         5     1.108     0.629 -47.20  16
       288    896.4906    275.8450 300.3772978 +22.7064349     290.4934     72.52473      1.309     2.96     4.379922     20.46664      47.8884         6     0.966     0.433  29.10   0
       289    824.8290    273.3942 300.3557583 +22.6842770     677.1686     72.54321      1.251     2.48     4.383604     20.46664     92.94559        10     0.928     0.664  35.00   0
       290    415.3050    272.4677 300.2285563 +22.5613534     475.7535     72.69089      1.597     4.00     4.892521     20.46664     60.21782        10     1.158     0.780  78.31   0
       291    915.3868    266.7259 300.3861471 +22.7094686     323.1224     72.56169      1.261     3.29     4.365383     20.46664     47.25957         7     0.863     0.621  18.50   0
       292    923.1561    262.4707 300.3899498 +22.7105704     2078.707     72.50625      1.445     2.57     4.356118     20.46664     266.7786        27     1.289     1.021  65.70   0
       293    341.7434    259.8775 300.2097620 +22.5356938     2261.557     72.58016      1.357     2.35      4.87958     20.46664     311.5688        21     1.029     0.976  64.51   0
       294    419.3108    254.9511 300.2354852 +22.5575214     978.0217     72.54321      1.318     2.54     4.913953     20.46664     138.7773        14     0.981     0.852 -32.03   0
       295    821.5378    254.3293 300.3609183 +22.6778098     534.8699     72.58016      1.075     2.05     4.374601     20.46664     78.39803         6     0.635     0.594 -12.72   0
       296    928.7016    251.5469 300.3952228 +22.7090885     302.9955     72.63554      1.204     3.32     4.340924     20.46664     41.00745         5     0.737     0.434  24.12   0
       297    236.1958    247.0544 300.1811074 +22.5003785      608.031     72.52473      1.194     2.17     4.753975     20.46664     103.1461         9     0.768     0.699  19.59   0
       298    354.4099    246.2436 300.2181239 +22.5355731     238.6947     72.56169      1.001     3.11     4.899381     20.46664     37.35363         5     0.719     0.464  72.67   0
       299    774.1400    243.7981 300.3495664 +22.6605913     1659.525     72.50625      1.375     2.30     4.400876     20.46664     249.0436        21     1.137     0.938  57.95   0
       300    839.1426    243.6645 300.3698644 +22.6800134     641.9083     72.59863      1.456     2.51     4.378088     20.46664     78.09475         8     0.883     0.605  -6.37   0
       301    257.8845    240.3668 300.1900186 +22.5049583     566.9071     72.50625      1.334     3.01     4.818348     20.46664     58.63586        11     0.943     0.747 -70.71   0
       302    778.1548    235.2046 300.3536051 +22.6593224       697.36     72.54321      1.307     2.90     4.396479     20.46664     101.4912        12     0.985     0.780  63.14   0
       303    698.6268    234.5353 300.3290488 +22.6353180     1019.377     72.52473      1.203     2.27     4.391852     20.46664     201.5624        14     0.929     0.822  60.27   0
       304    894.1799    225.9923 300.3927514 +22.6914059     1456.165     72.50625      1.388     2.77     4.354168     20.46664     176.1394        20     1.101     0.997  42.07   0
       305    625.0228    226.3835 300.3087727 +22.6109332     908.2803     72.54321      1.239     2.29     4.815462     20.46664     142.7173        10     0.851     0.686  82.29   0
       306    906.3647    225.2076 300.3968042 +22.6948273     776.7971     72.56169      1.402     2.87     4.338485     20.46664     85.36205        12     0.931     0.831 -84.80   0
       307    952.6605    224.8547 300.4113520 +22.7085817      322.612     72.59863      1.357     5.31     4.309437     20.46664     50.63858         7     1.235     0.644 -20.34   0
       308   1022.9542    215.5894 300.4362782 +22.7269521     979.9525       60.404      1.228     2.65     4.319835     20.46664     140.5096        12     0.946     0.764 -81.42  24
       309     46.5234    212.2475 300.1334668 +22.4335263     447.6962     72.54321      1.721     4.44       4.8641     20.46664     52.53924        10     1.123     0.906  85.89   0
       310    257.0170    208.6052 300.2000512 +22.4955761     700.9297     72.50625      1.422     2.63     4.868789     20.46664     96.88405        12     0.966     0.787 -22.40   0
       311    118.9334    203.4314 300.1588181 +22.4527029     2162.942     72.54321      1.416     2.58     4.933467     20.46664     265.7168        27     1.136     1.124 -56.37   0
       312    941.9030    200.2979 300.4159637 +22.6982985     770.7086     72.72776      1.340     2.92     4.288774     20.46664     101.8904        13     1.017     0.793  63.38   0
       313     68.5719    200.2981 300.1441902 +22.4367059     490.3133     72.48776      1.394     2.66     4.891367     20.46664     57.61491         7     0.839     0.556 -35.29   0
       314    276.2426    196.7301 300.2098794 +22.4979267     5493.541     72.50625      1.382     2.43     4.880586     20.46664     674.8434        35     1.259     1.050  67.03   0
       315    258.1598    197.9716 300.2038553 +22.4928644     383.0229     72.56169      1.399     2.67     4.867175     20.46664     48.15257         5     0.775     0.491  32.22   0
       316     60.4213    191.2234 300.1446018 +22.4316570     1343.367     72.54321      1.634     3.07     4.884662     20.46664     135.6616        19     1.055     1.045  55.78   0
       317    259.7168    187.6065 300.2077009 +22.4903538     482.8578     72.46927      1.186     3.28     4.867312     20.46664     76.89515        10     1.095     0.604 -10.15   0
       318    920.4108    178.2079 300.4164280 +22.6855122     3544.287     72.43227      1.371     2.47     4.284721     20.46664     426.2585        26     1.117     1.044  51.82   0
       319   1023.3896    176.9538 300.4489460 +22.7159665     1834.749     58.07336      1.187     3.82      4.36489     20.46664     313.6194        17     1.200     0.710  86.09  24
       320    222.8661    174.2146 300.2005894 +22.4754638     385.1773     72.52473      1.514     4.31     4.821726     20.46664     47.35281         7     0.901     0.589 -80.02   0
       321    469.7733    173.2948 300.2776705 +22.5491763     606.9532     72.46927      1.320     2.51     4.770372     20.46664     82.08012         9     0.828     0.696  -1.25   0
       322    584.4656    171.3355 300.3140008 +22.5829641      212.189     72.59863      0.992     3.08     4.743731     20.46664     48.08717         5     0.737     0.442 -66.89   0
       323    394.0690    165.1459 300.2567620 +22.5241567     803.9819     72.58016      1.811     3.31     4.957595     20.46664     86.46952        10     0.935     0.827  46.13   0
       324    160.0509    162.4507 300.1848832 +22.4532594     740.2244     72.58016      1.775     2.63     4.958629     20.46664     75.15659         8     0.813     0.660 -53.00   0
       325     58.1830    161.5916 300.1535158 +22.4224783     302.6338     72.48776      1.295     3.11     4.892491     20.46664     40.01996         6     0.709     0.644  60.46   0
       326    521.2197    160.6490 300.2977806 +22.5609512     1654.644     72.54321      1.298     2.54     4.395762     20.46664     239.0266        15     0.982     0.847 -85.68   0
       327    449.1726    161.0447 300.2752337 +22.5394852     331.4709     72.56169      1.186     2.90     4.838387     20.46664     55.99338         8     0.819     0.651  46.03   0
       328    582.7464    160.0001 300.3171417 +22.5791909     390.1743     72.48776      1.580     3.13     4.698493     20.46664     55.17372         8     1.027     0.796  14.15   0
       329    264.6497    156.1441 300.2194374 +22.4827945     413.9554     72.58016      1.291     2.89     4.878458     20.46664     49.65224         7     0.740     0.636 -74.92   0
       330    809.8216    150.0366 300.3910959 +22.6443105     378.9146     72.56169      1.231     4.32     4.423849     20.46664     53.95407         9     0.834     0.771  -3.74   0
       331    295.2487    140.5538 300.2340057 +22.4874844     5928.887     72.56169      1.415     2.47     4.930949     20.46664     728.5958        39     1.259     1.141  59.48   0
       332    801.4645    141.0492 300.3914063 +22.6392243     336.4772     72.56169      1.127     2.55     4.450554     20.46664     50.09324         6     0.756     0.493  82.13   0
       333    146.2567    139.9682 300.1878873 +22.4426683     704.2836     72.56169      1.451     3.73     4.963222     20.46664      92.9137        12     1.154     0.743  60.05   0
       334    924.4779    137.8316 300.4307902 +22.6751142      355.959     72.52473      1.123     4.09     4.551141     20.46664     50.32197         7     0.997     0.480  80.91   0
       335    266.9109    134.6305 300.2271162 +22.4772919      244.991     72.52473      1.284     3.24     4.906028     20.46664      45.6736         7     0.817     0.620 -20.61   0
       336    771.2194    131.6540 300.3850293 +22.6274691     229.8852     72.52473      1.301     3.60     4.643343     20.46664     36.53665         5     0.935     0.404  83.83   0
       337    310.6833    131.9339 300.2415995 +22.4896324     481.8318       72.654      1.710     3.18     4.955362     20.46664     49.15572         7     0.763     0.644 -82.71   0
       338     56.8675    130.8577 300.1630725 +22.4132592     456.6168     72.58016      1.662     4.77     4.955709     20.46664     44.54875         8     1.006     0.641 -25.92   0
       339    541.2527    125.8476 300.3153005 +22.5569477     6155.975     72.58016      1.360     2.43     4.201284     20.46664     812.1364        31     1.179     1.014  70.39   0
       340    426.9165    125.5236 300.2798278 +22.5226107     699.0103     72.63554      1.419     2.66     4.525084     20.46664     91.27366         9     0.863     0.674  68.99   0
       341    561.0764    119.9837 300.3233721 +22.5611984     351.3455     72.54321      1.797     3.77     4.385896     20.46664     40.32381         5     0.686     0.596   0.62   0
       342    793.6077    116.5135 300.3969141 +22.6298159     1061.704     72.45077      2.010     5.93     4.599792     20.46664      105.014        19     1.818     0.774 -73.37   0
       343    886.1426    114.4826 300.4264109 +22.6569255     422.1372     72.61709      1.293     2.71     4.772216     20.46664     66.98997        10     0.906     0.697  59.61   0
       344    234.1127    109.8843 300.2249442 +22.4603555     515.3947     72.67245      1.527     4.08     4.923486     20.46664     56.61054        10     0.948     0.777 -52.50   0
       345    669.6592    106.0196 300.3617063 +22.5896949     6305.667     72.48776      1.343     2.36     4.970788     20.46664     820.3394        35     1.185     1.034  77.01   0
       346    592.7955    108.2773 300.3370416 +22.5673309     460.1394     72.45077      1.335     2.76      4.77478     20.46664      57.1538         8     0.794     0.658  46.58   0
       347    444.4579    104.9341 300.2919606 +22.5219475     1493.527     72.58016      1.290     2.66     4.261475     20.46664     201.0569        19     1.081     0.902  82.92   0
       348    710.7504    103.3777 300.3753606 +22.6012364     829.8055     72.54321      1.248     2.74     4.873452     20.46664     112.8826        11     0.984     0.673  78.79   0
       349    780.5699    101.3894 300.3977555 +22.6215636     363.1606     72.54321      1.718     4.33     4.704191     20.46664     44.35823         7     1.556     0.343  53.20   0
       350    726.8203     99.4927 300.3816258 +22.6049296     513.1176     72.46927      1.317     2.37     4.833244     20.46664     82.68449         9     0.865     0.659 -26.72   0
       351    193.3998     97.4526 300.2163208 +22.4445849     671.3257     72.48776      1.383     3.85       4.9544     20.46664     79.42875        10     1.096     0.649  50.43   0
       352    996.4151     96.9540 300.4664755 +22.6848770     539.1356     72.56169      1.315     3.08     5.205548     20.46664     69.28573         8     0.886     0.595  76.60   0
       353    765.0567     94.6584 300.3951046 +22.6149844     528.1288     72.61709      1.468     4.02     4.752565     20.46664     61.88163        11     1.117     0.698  73.54   0
       354    713.8835     90.8570 300.3803959 +22.5985736     2657.851     72.63554      1.330     2.21     4.862127     20.46664     419.4394        24     1.075     1.000  84.79   0
       355    728.7664     89.6296 300.3854297 +22.6026756     831.7996     72.56169      1.779     5.99     4.826079     20.46664     76.43764        15     1.591     0.760  59.95   0
       356    355.0526     91.4110 300.2685349 +22.4912813       471.23     72.54321      1.555     2.73     5.040082     20.46664     62.03928         7     0.807     0.610 -29.52   0
       357      7.5603     85.0704 300.1626037 +22.3853316     790.2708     72.48776      1.532     3.23     5.045545     20.46664     78.64055        14     1.053     0.872 -26.70   0
       358    800.2772     82.4297 300.4100429 +22.6220085     1528.943     72.52473      1.283     2.33     4.704484     20.46664     216.3138        18     1.027     0.912  44.02   0
       359    960.2042     80.8968 300.4603897 +22.6694230     272.0203     72.45077      1.255     4.38     5.148924     20.46664     35.90728         8     0.842     0.667  49.54   0
       360    878.5151     76.5535 300.4363307 +22.6437314     285.4666     72.52473      1.102     3.69     4.840647     20.46664       33.534         6     0.933     0.419 -70.96   0
       361    738.2819     75.5844 300.3929472 +22.6014844      824.382     72.52473      1.387     2.43     4.800819     20.46664       123.28        14     0.936     0.874  45.15   0
       362    543.9013     74.7347 300.3326961 +22.5430474     1129.738     72.63554      1.455     2.56     4.366429     20.46664     153.9835        19     1.189     0.915  89.23   0
       363    116.8036     75.1243 300.1997586 +22.4152178     530.7877     72.45077      1.518     3.41     4.929824     20.46664     58.27221         8     0.924     0.648  21.87   0
       364    447.7057     72.9246 300.3033482 +22.5137202     683.5322     72.69089      1.287     2.64     4.149551     20.46664     116.4351        10     0.842     0.789  56.60   0
       365    829.7381     71.8316 300.4226592 +22.6277767     473.7851     72.56169      1.523     2.95     4.737156     20.46664     68.50783         9     0.952     0.700 -38.93   0
       366    219.2340     63.0786 300.2354928 +22.4424512     4110.721     72.48776      1.524     2.61     5.010316     20.46664     422.5132        34     1.261     1.171  37.78   0
       367    787.1193     63.9576 300.4119314 +22.6127572     621.0237     72.52473      1.366     2.97     4.748037     20.46664     74.07017        10     0.969     0.695   3.27   0
       368    641.5486     60.2247 300.3677990 +22.5681110     288.7787     72.56169      1.304     2.91     4.959847     20.46664     55.20304         7     0.924     0.471  78.32   0
       369    544.7140     60.0416 300.3377120 +22.5390666     427.2004     72.52473      1.376     2.18     4.503885     20.46664     55.87449         7     0.701     0.649  79.41   0
       370    780.4271     55.3749 300.4126285 +22.6082856     863.3154     72.50625      1.352     2.95     4.764497     20.46664      116.399        14     1.038     0.860 -68.98   0
       371    335.2290     55.2693 300.2740859 +22.4749573     1086.686     72.54321      1.274     2.35     5.055974     20.46664     145.1221        15     0.925     0.876 -16.90   0
       372    746.0115     54.7210 300.4021184 +22.5977973      422.203     72.52473      1.297     4.15     4.788671     20.46664      51.0031         7     1.087     0.452 -50.48   0
       373    266.1675     55.2097 300.2526324 +22.4542518     92.67796     72.54321      1.122     3.84     5.046628     20.46664     30.00861         5     0.920     0.460  46.18   0
       374    818.0202     50.4195 300.4259487 +22.6181104     724.4482     72.54321      1.794     4.35      4.74597     20.46664     56.82499        13     1.197     0.822  68.42   0
       375    741.8132     50.1774 300.4022834 +22.5952339     525.8984     72.52473      1.549     3.88     4.790622     20.46664     45.38263         6     0.942     0.457 -54.38   0
       376    838.3574     46.7987 300.4334601 +22.6231546     2228.314     72.54321      1.416     2.60     4.730173     20.46664     292.1614        22     1.218     0.933 -88.03   0
       377    544.0224     44.9587 300.3423858 +22.5345232     525.3228     72.58016      1.416     3.15     4.629425     20.46664     69.27799        10     0.902     0.815 -64.89   0
       378    221.4061     42.0745 300.2429759 +22.4370676     1008.558     72.48776      1.490     3.22     5.072066     20.46664     121.5101        17     1.156     0.934  12.02   0
       379   1013.2153     40.0424 300.4901650 +22.6735248      775.675     72.56169      1.598     3.34     5.232287     20.46664     90.38901        11     1.015     0.812  24.66   0
       380    786.8037     39.3545 300.4198083 +22.6055856     872.9852     72.52473      1.201     2.47     4.779934     20.46664     127.2644        12     0.892     0.797 -87.16   0
       381    493.7789     37.5876 300.3291383 +22.5173598     385.4834     72.52473      1.314     3.49     4.233061     20.46664     49.79769         8     0.897     0.701  48.94   0
       382    544.3994     32.0788 300.3466778 +22.5309330     255.7515     72.43227      1.190     3.37     4.743389     20.46664     38.12561         5     0.750     0.437  68.81   0
       383    237.1971     31.8563 300.2511960 +22.4388627     107.5579     72.50625      1.220     2.66     5.137697     20.46664       42.395         5     0.703     0.679  59.02   0
       384    371.4272     29.3330 300.2937499 +22.4783459     370.7959     72.52473      1.080     2.25     4.797022     20.46664     68.94101         5     0.706     0.454  13.61   0
       385    639.1261     24.2413 300.3787082 +22.5570382      702.798     72.52473      1.261     2.31     4.959847     20.46664     113.9314        12     0.980     0.758 -82.30   0
       386    871.3466     23.5249 300.4512857 +22.6263296     242.0736     72.56169      1.138     3.87      4.69978     20.46664     31.83818         6     0.903     0.475 -88.52   0
       387    774.5574     21.6727 300.4217238 +22.5968343     198.7912     72.52473      1.030     3.39     4.797359     20.46664     41.74117         5     0.909     0.494  85.89   0
       388    248.4544     21.6291 300.2580099 +22.4392966     363.6691     72.54321      0.994     2.22     5.149814     20.46664     86.36027         6     0.648     0.636  -3.73   0
       389    802.4507     19.0347 300.4312699 +22.6044225     663.6566     72.56169      1.284     2.69     4.809227     20.46664     90.36045        11     0.923     0.760 -72.58   0
       390    257.7825   1016.9970 299.9376516 +22.7277792     740.3062     72.45077      5.055     4.35     15.55525     20.46664     32.43017         5     1.048     0.514 -50.26  17
       391    507.5376     14.8418 300.3407920 +22.5149403       239.84     72.52473      1.436     3.42     4.442567     20.46664        34.86         5     0.794     0.425  67.15   0
       392    699.8834   1013.1725 300.0764367 +22.8593398     6611.992     72.54321      1.892     4.10      3.37211     20.46664     398.9102        45     1.511     1.396   9.21   0
       393    174.8709    973.3394 299.9260932 +22.6903730     633.6035     72.58016      4.498     4.65     16.47829     20.46664     38.51862         5     1.238     0.496  52.29   0
       394    281.3235   1011.1061 299.9468857 +22.7331570     2343.027     72.67245      9.248    18.45     10.86919     20.46664     71.51302        90     5.250     1.801  50.24  19
       395    291.1801   1007.4166 299.9511502 +22.7350579     981.8087     72.52473      2.494     4.82        9.032     20.46664     71.99968        14     1.265     0.949 -38.85   0
       396    580.2571   1007.5608 300.0410201 +22.8218464     465.4594     72.54321      1.804     4.56     2.521879     20.46664     29.25473         7     0.901     0.657  72.16   0
       397    175.4053   1015.0067 299.9127008 +22.7024775     3372.471     72.39524     10.220    31.60     23.69721     20.46664      67.2085       330     7.042     3.936  42.50  27
       398    608.4360   1003.9858 300.0509547 +22.8292740      1552.12     72.54321      1.872     4.26     2.535435     20.46664     105.3855        26     1.315     1.268  -6.08   0
