#   1 NUMBER                 Running object number                                     
#   2 X_IMAGE                Object position along x                                    [pixel]
#   3 Y_IMAGE                Object position along y                                    [pixel]
#   4 ALPHA_J2000            Right ascension of barycenter (J2000)                      [deg]
#   5 DELTA_J2000            Declination of barycenter (J2000)                          [deg]
#   6 FLUX_APER              Flux vector within fixed circular aperture(s)              [count]
#   7 FLUXERR_APER           RMS error vector for aperture flux(es)                     [count]
#   8 FLUX_RADIUS            Fraction-of-light radii                                    [pixel]
#   9 FWHM_IMAGE             FWHM assuming a gaussian core                              [pixel]
#  10 BACKGROUND             Background at centroid position                            [count]
#  11 THRESHOLD              Detection threshold above background                       [count]
#  12 FLUX_MAX               Peak flux above background                                 [count]
#  13 ISOAREA_IMAGE          Isophotal area above Analysis threshold                    [pixel**2]
#  14 A_IMAGE                Profile RMS along major axis                               [pixel]
#  15 B_IMAGE                Profile RMS along minor axis                               [pixel]
#  16 THETA_IMAGE            Position angle (CCW/x)                                     [deg]
#  17 FLAGS                  Extraction flags                                          
         1    688.4645     16.4588 300.3929137 +22.6016160     717.9614     72.26847      1.334     3.26     6.349809     20.37875     90.84705        14     0.977     0.971  29.22   0
         2    493.8836     15.7150 300.3325251 +22.5431744     1076.731     72.36035      1.511     2.93      5.96801     20.37875     136.3221        15     1.065     0.907  39.13   0
         3    397.8279     13.7340 300.3032556 +22.5138522      651.261     72.21328      1.360     3.73     6.162252     20.37875     84.27315        12     1.037     0.808  50.44   0
         4    780.1147     12.6318 300.4227284 +22.6279329     529.3137     72.23168      1.647     3.58     5.710554     20.37875     47.57292        10     0.921     0.756 -85.06   0
         5    169.1003      3.6693 300.2353414 +22.4424725      3770.62     67.61324      1.694     3.32     5.882298     20.37875     414.5258        37     1.369     1.319 -19.98  24
         6    737.3969      4.3336 300.4120962 +22.6127667     669.5663     69.76085      1.500     4.44     5.710554     20.37875     76.31162        12     1.347     0.781  79.86  24
         7    495.3386      1.3194 300.3376412 +22.5394704     154.2346     56.21581      1.032     3.84     6.053597     20.37875     36.47338         5     1.047     0.403  14.00  24
         8    199.6995   1003.0218 299.9205008 +22.7384986     1501.838     72.17646    -18.007    25.25     85.40934     20.37875     47.75336        80     5.803     3.052 -38.59  19
         9     83.9477   1010.3990 299.8821121 +22.7058720     4999.237     72.19487     16.878    92.13     77.12014     20.37875     160.4221      2301    18.565    15.663  56.58  27
        10     74.0314    953.6655 299.8974798 +22.6866325     5164.721     72.23168     26.607     8.46     31.67208     20.37875      1252.38      3165    20.658    12.684 -22.95  19
        11    164.2690    975.2753 299.9185066 +22.7199104     2286.263     72.30524      6.585    16.68     60.79552     20.37875     59.39062        72     3.581     2.158  65.16   3
        12     74.5238    917.4975 299.9093927 +22.6764114     3910.297     72.37872     23.440    56.40     14.19305     20.37875      88.6836      1072    13.285     6.643 -30.92  27
        13    216.5777    984.9009 299.9316436 +22.7383678     4479.835     72.15805      7.285    22.49     67.97193     20.37875     89.98877       313     5.449     4.634 -82.38   3
        14    923.7125    970.5100 300.1566026 +22.9462809     695.8745     72.39707      2.103     7.45     4.148647     20.37875     44.43061        15     1.419     1.343  -2.94   0
        15    170.1296    992.7818 299.9146356 +22.7266885     1606.428     72.26846      5.571     9.43     76.34958     20.37875     64.55389        28     2.064     1.202 -11.92   3
        16    730.8104    987.4276 300.0909414 +22.8933245     577.3814     72.23168      1.843     7.47     3.970239     20.37875     47.21789        13     1.411     1.107  71.12   0
        17    153.1214    964.0823 299.9186803 +22.7133557     665.7852     72.34199      5.342     5.04     51.40825     20.37875     44.80711         5     1.154     0.686  78.25   0
        18    631.1183    986.8263 300.0600669 +22.8632641     8977.227     72.21328      2.126     5.14     3.924357     20.37875     496.4343        55     1.718     1.547  -0.33   3
        19    143.2295    956.0676 299.9182108 +22.7080892     1965.079     72.21328      9.902    15.02     44.47401     20.37875     53.84057        43     3.030     2.069 -26.25   3
        20    649.3596    953.8093 300.0764891 +22.8592567     6827.176     72.23168      2.002     4.49     4.180881     20.37875     376.9798        50     1.594     1.480 -10.52   0
        21    636.6920    984.6226 300.0625204 +22.8643028     9233.112     72.15805      2.044     4.85     3.938719     20.37875     534.4636        51     1.638     1.465  55.21   3
        22    241.6378    947.7806 299.9515097 +22.7352426    -25.72997     72.25008      1.102     3.46      24.2499     20.37875     33.48081         5     0.806     0.429  71.54   0
        23    802.0148    947.2098 300.1262216 +22.9031207     376.8707     72.13963      1.548     3.80     4.127192     20.37875     31.51845         5     0.825     0.502  54.36   0
        24      2.7150   1020.2808 299.8536523 +22.6843181     964.5251     62.10138      3.908     9.39    -4.381958     20.37875     38.51649        14     2.489     0.988  62.39  24
        25    557.9182    944.4063 300.0510578 +22.8291416      1585.53     72.15805      1.894     4.29     3.997434     20.37875     105.8823        25     1.348     1.193 -62.76   0
        26      1.3140    988.0316 299.8637054 +22.6746551     582.9808     56.12117      3.159     3.33    -4.756967     20.37875     36.59997         5     0.870     0.464  88.24  25
        27    169.2807    984.6570 299.9170140 +22.7241043     1187.164     72.26847      7.756    11.02     69.33466     20.37875     47.78096        14     2.802     1.208  87.99   3
        28    452.0766    940.8674 300.0192472 +22.7963863     899.9434     72.32362      1.857     4.31      4.26454     20.37875      80.2438        20     1.292     1.241   5.66   0
        29    382.3194    938.9423 299.9981577 +22.7749116      6500.25     72.26846      1.964     4.48     4.665659     20.37875     417.2343        42     1.493     1.418  10.44   0
        30    228.4103   1000.4492 299.9302671 +22.7463768       879.76     72.25008      2.313     8.82     79.03128     20.37875     54.72868        20     1.934     1.225  30.10   0
        31    161.9575    966.0970 299.9207726 +22.7165851     1027.122     72.23168      5.482     8.99     53.11724     20.37875     36.63991        18     1.835     1.229 -80.30   3
        32    414.4823    926.3241 300.0122722 +22.7809384     541.1777     72.34199      1.880     5.75     4.670717     20.37875     47.02947         8     1.238     0.752  25.60   0
        33    928.6711    917.9105 300.1752557 +22.9326594     2135.611     72.39707      2.129     5.12     4.442953     20.37875     108.6653        34     1.511     1.457  26.50   0
        34    579.9937    915.4520 300.0673497 +22.8274507     469.9214     72.21328      2.105     3.67     4.065588     20.37875     36.48589         6     1.132     0.342  49.60   0
        35      1.9639    998.1461 299.8606180 +22.6777490     773.9013      59.7233      7.879     7.81    -4.436584     20.37875     36.04207         9     1.791     0.953 -76.05  25
        36    352.9271    998.3765 299.9696813 +22.7831430     441.0855     72.26846      2.036     6.88     4.725218     20.37875      34.4216        10     1.268     1.048  82.51   0
        37    717.4752    906.9014 300.1129720 +22.8662095     932.5323     72.36035      2.155     6.08      4.65581     20.37875     54.41734        18     1.537     1.139  45.24   0
        38    544.4079    991.4536 300.0315488 +22.8385911     2444.283     72.23168      2.055     5.16     4.009518     20.37875     136.5816        34     1.495     1.441 -73.73   0
        39    529.4990    902.6262 300.0557912 +22.8086298      378.044     72.17646      1.537     5.41     4.143693     20.37875     41.66208         7     1.388     0.595 -13.90   0
        40    752.2429    901.0450 300.1257146 +22.8749485     1114.038     72.28685      1.976     5.47     4.617599     20.37875     63.59487        22     1.265     1.247  -8.60   0
        41    208.3508    899.0453 299.9570019 +22.7112786     825.3941     72.26847      4.753     4.79     10.66174     20.37875     29.80646         5     0.995     0.654  -1.62   1
        42    774.5236    894.6109 300.1347533 +22.8797783     11381.94     72.23168      1.915     4.18     4.569015     20.37875     696.9731        57     1.536     1.504   5.28   0
        43    820.0868    894.7964 300.1489007 +22.8934856     596.3596     72.15805      2.113     6.39     4.515931     20.37875     40.34107         7     1.317     0.870  67.36   0
        44    965.7866    894.6331 300.1944057 +22.9370922     423.8469     72.21328      1.817     4.34     4.469652     20.37875     25.89316         5     1.153     0.465   6.82   0
        45     85.9707    886.1724 299.9231346 +22.6708655      1047.36     72.21328      4.395     7.01     10.20835     20.37875     48.34915        15     1.434     0.961 -40.12   0
        46    479.6470    883.1105 300.0466109 +22.7880811     476.2033     72.19487      1.857     5.71     4.269672     20.37875     47.71461         7     1.065     0.863  54.94   0
        47    174.5313    986.1534 299.9181601 +22.7261091     986.2803     72.21328      5.795    11.35     70.05499     20.37875     51.86692        18     2.470     1.454 -61.87   3
        48    783.1170    876.9582 300.1431720 +22.8772845     1333.492     72.19487      1.912     4.47     4.677038     20.37875     103.5942        22     1.319     1.131 -20.52   0
        49    966.0509    875.8135 300.2006071 +22.9317650     447.9946     72.26846      1.833     6.59     4.507556     20.37875     28.83688        10     1.438     0.847 -61.48   0
        50    635.1522    874.5279 300.0978406 +22.8322395     443.1773     72.21328      1.800     4.73     4.466623     20.37875      30.7341         6     1.292     0.492  -4.17   0
        51    821.4199    870.3224 300.1572734 +22.8868565     853.1259     72.23168      2.011     6.30     4.739125     20.37875     54.88439        15     1.284     0.868  56.23   0
        52     56.7941    879.0131 299.9163929 +22.6600568     312.0048     72.10278      1.515     4.16     7.134109     20.37875     32.11623         5     1.336     0.370  82.67   0
        53    869.7675    862.1255 300.1750175 +22.8989883     521.8448     72.23168      1.896     5.85     4.810287     20.37875     51.15134         9     1.156     0.833  -9.37   0
        54    720.8049    860.2224 300.1291861 +22.8538048     653.8011     72.19487      1.675     5.65     4.745277     20.37875     48.70196        18     1.273     1.251  82.34   0
        55    732.2914    857.5495 300.1336357 +22.8564797     608.8187     72.26847      1.628     6.00     4.754135     20.37875     45.70378        16     1.429     0.969  38.63   0
        56    433.5963    856.7661 300.0408366 +22.7667121      4387.29     72.23168      1.842     3.95     4.586731     20.37875     327.8567        39     1.432     1.367 -27.00   0
        57    212.5422    845.7983 299.9756144 +22.6972641     279.1754     72.17646      1.399     3.46     5.798735     20.37875     33.88972         5     0.759     0.454  70.36   0
        58    158.8926    842.2774 299.9600743 +22.6801589     716.1929     72.37872      1.752     4.96     7.038157     20.37875     67.67074        13     1.219     0.953 -70.44   0
        59    135.8215    839.3853 299.9538406 +22.6724074     1782.432     72.21328      2.018     4.09     6.551063     20.37875     141.8818        27     1.590     1.194 -13.60   0
        60     67.7543    840.2077 299.9324128 +22.6522193     442.5182     72.25008      2.492     5.96     5.866671     20.37875     31.38434         8     1.275     0.785  52.65   0
        61   1007.7802    828.7665 300.2289247 +22.9307469     2171.857     72.23168      2.036     4.89     4.321133     20.37875     106.5864        34     1.499     1.391   1.96   0
        62     12.0304    828.7694 299.9188118 +22.6322174     347.3982     72.21328      1.568     4.42     5.866629     20.37875     36.13262         5     1.023     0.542 -75.86   0
        63    961.9965    827.0413 300.2151971 +22.9165384     2266.607     72.25008      2.065     4.99     4.579738     20.37875     123.8999        32     1.475     1.390 -40.39   0
        64    668.0341    827.5188 300.1233688 +22.8285988     493.9179     72.19487      2.003     3.85     4.646732     20.37875     37.98525         6     0.868     0.491  -7.61   0
        65    745.3411    821.3242 300.1494792 +22.8499877     512.4213     72.28686      1.384     4.05      4.75971     20.37875     55.47375        10     1.161     0.612   2.83   0
        66    168.1751    820.7950 299.9699428 +22.6767824     389.2704     72.19487      1.517     5.21     6.119975     20.37875     39.21687         7     1.085     0.707  11.37   0
        67    613.5861    814.8978 300.1105041 +22.8086558      4959.12     72.12121      1.718     3.86     4.396012     20.37875     367.5712        38     1.389     1.288  50.83   0
        68    103.9404    815.5573 299.9516728 +22.6560084     333.7574     72.21328      1.657     4.54     5.752664     20.37875     33.63659         5     1.019     0.575 -80.63   0
        69    415.8705    812.0758 300.0498440 +22.7485719     457.3034     72.30524      1.568     4.90      4.67091     20.37875     45.79456         9     1.101     0.766  12.11   0
        70    163.9906    808.4526 299.9726526 +22.6719869     1284.438     72.23168      1.912     3.64     5.672237     20.37875     117.7982        18     1.268     1.097  58.08   0
        71    634.1683    807.3882 300.1193581 +22.8126688     667.6041     72.23168      1.604     3.85     4.480358     20.37875     82.99675        17     1.167     1.021  73.48   0
        72    551.0355    798.1799 300.0964507 +22.7851069     268.8417     72.25008      1.378     3.77     4.340222     20.37875     34.04316         5     0.804     0.508 -54.32   0
        73   1006.5286    794.9133 300.2395376 +22.9206443     1143.112     72.36035      1.867     5.25     4.308198     20.37875     79.97478        21     1.415     1.164  76.29   0
        74    789.6254    794.6110 300.1719689 +22.8555847     4159.686     72.23168      1.779     4.17     4.770804     20.37875     283.0245        38     1.426     1.315  29.70   0
        75    198.3358    789.2672 299.9895682 +22.6767867     399.3253     72.28685      1.413     3.26     5.198483     20.37875     53.07243         5     1.356     0.228 -16.48   0
        76    506.9556    786.9249 300.0863790 +22.7686620     755.3317     72.21328      1.731     3.48     4.395537     20.37875     70.08929        11     0.913     0.853  82.83   0
        77    152.8427    785.0062 299.9768053 +22.6619175     1004.428     72.25008      1.817     3.99     5.337392     20.37875      101.433        23     1.356     1.132 -19.18   0
        78    302.6528    777.0202 300.0259992 +22.7045612     53707.73     72.21328      1.801     3.75     5.063727     20.37875     3950.586        91     1.548     1.481  10.70   0
        79    568.9415    780.7408 300.1076958 +22.7854677     452.5403     72.30524      1.775     3.59     4.413735     20.37875     44.30066         5     1.019     0.364 -18.61   2
        80    560.4726    776.2682 300.1065111 +22.7816451     1642.087     72.30524      1.686     3.53     4.399601     20.37875     136.4509        24     1.262     1.101   4.91   0
        81    973.4764    775.5688 300.2355091 +22.9051869     930.0098     72.23168      1.939     7.09     4.543859     20.37875      66.9552        17     1.401     1.080  24.66   0
        82    231.1390    775.3755 300.0042852 +22.6826410     316.1641     72.23168      1.464     5.03     5.046311     20.37875     42.14289         7     1.179     0.606 -28.92   0
        83    589.4775    772.2684 300.1168468 +22.7891905     867.7145     72.34199      1.557     3.92     4.520017     20.37875     84.22531        18     1.145     1.076  61.54   0
        84    600.4249    770.5475 300.1208167 +22.7919775     608.1185     72.25008      1.738     4.17     4.568896     20.37875     71.09222        13     1.130     1.006  12.70   0
        85    705.7040    767.4412 300.1546348 +22.8226358     491.4648     72.23168      1.691     4.71     4.736903     20.37875     51.70458        10     1.289     0.792 -57.05   0
        86    743.4847    757.3354 300.1696962 +22.8310537     708.5787     72.32362      1.645     4.89     4.768865     20.37875     61.43595        14     1.084     1.007   0.78   0
        87    352.4137    754.2626 300.0488790 +22.7129529     31849.53     72.19488      1.747     3.54     4.898699     20.37875     2866.625        79     1.506     1.428  -1.83   0
        88    366.8173    754.8962 300.0531560 +22.7174536       1938.9     72.13963      1.722     3.66     4.849301     20.37875     174.7286        24     1.250     1.146  24.11   0
        89    242.0438    753.6423 300.0147390 +22.6796764     260.7935     72.32362      1.844     4.69     4.968482     20.37875     27.64193         5     1.014     0.615 -73.22   0
        90    875.5104    750.4856 300.2130943 +22.8686378     2741.333     72.39708      1.754     3.75     4.921035     20.37875     216.3549        30     1.338     1.220   8.02   0
        91    363.8251    749.1483 300.0540923 +22.7149068     676.7175     72.25008      2.174     5.56     4.859811     20.37875     45.84301        11     1.307     0.770 -54.57   0
        92    633.5204    746.5575 300.1389242 +22.7950076     787.2175     72.21328      1.597     3.82     4.773012     20.37875     73.90713        14     1.092     0.895  28.85   0
        93    470.1883    746.5171 300.0880596 +22.7460405     453.1233     72.19487      1.353     3.66     4.640222     20.37875     50.26641         7     0.904     0.614 -51.59   0
        94    235.3790    745.9795 300.0151554 +22.6754789     780.8376     72.23168      1.743     4.34     4.933452     20.37875     67.35772        15     1.247     0.985   5.10   0
        95    480.7448    741.4343 300.0929983 +22.7477460     856.4954     72.25008      1.579     3.60     4.661956     20.37875     84.19964        15     1.114     0.993  13.04   0
        96     40.1791    741.5257 299.9559085 +22.6156463     532.6459     72.23168      2.198     4.69     5.337474     20.37875     39.97415         7     1.157     0.541  60.75   0
        97    881.4395    738.4331 300.2188601 +22.8669508     471.3806     72.26847      1.581     3.76     4.928848     20.37875     48.97465        11     1.087     0.716  31.76   0
        98    338.9754    736.4755 300.0504759 +22.7038188     415.2715     72.25008      1.632     4.57     4.899906     20.37875     33.23501         5     1.068     0.556  75.08   0
        99     67.9613    735.8488 299.9663880 +22.6223534     513.8024     72.25008      1.702     6.46     5.206012     20.37875     50.91386        10     1.285     0.912 -38.47   0
       100    426.0837    736.1945 300.0776812 +22.7298554     429.2468     72.15805      1.545     5.18     4.689772     20.37875     41.78352         9     1.200     0.742   6.87   0
       101    634.8026    735.6235 300.1428763 +22.7922519     205.5454     72.17646      1.296     3.51     4.827339     20.37875     30.49443         5     0.794     0.448  16.32   0
       102    859.2881    733.0804 300.2136896 +22.8587779     524.6589     72.36035      1.765     5.25     4.933226     20.37875     39.46406         9     1.063     0.733  23.11   0
       103    232.2281    730.7707 300.0191165 +22.6701703     468.1796     72.21328      1.634     5.85     4.912035     20.37875     50.33605        13     1.505     0.727 -19.59   0
       104    555.7045    720.7802 300.1230552 +22.7642846     382.6618     72.13963      1.325     4.97     4.580652     20.37875     45.42491         8     1.033     0.677  57.41   0
       105    525.3083    719.8035 300.1139046 +22.7548938      674.807     72.12121      1.787     3.58     4.617561     20.37875     64.76445        11     0.993     0.941  -1.17   0
       106    435.2048    718.8067 300.0861700 +22.7275987     423.5407     72.08434      1.467     4.45     4.823462     20.37875     50.34631         7     0.916     0.614  42.43   0
       107    941.9652    715.8106 300.2450939 +22.8785775     4634.862     72.21328      1.808     3.81     4.877056     20.37875     324.2014        39     1.418     1.355 -89.66   0
       108    547.5323    716.7442 300.1218208 +22.7606765     1326.279     72.26847      1.580     2.99     4.570056     20.37875     142.5728        21     1.192     1.013 -12.63   0
       109    467.3007    715.8273 300.0971314 +22.7363648     307.7859     72.17646      1.353     6.31     4.847054     20.37875       39.425         9     1.176     0.998   2.19   0
       110    930.4945    707.2066 300.2443102 +22.8726698     1699.359     72.12121      1.802     4.29     4.987608     20.37875     131.1591        26     1.302     1.250 -43.67   0
       111    293.5815    700.6986 300.0479731 +22.6799399     903.7055     72.15805      1.819     4.46     4.986459     20.37875     85.56085        20     1.408     0.996  -5.75   0
       112    756.6661    698.3104 300.1929834 +22.8180480     2652.779     72.34199      1.738     3.45     4.816058     20.37875     234.7126        29     1.296     1.215  33.90   0
       113    961.7062    697.3286 300.2572587 +22.8791776     1631.736     72.34199      1.806     4.17     4.796514     20.37875     126.8048        24     1.300     1.165 -65.19   0
       114    839.3604    684.8102 300.2231563 +22.8389400     539.7384     72.23168      1.930     5.02     5.063001     20.37875     44.08099        10     1.110     0.710   6.91   0
       115    142.2581    684.7503 300.0060851 +22.6299826     605.0809     72.28686      1.635     4.72     5.071038     20.37875      65.5486         8     0.997     0.634  66.44   0
       116    875.2590    675.3688 300.2374208 +22.8469788     149726.3     72.25008      1.717     3.43     5.110515     20.37875     12567.85       165     1.572     1.509 -53.83   0
       117    637.2909    679.5490 300.1618688 +22.7768936     414.6378     72.26847      1.390     4.64     4.890033     20.37875     41.79316         8     1.081     0.564 -21.65   0
       118   1022.1998    677.3056 300.2826436 +22.8915356     1184.359     63.81121      1.635     4.27     4.507431     20.37875     105.5099        24     1.303     1.182  70.45  24
       119    727.5239    675.6133 300.1912712 +22.8027975     877.0584     72.25008      1.746     3.88     4.748838     20.37875     84.39639        15     1.195     0.854 -38.86   0
       120    907.3496    668.3683 300.2497060 +22.8545773     408.5666     72.26847      1.811     4.55     5.087879     20.37875     36.69666         6     1.391     0.423 -56.44   2
       121    561.4178    664.0020 300.1432792 +22.7496930     1725.838     72.13963      1.590     3.32     4.969479     20.37875     173.0738        24     1.242     1.081  43.47   0
       122    742.6761    661.4210 300.2006050 +22.8032595     9426.079     72.23168      1.618     3.17     4.793661     20.37875     944.4228        45     1.324     1.248  -5.98   0
       123    225.5755    662.8382 300.0391138 +22.6486826     220.0055     72.25008      1.365     3.47     5.054093     20.37875     28.75979         5     0.763     0.456  71.75   0
       124    244.1880    656.3731 300.0470033 +22.6524085     4866.306     72.23168      1.717     3.30     5.038081     20.37875     507.3455        41     1.400     1.301  47.89   0
       125    326.1858    654.4766 300.0731320 +22.6764498     1145.017     72.25008      1.689     3.96     5.033786     20.37875     111.2635        19     1.146     1.115 -76.21   0
       126    201.9187    651.8265 300.0353319 +22.6384286     529.4139     72.21328      1.844     6.70     5.054669     20.37875     40.01327        13     1.419     0.886  -4.49   0
       127    534.6796    650.2293 300.1394237 +22.7377251     827.6978     72.23168      1.788     3.00     5.074517     20.37875     81.89395        14     0.981     0.932  88.16   0
       128    526.1221    642.1326 300.1393879 +22.7328355      3309.55     72.34199      1.525     3.07     5.140085     20.37875     338.3501        26     1.231     1.055  53.54   0
       129    516.3632    635.9058 300.1383707 +22.7281228     1439.046     72.21328      1.533     2.86     5.203262     20.37875     161.9745        20     1.094     1.021  -3.19   0
       130    909.7539    634.1959 300.2615557 +22.8454762     530.0825     72.21328      1.878     5.52     5.055159     20.37875      41.4588         9     1.115     0.772   1.92   0
       131    179.6951    631.8195 300.0349175 +22.6260231     657.0878     72.13963      1.736     4.37     5.054733     20.37875     57.45838        15     1.115     1.060 -30.89   0
       132    193.9868    630.3359 300.0398441 +22.6298831     671.3586     72.19487      1.661     7.09     5.054692     20.37875     68.61151        15     1.405     1.004  41.39   0
       133    963.8810    626.9822 300.2807879 +22.8596096     464.3001     72.23168      1.736     6.16     4.930448     20.37875     35.41886        11     1.452     0.735 -38.54   0
       134    441.2130    625.5887 300.1183190 +22.7026378      1834.05     72.13963      1.626     3.15     5.287579     20.37875     185.5557        25     1.218     1.138  75.24   0
       135    219.7026    627.1744 300.0488692 +22.6366870     530.6216     72.17646      1.574     5.13     5.054618     20.37875     51.66751        11     1.147     0.878 -10.17   0
       136    540.3076    626.1692 300.1489908 +22.7325022     345.0133     72.17646      1.307     3.97     5.143825     20.37875     42.34951         8     1.018     0.560  38.78   0
       137   1017.0687    623.3353 300.2985723 +22.8744848     931.5549     72.28685      1.783     5.57      4.81974     20.37875     63.02303        18     1.283     1.152  -6.93  16
       138     95.1329    620.3561 300.0123463 +22.5973736     19980.42     72.21328      1.860     3.59     4.895447     20.37875     1974.356        68     1.550     1.471  22.28   0
       139     16.7444    621.7909 299.9875150 +22.5742729     708.1388     72.23168      2.034     4.04     5.063541     20.37875      64.5056        13     1.078     1.044 -75.67   0
       140    526.1071    620.9206 300.1462721 +22.7267395     1100.194     72.34199      1.573     3.38     5.220634     20.37875     101.3167        16     1.122     0.903  26.32   0
       141    561.4770    619.8507 300.1576371 +22.7370310     347.5417     72.23168      1.540     4.14     5.089768     20.37875     34.85206         7     0.999     0.491  83.79   0
       142    250.6314    627.1790 300.0584889 +22.6459622     333.8208     72.23168      1.602     5.70     4.993298     20.37875     41.19963         8     1.381     0.663  34.04   0
       143    279.5958    612.3642 300.0723109 +22.6503943     323.4332     72.25008      1.548     5.12     4.882579     20.37875     32.72723         7     1.017     0.729 -46.93   0
       144    944.3533    607.4332 300.2810430 +22.8481436     1120.926     72.26847      1.718     3.34     4.975721     20.37875     106.7226        18     1.141     1.013  83.22   0
       145     41.0808    604.5430 300.0006790 +22.5766249     1584.099     72.26846      2.218     5.47     4.822383     20.37875     100.5965        33     1.774     1.283 -72.83   0
       146    811.2598    605.4950 300.2401538 +22.8077328     461.7102     72.30524      1.503     3.46     5.108935     20.37875     49.04472         9     1.035     0.620 -29.08   0
       147    106.9734    605.0286 300.0210044 +22.5965270      507.357     72.21328      2.004     6.55     4.886593     20.37875     44.10056        10     1.202     1.002  26.46   0
       148    490.0388    601.9104 300.1412120 +22.7104717     403.4258     72.21328      1.343     3.07     5.444442     20.37875     54.22316         8     0.824     0.646  35.71   0
       149    883.4068    600.3153 300.2643392 +22.8278492     921.6019     72.15805      2.713     7.54     5.063314     20.37875     66.91369        18     2.131     0.747  -1.13   0
       150    446.3103    593.8953 300.1301978 +22.6950652      771.224     72.41543      1.459     3.17     5.386299     20.37875     91.05531        16     1.163     0.873  -2.94   0
       151    593.9562    592.4943 300.1766392 +22.7389054     607.7108     72.25008      1.799     4.74     5.052702     20.37875     51.65411        11     1.140     0.799  33.05   0
       152    641.6281    590.7461 300.1920613 +22.7526853      477.651     72.23168      1.597     4.39     4.967831     20.37875     43.63934        10     0.913     0.837   6.88   0
       153    611.9524    590.3237 300.1829512 +22.7436736     601.0024     72.23168      1.539     3.45     4.973367     20.37875     73.36113        11     1.065     0.765  57.65   0
       154    490.4836    589.5955 300.1453493 +22.7070685     854.3473     72.15805      1.648     3.52     5.484631     20.37875     87.52173        14     1.083     0.851  44.47   0
       155    924.3506    585.4936 300.2819262 +22.8358483     3278.237     72.28685      1.685     3.23      4.99768     20.37875     293.9626        32     1.284     1.198  -9.62   0
       156    456.0036    585.1409 300.1360586 +22.6954564     1644.066     72.19487      1.459     3.14     5.443738     20.37875     158.7486        21     1.145     1.012  26.50   0
       157   1022.3217    583.7789 300.3130580 +22.8646849     753.1895     63.30941      1.839     4.19     4.771298     20.37875     68.82653        12     1.048     0.927 -13.17  24
       158     17.8664    578.5373 300.0019076 +22.5622013     5147.476     72.28685      1.959     3.83     5.165517     20.37875     470.5984        47     1.553     1.492 -32.70   0
       159    963.8084    575.5813 300.2974574 +22.8448119     337.7685     72.19487      1.370     4.03     4.896655     20.37875     43.40564         8     1.032     0.566  21.74   0
       160    319.4054    571.7904 300.0978724 +22.6506816     9284.975     72.08434      1.607     3.06      4.94861     20.37875     1058.762        45     1.327     1.270  84.74   0
       161    441.8785    568.8684 300.1369439 +22.6865506     9052.635     72.34199      1.511     3.11     5.449634     20.37875     912.8603        44     1.285     1.224   8.76   0
       162    206.9291    565.9218 300.0647846 +22.6152777     328.5508     72.34199      1.625     4.65     5.024572     20.37875     32.57666         6     0.938     0.656  45.88   0
       163    688.2817    565.4821 300.2148047 +22.7594025     241.4044     72.36035      1.227     3.43     4.978104     20.37875     36.76436         5     0.754     0.451 -20.94   0
       164    853.6160    563.0632 300.2671426 +22.8082219     2066.366     72.21328      1.682     3.41      4.95158     20.37875     163.2666        27     1.245     1.212  53.43   0
       165    938.2856    560.5102 300.2943865 +22.8328385     12682.61     72.39707      1.683     3.24      4.96271     20.37875     1155.651        52     1.388     1.332 -59.22   0
       166    502.4708    558.5568 300.1591602 +22.7017465     11624.48     72.19488      1.529     2.73     5.592167     20.37875     1433.416        44     1.268     1.204  18.39   0
       167    672.0604    554.4375 300.2133346 +22.7513703     569.6642     72.25008      1.505     3.31     5.067036     20.37875     70.88554         9     0.967     0.733 -29.77   0
       168    229.7952    553.8493 300.0758165 +22.6186681     1468.544     72.21328      1.719     4.65     5.003984     20.37875     131.1481        25     1.415     1.193  -0.94   0
       169    387.8369    553.0554 300.1252534 +22.6658139     377.3289     72.23168      1.629     4.80     5.261313     20.37875     43.27324         6     1.075     0.674  30.59   0
       170    434.1957    546.6447 300.1417670 +22.6778663     4414.977     72.23168      1.505     2.78     5.496155     20.37875     507.2917        29     1.174     1.131 -10.51   0
       171    777.0457    546.7119 300.2485715 +22.7805937     815.9161     72.23168      1.444     3.05     4.832687     20.37875     108.8597        14     1.009     0.923  70.19   0
       172    412.5107    545.2087 300.1354818 +22.6709553     1242.892     72.15805      1.438     3.00      5.43427     20.37875     138.0612        17     1.014     0.985 -60.07   0
       173    166.8234    544.3099 300.0593273 +22.5970501     692.6252     72.15805      1.537     4.45      5.00988     20.37875     66.27779        13     1.153     0.898  15.33   0
       174    854.0557    542.2833 300.2740264 +22.8023809     1625.146     72.32362      1.692     3.69     4.887107     20.37875     147.8904        26     1.406     1.076 -48.88   0
       175    550.8103    534.2916 300.1820945 +22.7092603     207051.2     72.17646      1.481     2.78     5.697412     20.37875     23493.62       196     1.515     1.428  -9.55   0
       176    734.5599    539.3808 300.2377050 +22.7657634     812.7509     72.25008      1.439     2.98     4.788224     20.37875     95.49635        14     1.000     0.864  39.10   0
       177    374.7681    540.6302 300.1252191 +22.6583293       349.07     72.23168      1.543     2.67     5.206521     20.37875     42.59756         5     0.723     0.448  18.56   0
       178    236.8311    534.0676 300.0844268 +22.6150992      3593.12     72.23168      1.603     3.29     4.995736     20.37875     314.6889        32     1.253     1.227  -1.89   0
       179    802.7858    530.8410 300.2617507 +22.7837404     575.4097     72.25008      1.666     2.25     4.962124     20.37875     55.63693         6     0.730     0.528  32.41   0
       180    582.1868    521.3095 300.1960835 +22.7149309     350.6384     72.17646      1.300     3.44     5.441251     20.37875      36.2618         5     0.793     0.430  14.67   0
       181    285.5310    516.8508 300.1051667 +22.6247552     414.2327     72.23168      1.441     3.98      5.04358     20.37875      44.9047         7     0.904     0.556  -6.37   0
       182    441.4139    514.4891 300.1544527 +22.6707949     2641.905     72.17647      1.518     2.65     5.621921     20.37875     306.7763        22     1.090     1.053 -14.82   0
       183    597.7952    513.3144 300.2035418 +22.7173097     386.0765     72.15805      1.609     4.63      5.31806     20.37875      29.2157         6     1.052     0.579 -64.65   0
       184    853.1636    511.2149 300.2838341 +22.7931834     525.6862     72.23168      1.860     2.83     4.920797     20.37875     44.26823         6     0.721     0.581  50.63   0
       185    672.4250    510.0353 300.2278628 +22.7387216     277.7802     72.25008      1.734     4.09      5.22495     20.37875     31.18877         5     0.793     0.602   4.38   0
       186    758.8893    503.3203 300.2569965 +22.7626862      356.015     72.36035      1.181     2.53     5.090551     20.37875       51.613         7     0.722     0.637  13.85   0
       187    838.5068    500.8459 300.2826283 +22.7858145     1674.144     72.25008      1.492     3.23     4.986921     20.37875     177.3983        19     1.108     1.005  61.60   0
       188    709.6026    498.5487 300.2431797 +22.7465553     2579.334     72.23168      1.449     2.59     5.173179     20.37875     337.6501        22     1.083     1.010  84.09   0
       189    953.9544    496.0024 300.3202180 +22.8189828     543.4935     72.23168      1.841     5.21     4.969182     20.37875       40.844        10     1.012     0.759 -56.52   3
       190    952.6242    492.1392 300.3210569 +22.8174739     821.4388     72.23168      1.724     3.57     4.976707     20.37875     67.16876        11     1.118     0.728  -3.02   2
       191    919.3719    495.9713 300.3094371 +22.8086220     270.0159     72.19487      1.121     3.79     4.977343     20.37875     38.55276         5     0.792     0.571  -3.44   0
       192    614.2483    495.2097 300.2145451 +22.7170366     526.1788     72.25008      1.416     3.92     5.283118     20.37875      51.3478         6     0.760     0.578  48.24   0
       193    496.7813    494.6868 300.1781217 +22.6816969     706.6188     72.17646      1.365     3.06     5.854342     20.37875     85.77602        10     0.935     0.732 -13.27   0
       194    967.0301    492.6944 300.3253723 +22.8219455     1291.661     72.13963      1.585     3.61     4.963692     20.37875      127.983        21     1.198     1.133  50.34   0
       195    838.8256    490.8926 300.2859585 +22.7830488     2277.238     72.17646      1.809     4.04      5.01028     20.37875     204.6886        32     1.587     1.166  87.03   0
       196    592.1841    489.1019 300.2096527 +22.7086727     898.4874     72.13963      2.219     3.95     5.460952     20.37875     75.80038        13     1.134     0.838  55.40   2
       197    876.8872    486.0863 300.2993911 +22.7930620     4235.637     72.36035      1.522     3.06     4.904853     20.37875     413.9035        29     1.209     1.150 -83.45   0
       198    377.9726    488.1190 300.1432614 +22.6442109     385.0562     72.25008      1.534     4.17     5.391197     20.37875     47.65184         7     0.943     0.527  49.69   0
       199    430.3814    487.3216 300.1598357 +22.6596865     293.8631     72.23168      1.331     4.25     5.662587     20.37875     53.75428         6     0.778     0.663  18.91   0
       200    517.8699    485.9429 300.1875278 +22.6855032       177.78     72.25008      1.194     3.86      5.89437     20.37875     37.11321         5     0.821     0.520 -23.55   0
       201    537.2927    481.9797 300.1948640 +22.6901834      348.107     72.15805      1.412     4.18     5.909375     20.37875     43.74337         8     1.070     0.748  -8.82   0
       202    968.6329    476.9351 300.3309877 +22.8178937     869.9426     72.23168      1.716     3.31     5.005711     20.37875     80.25323        11     1.064     0.720   6.98   0
       203    741.1442    476.3823 300.2602075 +22.7496303     3317.633     72.21328      0.635     0.96     5.258604     20.37875     1904.208         7     0.568     0.360  58.30   0
       204    108.8801    476.1185 300.0634431 +22.5601058     1019.547     72.37872      1.820     4.75     5.046146     20.37875       87.828        21     1.316     1.142  49.02   0
       205    375.3704    469.2629 300.1485711 +22.6380161     280.1868     72.25008      1.381     3.51     5.439638     20.37875     38.07158         5     0.797     0.446  73.68   0
       206    101.7629    466.5089 300.0643488 +22.5552138     389.4409     72.21328      1.377     3.02     5.116092     20.37875     48.71081         6     0.706     0.651 -42.98   0
       207    964.2333    466.2550 300.3330811 +22.8135058     360.9471     72.25008      1.216     2.63     5.036261     20.37875     54.55022         5     0.733     0.426   9.07   0
       208    709.0533    460.9272 300.2552192 +22.7355789     501.9843     72.25008      1.409     2.50     5.303289     20.37875     66.93415         9     0.783     0.731   6.48   0
       209    597.9008    458.3270 300.2214219 +22.7015428     406.6103     72.37872      1.352     3.15     5.586157     20.37875     49.95792         7     0.818     0.622  31.30   0
       210    650.3214    456.4265 300.2383736 +22.7166969     781.9082     72.23168      1.352     2.62     5.407354     20.37875     98.58791        14     1.008     0.803 -31.16   0
       211    964.7110    449.2586 300.3387464 +22.8087613     607.7841     72.30524      1.526     4.11     5.083475     20.37875     54.82233        11     1.131     0.638  30.78   0
       212    711.0641    448.6713 300.2598234 +22.7326587     915.3232     72.26847      1.600     3.17     5.310857     20.37875     87.45129        14     1.044     0.886  62.09   0
       213    868.3868    444.9558 300.3100885 +22.7786925     992.6974     72.25008      1.565     3.50     5.133811     20.37875     109.0894        19     1.213     1.011 -40.30   0
       214    686.0654    445.7654 300.2529739 +22.7243376     2502.092     72.23168      0.548     0.90     5.328243     20.37875     1573.887         7     0.462     0.381 -77.20   0
       215    852.4292    441.3079 300.3062946 +22.7728668     695.0574     72.19488      1.577     3.84     5.191727     20.37875     77.30785        15     1.205     0.983  28.31   0
       216    833.2964    441.5496 300.3002485 +22.7672087     226.0397     72.30524      1.183     4.10      5.22858     20.37875     43.26311         7     0.988     0.486   7.03   0
       217    596.8897    439.1356 300.2273348 +22.6957256     3279.869     72.34199      1.458     2.85     5.714119     20.37875       356.67        29     1.203     1.126  68.41   0
       218     72.9024    429.9292 300.0672462 +22.5360620     464.2575     72.36035      1.720     6.10     5.435978     20.37875     44.24089         9     1.345     0.777 -49.62   0
       219    957.0875    438.4261 300.3398828 +22.8033646     295.8729     72.17646      1.176     4.15     5.114025     20.37875     61.45647         7     0.876     0.561  26.09   0
       220    436.5580    426.1631 300.1816060 +22.6439708     368.8694     72.30524      1.242     3.27       5.7782     20.37875     65.94498         8     0.836     0.685  18.18   0
       221   1008.2068    418.4605 300.3623162 +22.8129210     1477.205     72.19487      1.716     3.29     5.169571     20.37875     142.1815        19     1.164     1.022  59.11   0
       222    966.6129    417.2245 300.3497355 +22.8001183      1026.79     72.23168      1.553     3.77     5.172348     20.37875     92.09532        18     1.184     0.983 -51.31   0
       223    880.3227    418.4519 300.3224127 +22.7746449     558.9854     72.23168      1.303     3.83     5.288142     20.37875     64.26559        10     1.193     0.575  -7.82   0
       224    707.3846    413.1613 300.2701993 +22.7213507     978.9105     72.25008      1.305     2.82     5.357411     20.37875     113.3899        16     1.028     0.898  67.11   0
       225    503.4105    413.7588 300.2064491 +22.6604345     390.4435     72.23168      1.328     3.12      5.90942     20.37875     60.47744         8     0.894     0.637 -65.53   0
       226    211.6782    411.1216 300.1165020 +22.5722636     667.2516     72.36035      1.569     3.28      5.34476     20.37875     78.58521        13     1.014     0.902  55.32   0
       227     51.3499    409.3165 300.0672343 +22.5236840     354.9445     72.23168      1.550     4.00     5.590599     20.37875     37.90996         6     0.905     0.505 -43.10   0
       228    273.8082    406.8351 300.1372213 +22.5896533     3812.514     72.23168      1.542     3.02     5.551878     20.37875     421.5719        31     1.222     1.173  81.69   0
       229   1006.9787    405.7309 300.3660635 +22.8088922     4492.158     72.23168      1.643     3.32     5.231874     20.37875     388.7686        33     1.317     1.233 -75.06   0
       230    221.0134    401.6317 300.1224848 +22.5723367     7649.359     72.21328      1.599     3.04     5.427385     20.37875     882.4435        46     1.374     1.239  43.22   0
       231    599.8728    401.3992 300.2405090 +22.6857753     322.8294     72.12121      1.219     2.41     5.852325     20.37875     60.58432         5     0.695     0.650  81.85   0
       232    986.9036    396.7195 300.3627215 +22.8002931     1849.197     72.36035      1.621     3.24     5.257043     20.37875     181.4348        25     1.235     1.151  42.10   0
       233    361.8608    395.9545 300.1681533 +22.6129137     4887.243     72.25008      1.491     3.16     5.663518     20.37875     497.4642        34     1.212     1.156  61.00   0
       234    623.5143    393.1093 300.2505653 +22.6904730     814.5928     72.39707      1.854     5.66     5.755988     20.37875      74.9959        17     1.489     0.891 -47.79   0
       235    606.0450    392.7713 300.2452315 +22.6851443     18696.09     72.26846      1.449     2.76     5.846698     20.37875     2293.339        49     1.247     1.181  74.39   0
       236    802.8122    383.1947 300.3096760 +22.7413061     363.5133     72.10278      1.285     3.92     5.417502     20.37875     47.76066         6     0.926     0.476 -57.09   0
       237    939.8423    375.1451 300.3550346 +22.7800050     951.8075     72.23168      1.893     4.83     5.234068     20.37875     91.31857        20     1.552     0.910 -58.76   0
       238    160.7361    372.5440 300.1131732 +22.5459188     2078.455     72.28685      1.684     3.31     5.718753     20.37875     213.8786        27     1.308     1.161  49.99   0
       239    546.6707    362.2214 300.2366442 +22.6585837     6804.356     72.25008      1.455     2.65     5.900832     20.37875     744.7574        41     1.264     1.174  82.50   0
       240    960.3748    362.6188 300.3655058 +22.7825467     1189.585     72.23168      1.647     3.44     5.315244     20.37875     113.2278        20     1.204     1.097  63.94   0
       241    261.8064    361.6028 300.1481610 +22.5730673     595.3881     72.04746      1.517     3.69     5.793984     20.37875     62.88325         9     0.906     0.755  13.82   0
       242    806.5300    354.8437 300.3200331 +22.7342675     345.5652     72.19487      1.310     3.12     5.478261     20.37875     44.94975         7     0.860     0.575   8.44   0
       243    119.3036    354.7010 300.1060772 +22.5283773     479.0245     72.41543      1.301     2.44     5.992681     20.37875     71.98926         9     0.844     0.666  62.72   0
       244    750.8771    351.2999 300.3038285 +22.7165892     1236.546     72.37872      1.544     3.28     5.633178     20.37875     140.5638        22     1.285     1.023 -82.04   0
       245    660.7558    352.6623 300.2752930 +22.6899996     510.2577     72.25008      1.335     2.67     5.717909     20.37875     70.40253        12     0.900     0.826  58.22   0
       246    453.3939    348.3882 300.2120804 +22.6266711     6328.988     72.10278      1.472     2.64     5.864227     20.37875     748.6311        38     1.229     1.175 -73.40   0
       247    942.4891    343.2871 300.3661956 +22.7716344     544.1578     72.39707      1.430     3.92     5.287183     20.37875     66.10178        10     1.175     0.679  58.49   0
       248    845.4396    342.9331 300.3360324 +22.7424889     1415.344     72.19487      1.525     2.94     5.380547     20.37875     135.8088        19     1.068     0.997  72.31   0
       249    437.8920    337.2969 300.2108511 +22.6188410     522.7408     72.41543      1.471     3.89     5.840553     20.37875     45.98048         8     0.903     0.644   5.04   0
       250    520.4914    335.4804 300.2371637 +22.6430589     461.7393     72.36035      1.323     3.14     5.903579     20.37875     58.07958         6     0.887     0.491 -54.57   0
       251    501.6177    333.1789 300.2320317 +22.6367450     379.0258     72.21328      1.397     2.22     5.904065     20.37875     57.54687         6     0.752     0.565 -38.76   0
       252    818.0651    330.7546 300.3314447 +22.7307936     613.2828     72.23168      1.494     3.00     5.429384     20.37875     67.76336        12     1.000     0.786 -24.76   0
       253    340.9091    327.6472 300.1837901 +22.5870160     2489.915     72.23168      1.469     2.62     5.813717     20.37875     311.7242        25     1.161     1.048 -47.62   0
       254     59.3831    324.8900 300.0971173 +22.5018579     1037.086     72.15805      1.739     2.97     6.123242     20.37875     121.2831        18     1.239     1.112  20.30   0
       255    310.2518    316.9792 300.1777090 +22.5747668     30020.82     72.23168      1.517     2.94     5.813717     20.37875     3199.172        71     1.405     1.282  48.01   0
       256    845.0779    314.6860 300.3450820 +22.7342576     1400.126     72.36035      1.560     3.07     5.371736     20.37875     166.9748        21     1.315     1.040 -30.70   0
       257    800.4806    312.9772 300.3317268 +22.7204186     410.4333     72.19487      1.662     4.49     5.436816     20.37875     41.42659         8     1.112     0.571  18.06   0
       258      6.4472    304.6217 300.0872370 +22.4801712     4857.851     72.25008      1.816     3.90     6.194047     20.37875     484.1815        41     1.483     1.350  46.04  16
       259    884.6965    302.5660 300.3613719 +22.7426284     424.6052     72.23168      2.609     5.81     5.334104     20.37875     31.46141         7     1.636     0.581 -77.52   0
       260    760.2841    303.7496 300.3221850 +22.7057338     472.9825     72.21328      1.362     2.07     5.588902     20.37875      84.4088         7     0.736     0.586  -0.68   0
       261    408.9480    302.3851 300.2131625 +22.6001407     499.4135     72.23168      1.382     2.49      5.80134     20.37875     67.26041         9     0.848     0.668  63.75   0
       262    184.2863    303.5451 300.1428768 +22.5331644     402.5153     72.28685      1.559     4.51     5.975328     20.37875     48.09773         9     1.205     0.481  -6.64   0
       263    587.7700    299.7390 300.2697149 +22.6529342     168.5383     72.26847      1.203     3.95     5.896157     20.37875     32.06671         6     0.782     0.570  49.88   0
       264    720.7556    296.9091 300.3120794 +22.6919348     1866.723     72.21328      1.454     2.76     5.694378     20.37875     228.7307        23     1.153     1.062  64.59   0
       265    530.3431    291.8916 300.2543695 +22.6334828     717.4719     72.28685      0.910     3.78     5.904281     20.37875     379.9757         8     1.025     0.399   7.32   0
       266    936.1366    289.9498 300.3815135 +22.7543919     519.0892     72.28685      1.401     3.24     5.344662     20.37875     73.47951        11     0.966     0.838  56.05   0
       267    382.5239    281.4082 300.2117390 +22.5861988     2106.871     72.19488      1.651     3.60     5.760968     20.37875     234.2551        24     1.407     0.984  62.06   0
       268    594.4656    280.6493 300.2779919 +22.6494520     422.1579     72.23168      1.681     3.80     5.880316     20.37875     55.19702         8     1.028     0.625  35.29   0
       269    821.7261    274.6748 300.3507748 +22.7157625     674.2171     72.30524      1.463     2.95     5.381189     20.37875     92.79358        13     0.965     0.897  69.87   0
       270    814.2763    275.5760 300.3481591 +22.7137921     250.7493     72.25008      1.193     3.44      5.38683     20.37875     38.64468         5     0.771     0.443 -20.33   0
       271    704.1442    272.2213 300.3149071 +22.6798642     407.2286     72.26846      1.272     2.59     5.699023     20.37875     53.16069         8     0.790     0.647 -32.52   0
       272    458.4334    260.9202 300.2420168 +22.6030474     1095.946     72.19487      1.402     2.52     5.619098     20.37875     145.1622        16     1.004     0.891  58.98   0
       273    173.3071    262.6193 300.1527330 +22.5181214     251.7161     72.15805      1.203     3.48     6.025539     20.37875      38.1204         5     0.751     0.467 -13.19   0
       274    969.7476    257.2810 300.4025967 +22.7550499     431.1664     72.26847      1.759     3.40      5.54158     20.37875     45.34286         5     0.947     0.353  45.45   0
       275    841.8094    254.6238 300.3635410 +22.7160058     198.4125     72.23168      1.054     3.44     5.368189     20.37875     32.88159         5     0.807     0.425  19.80   0
       276    703.3471    252.8464 300.3209413 +22.6740548     2151.909     72.26846      1.423     2.65     5.691833     20.37875      284.025        22     1.100     1.012  60.89   0
       277    964.6422    247.2928 300.4042422 +22.7506490     3157.712     72.25008      1.580     2.78     5.550394     20.37875     358.2425        30     1.264     1.165 -46.28   0
       278    769.9916    244.9927 300.3442661 +22.6917435     855.2045     72.08434      0.432     1.64     5.535485     20.37875     700.2142         5     0.297     0.295  -3.30   0
       279    411.4114    236.7827 300.2352019 +22.5820287     787.6238     72.19487      1.638     2.57     5.336738     20.37875     88.60641        12     0.911     0.817 -24.85   0
       280     86.3336    230.5859 300.1360741 +22.4828593     1453.151     72.19488      1.850     3.44     6.244268     20.37875     123.5666        25     1.340     1.143 -17.39   0
       281    117.0914    230.8014 300.1455674 +22.4921384     539.3354     72.13963      1.471     4.09     6.125113     20.37875     73.56711        11     1.170     0.666  14.46   0
       282    980.4164    227.9862 300.4154254 +22.7498133     504.7745     72.17646      1.476     4.22     5.731338     20.37875     62.12857        10     1.069     0.626 -24.37   0
       283    170.5746    222.5137 300.1648860 +22.5057843     569.0095     72.17646      1.899     4.90     6.033937     20.37875     66.94288         9     1.216     0.614  75.62   0
       284    965.8051    220.5829 300.4132656 +22.7433123     370.2437     72.19487      1.686     1.61     5.608119     20.37875     66.93464         5     0.656     0.467 -19.97   0
       285    846.5717    216.6928 300.3773251 +22.7065208     406.0704     72.17646      1.705     4.92     5.366018     20.37875     39.42948         7     1.024     0.669   5.80   0
       286    774.9379    214.3132 300.3557556 +22.6844008     720.6812     72.32362      1.499     2.49     5.495927     20.37875     80.53603        10     0.877     0.703 -88.29   0
       287    365.3906    213.9606 300.2282743 +22.5616876     467.9941     72.23168      1.368     2.61     5.569751     20.37875     52.37257         7     0.731     0.634 -64.49   0
       288    865.4247    207.8886 300.3860605 +22.7096292     359.7453     72.19487      1.421     2.06     5.349957     20.37875     54.27235         5     0.680     0.463 -69.63   0
       289    873.0537    203.2511 300.3899440 +22.7105777     2173.283     72.26846      1.551     3.10     5.348309     20.37875     237.3273        27     1.329     1.063  65.19   0
       290    291.5862    200.3712 300.2097099 +22.5356769     2118.864     72.23168      1.544     2.90     5.757133     20.37875     236.0564        22     1.151     1.058 -77.19   0
       291    369.4719    195.6820 300.2354702 +22.5576576     1051.854     72.36035      1.424     3.00     5.507111     20.37875     104.8649        15     1.055     0.861   0.30   0
       292    121.1091    196.4399 300.1579557 +22.4834742      353.191     72.23168      1.298     3.80      6.15022     20.37875     44.31739         6     0.837     0.495  -3.30   0
       293    878.7554    191.9002 300.3954025 +22.7090183     421.0216     72.25008      1.493     4.83     5.347072     20.37875     43.40593         8     0.990     0.669 -60.77   0
       294    186.4952    187.6919 300.1811256 +22.5005524     625.2738     72.41543      1.412     3.02     6.003001     20.37875     81.76043        11     0.914     0.811  -8.49   0
       295    771.7220    195.2900 300.3609200 +22.6779672     564.5248     72.37872      1.451     3.39     5.470648     20.37875     65.13051        12     0.967     0.862  40.11   0
       296    724.2479    184.6393 300.3495705 +22.6606970     1693.171     72.26847      1.435     2.72     5.522309     20.37875     202.3574        20     1.175     0.950  69.27   0
       297    788.8315    184.5346 300.3697420 +22.6799937     554.7358     72.23168      1.384     2.74     5.425635     20.37875     76.84992        10     0.885     0.755  26.70   0
       298     39.5866    185.1879 300.1362584 +22.4558139     304.9181     72.15805      1.438     3.61      6.23175     20.37875     26.92346         5     0.985     0.381   5.43   0
       299    450.6806    181.0421 300.2654991 +22.5777694     281.2921     72.21328      1.229     4.07     5.201816     20.37875     31.09323         5     0.986     0.588  20.31   0
       300    207.7587    180.9648 300.1899201 +22.5049903     458.5193     72.28685      1.411     4.24     5.945233     20.37875     62.64108         9     0.990     0.785 -39.51   0
       301    995.8300    177.4172 300.4366307 +22.7398730     954.4366     72.21328      1.646     3.59      5.32319     20.37875     85.27065        17     1.168     0.984 -23.04   0
       302    728.2964    176.0973 300.3536016 +22.6594520     854.7378     72.41543      1.462     3.77     5.482146     20.37875     93.90152        12     1.093     0.913 -56.11   0
       303    648.7595    175.3758 300.3290427 +22.6354400     1301.761     72.26847      1.473     2.88     5.560081     20.37875     181.4371        20     1.136     1.012 -60.26   0
       304    469.7933    171.8302 300.2744368 +22.5808445     387.0594     72.23168      1.618     3.99       5.1949     20.37875     45.34338         6     0.775     0.588  30.26   0
       305    844.2192    166.7840 300.3927707 +22.6914602     1520.551     72.21328      1.511     2.98     5.368695     20.37875     175.5828        22     1.251     1.006 -77.05   0
       306    574.8248    167.2457 300.3086391 +22.6109714     1021.957     72.25008      1.481     3.00     5.480223     20.37875     127.5827        16     1.066     0.910  13.13   0
       307    856.1773    165.9651 300.3967663 +22.6948024     804.8809     72.25008      1.526     4.06     5.357988     20.37875     80.45895        13     1.163     0.910  17.38   0
       308    902.8864    165.5088 300.4114862 +22.7086448     305.8674     72.39707      1.284     2.65     5.342126     20.37875     44.55125         6     0.759     0.496  -6.55   0
       309   1017.1466    156.9146 300.4499305 +22.7403485     1614.364     72.28685      1.661     3.26     5.140325     20.37875     167.5863        28     1.352     1.212 -69.13  16
       310    972.8636    156.3423 300.4362940 +22.7269393     1160.593     72.28685      1.629     3.31      5.25805     20.37875     117.5338        20     1.157     1.029  69.85   0
       311    206.8810    149.1973 300.1999432 +22.4956014     682.8416     72.13963      1.452     3.62     5.963397     20.37875     69.94534        10     0.880     0.870 -46.18   0
       312     68.7731    143.7973 300.1587459 +22.4526735     2211.615     72.17646      1.764     3.69     6.205036     20.37875     204.0926        31     1.374     1.237  47.29   0
       313    891.8622    141.5681 300.4158065 +22.6984588     780.0274     72.25008      1.452     2.85     5.391656     20.37875     84.54041        13     0.961     0.808  29.56   0
       314     18.6801    140.9217 300.1441068 +22.4368372     463.1164     72.36035      1.626     3.31      6.15739     20.37875     56.49794         7     0.823     0.785 -26.90   0
       315    226.1665    137.1571 300.2098445 +22.4979194     5724.311     72.28685      1.605     3.00     5.939869     20.37875     616.1774        40     1.404     1.246  56.57   0
       316     10.6875    131.7886 300.1445823 +22.4318194     1179.369     72.17646      1.628     3.83     6.286924     20.37875     119.3905        17     1.311     0.879  -4.43   0
       317   1023.6592    124.9622 300.4623198 +22.7331002     5761.708     56.23945      1.225     3.55     5.651572     20.37875     1301.267        25     1.529     0.574  88.65  24
       318    209.7337    128.1118 300.2076639 +22.4903983      563.759     72.34199      1.306     2.56      5.98373     20.37875     71.42252        10     0.849     0.733  -1.69   0
       319    870.4870    119.0927 300.4164221 +22.6855980     3472.406     72.39707      1.543     2.97     5.398809     20.37875     372.7354        35     1.298     1.228  55.67   0
       320    974.0883    117.8427 300.4491542 +22.7162264     2831.366     72.23168      1.623     3.35     5.646406     20.37875     248.5341        33     1.458     1.144  78.83   0
       321    419.7981    114.2536 300.2775291 +22.5493255     707.2803     72.17646      1.472     3.07     5.437773     20.37875     88.53002        11     0.958     0.863  78.54   0
       322    173.4261    114.7871 300.2006885 +22.4756943     234.5686     72.23168      1.276     3.45     6.047931     20.37875      32.8107         5     0.779     0.442 -69.73   0
       323    534.6185    112.1783 300.3139604 +22.5831035     421.1472     72.23168      1.634     5.17     5.485073     20.37875      54.1167         8     1.128     0.669  18.45   0
       324    348.4988    104.5325 300.2584833 +22.5251824     462.9226     72.32362      2.289     4.22     5.809614     20.37875     38.11294         7     1.259     0.403 -13.99   3
       325    471.3999    101.4377 300.2977503 +22.5610907     1657.211     72.21328      1.517     2.98      5.51311     20.37875     170.8036        24     1.234     1.102  64.29   0
       326    110.4123    102.6290 300.1850322 +22.4533245     664.9038     72.23168      1.575     4.47     6.237404     20.37875     59.25499        12     1.250     0.780 -67.12   0
       327    399.2184    102.0671 300.2750708 +22.5396609     427.8949     72.21328      1.332     3.02     5.592351     20.37875     49.86991         8     0.809     0.726  87.37   0
       328    344.0243    106.3377 300.2565057 +22.5243613     621.4557     72.21328      1.430     3.36     5.815986     20.37875     61.49439        10     0.973     0.707  79.36   2
       329    214.6750     96.9579 300.2192961 +22.4829276     326.8542     72.21328      1.363     3.07     6.020934     20.37875     46.82721         6     0.856     0.553  -1.84   0
       330    759.5377     91.0553 300.3909040 +22.6443395     361.0192     72.30524      1.351     3.72     5.710554     20.37875     41.91249         6     0.799     0.497 -86.54   0
       331    905.2601     85.4766 300.4381644 +22.6863266     355.2558     72.28685      1.557     4.08     5.601878     20.37875     43.38451         6     1.165     0.409  32.47   0
       332    245.2208     81.0542 300.2339518 +22.4875066     6014.281     72.23168      1.602     3.08     6.000568     20.37875     549.5197        39     1.321     1.267  58.24   0
       333    751.8367     81.9239 300.3914616 +22.6394086     452.2317     72.19487      1.471     3.52     5.710554     20.37875     48.55656        11     0.907     0.864 -27.81   0
       334     96.7707     80.5023 300.1879599 +22.4428817     698.2479     72.15805      1.753     3.44     6.212241     20.37875      71.0023        10     1.050     0.671 -89.96   0
       335    874.8008     79.1294 300.4307181 +22.6753896     353.3867     72.15805      1.321     4.10     5.526259     20.37875      44.9361         6     0.979     0.595 -10.10   0
       336    216.9876     75.0134 300.2271256 +22.4773150     315.0257     72.15805      1.594     4.72     5.990607     20.37875     35.62667         6     1.057     0.598 -15.93   0
       337    721.1933     72.9044 300.3848299 +22.6276456     203.4041     72.12121      1.267     3.85      5.82537     20.37875      39.7915         6     0.769     0.554 -53.07   0
       338    260.7614     72.8598 300.2414418 +22.4898061     288.6899     72.25008      1.492     4.00     6.001184     20.37875     39.38807         6     0.760     0.633 -18.89   0
       339    491.3969     66.5790 300.3152729 +22.5570551     6196.308     72.17647      1.512     2.73     5.690159     20.37875      732.948        38     1.326     1.150  87.16   0
       340    376.8355     66.5057 300.2796250 +22.5227375     626.7847     72.23168      1.360     2.99     5.864981     20.37875     79.53364        14     1.028     0.892 -69.30   0
       341    548.3286     61.5065 300.3346501 +22.5726374     270.8698     72.34199      1.390     4.13     5.803176     20.37875     38.83907         7     0.991     0.491  -6.28   0
       342    743.7021     56.8427 300.3970517 +22.6297596      1006.76     72.23168      1.940     5.98     5.710554     20.37875      79.6599        18     1.715     0.910 -74.85   0
       343    836.6409     55.2926 300.4265375 +22.6571164     562.2852     72.23168      1.441     3.57     5.651871     20.37875     65.83594         7     0.953     0.561 -23.75   0
       344    904.4718     53.5259 300.4482709 +22.6768962     278.9983     72.28686      1.195     3.85     5.732584     20.37875     32.26755         6     0.987     0.430 -16.65   0
       345    184.5568     50.1314 300.2250987 +22.4604522      562.249     72.19487      1.843     4.20     5.963496     20.37875     55.87932         8     0.964     0.795 -60.08   0
       346    543.0065     49.2522 300.3369623 +22.5675207     365.5778     72.23168      1.257     2.92     5.913273     20.37875     64.42443         8     0.795     0.742 -19.78   0
       347    619.7719     46.6871 300.3617115 +22.5897568     6319.417     72.23168      1.540     2.95     5.794772     20.37875     770.5627        41     1.331     1.194  77.55   0
       348    394.5560     45.5327 300.2919362 +22.5220141     1575.224     72.21328      1.562     2.77     5.956355     20.37875     192.2648        21     1.255     1.117 -76.15   0
       349    661.1384     44.3290 300.3753675 +22.6014568     866.0019     72.26846      1.295     3.63     6.235301     20.37875     103.3439        12     1.158     0.707 -37.45   0
       350    730.5338     41.9240 300.3977793 +22.6215281     355.4927     72.32362      1.678     4.01     5.772765     20.37875     38.96812         5     0.825     0.686  45.19   0
       351    676.9205     40.4793 300.3815339 +22.6050717     587.6389     72.36035      1.291     2.50     6.345019     20.37875      79.6112         8     0.797     0.658  38.74   0
       352    143.6067     37.6621 300.2164022 +22.4446042     762.6046     72.19488      1.898     6.75     5.962737     20.37875      63.2412        17     1.481     1.053 -67.90   0
       353    946.6168     37.5280 300.4666048 +22.6848960     512.9451     72.23168      1.519     4.96     5.930739     20.37875     59.75654        11     1.350     0.734  75.70   0
       354    986.0973     37.3988 300.4789683 +22.6966647      299.624     72.13963      1.418     3.94     6.052524     20.37875     29.40707         6     1.058     0.419 -15.07   0
       355    715.3705     35.8001 300.3950358 +22.6152298     552.6268     72.19487      1.545     3.06     5.952254     20.37875     72.84813         9     0.949     0.738  71.90   0
       356    663.9786     31.5538 300.3803914 +22.5986320     2963.104     72.26847      1.606     2.86     6.339993     20.37875     368.1853        28     1.260     1.142  88.57   0
       357    304.4514     32.7302 300.2680374 +22.4913563     364.7702     72.23168      1.586     3.91     6.014111     20.37875     35.72012         7     0.855     0.662  16.51   0
       358    678.8237     30.4121 300.3853885 +22.6027453     899.0919     72.23168      1.814     4.83     6.383601     20.37875     88.33772        14     1.384     0.888  48.33   0
       359    750.4222     23.2993 300.4100139 +22.6221199     1578.501     72.17646      1.558     2.58     5.710554     20.37875     173.9417        25     1.280     1.112  46.89   0
       360    828.9556     18.3140 300.4361201 +22.6441771     250.9391     72.21328      1.091     4.34     5.741674     20.37875     37.12019         7     0.797     0.674 -24.95   0
       361    151.4161   1015.9203 299.9012911 +22.7277058      641.202     72.25008      3.237     3.92     96.11954     20.37875     28.75259         5     0.894     0.493  89.88   2
       362    292.9190   1012.2282 299.9465034 +22.7691114      1528.45     72.25008      3.258     5.66     5.542954     20.37875     76.45644        31     1.619     1.435  51.22   0
       363     67.1547     15.5816 300.1997830 +22.4153601     684.9591     72.26846      1.994     3.70     6.276148     20.37875     50.06293         9     0.878     0.757   4.61   0
       364    127.7580   1007.5980 299.8966423 +22.7182192     1495.316     72.23168      3.708    12.66     88.89859     20.37875     60.92032        37     3.238     1.377 -25.97  18
       365    197.8882    985.8834 299.9255114 +22.7330410     3686.034     72.34199      7.381    21.90     69.44918     20.37875     88.30253       234     4.718     4.515  28.76   3
       366    694.0831     10.4069 300.3966255 +22.6015560     224.3914     72.15805      2.171     4.23     6.298102     20.37875     33.60884         5     1.140     0.449 -11.01   0
       367    235.4950    973.5241 299.9412274 +22.7407819     7338.422     72.37872      8.423    30.92     48.81618     20.37875     162.3635       671     9.676     5.095  62.00  18
       368    170.0158    998.4401 299.9127600 +22.7282766     3012.309     72.25008      6.179    20.59     80.75164     20.37875      58.2431       144     4.685     2.837  28.26  18
