#   1 NUMBER                 Running object number                                     
#   2 X_IMAGE                Object position along x                                    [pixel]
#   3 Y_IMAGE                Object position along y                                    [pixel]
#   4 ALPHA_J2000            Right ascension of barycenter (J2000)                      [deg]
#   5 DELTA_J2000            Declination of barycenter (J2000)                          [deg]
#   6 FLUX_APER              Flux vector within fixed circular aperture(s)              [count]
#   7 FLUXERR_APER           RMS error vector for aperture flux(es)                     [count]
#   8 FLUX_RADIUS            Fraction-of-light radii                                    [pixel]
#   9 FWHM_IMAGE             FWHM assuming a gaussian core                              [pixel]
#  10 BACKGROUND             Background at centroid position                            [count]
#  11 THRESHOLD              Detection threshold above background                       [count]
#  12 FLUX_MAX               Peak flux above background                                 [count]
#  13 ISOAREA_IMAGE          Isophotal area above Analysis threshold                    [pixel**2]
#  14 A_IMAGE                Profile RMS along major axis                               [pixel]
#  15 B_IMAGE                Profile RMS along minor axis                               [pixel]
#  16 THETA_IMAGE            Position angle (CCW/x)                                     [deg]
#  17 FLAGS                  Extraction flags                                          
         1    233.2193     22.4718 300.2354346 +22.4425063     3772.286     72.33779      1.534     2.61     5.197771      20.3983     401.1685        32     1.299     1.113  54.60   0
         2    794.3483     15.0325 300.4124710 +22.6083888     890.2326     72.31938      1.278     2.49     5.003967      20.3983     116.3213        11     0.834     0.800 -77.65   0
         3    349.2402     14.6512 300.2740398 +22.4750156     1083.905     72.31938      1.386     2.93     4.323127      20.3983     134.0323        16     1.068     0.880  48.14   0
         4    832.2282     10.2159 300.4258353 +22.6183391     551.5765     72.31938      1.488     4.13     4.755859      20.3983      67.1395        10     1.100     0.632  67.00   0
         5    755.9872     10.2535 300.4020678 +22.5955341     528.6182     72.31938      1.935     3.74     5.067391      20.3983     61.72111         9     1.037     0.620  42.01   0
         6    852.3611      6.3281 300.4333694 +22.6232452      2337.38     72.26413      1.490     2.60     4.592027      20.3983     274.1997        27     1.207     1.086  69.35  16
         7    558.0005      4.5502 300.3422628 +22.5346289     528.9076     70.51088      1.544     3.42     4.349069      20.3983     61.93941        10     1.092     0.778  20.15  16
         8    610.2201      1.8299 300.3594001 +22.5494806     233.5517     59.10863      1.514     3.91     4.385626      20.3983     28.16904         5     0.952     0.460 -43.74  24
         9    235.8315      1.8454 300.2429290 +22.4373643     811.8005     59.22115      1.291     2.68     5.162544      20.3983       113.91        12     1.033     0.681   9.84  24
        10    228.7634    993.8018 299.9187083 +22.7198548     1653.497     72.31938      4.961    13.52     59.44959      20.3983      52.3987        38     2.988     1.701  89.53  10
        11    264.1605   1021.0325 299.9208502 +22.7382855     1829.139     68.71291      5.776    20.61     74.97656      20.3983     57.49352        93     4.881     2.418  -0.59  27
        12    307.2977   1015.3014 299.9361233 +22.7495926     1925.231     72.50326      3.904    16.60     51.02644      20.3983     52.03993        64     3.151     2.431 -37.24  19
        13    261.6946   1004.7866 299.9253691 +22.7328892     3621.785     72.22726      6.680    17.81     63.95201      20.3983     82.16232       186     4.431     3.425 -40.98  19
        14    281.4780   1004.3162 299.9316712 +22.7386933     4728.479     72.41138      9.146    27.86      61.5364      20.3983     94.44077       408     6.982     4.741 -31.39  19
        15    232.8019   1011.9169 299.9140701 +22.7262588     2323.136     72.20883      6.266    16.25     71.32086      20.3983      72.0434        61     3.612     2.033 -49.74  19
        16    209.2076   1023.7393 299.9028921 +22.7225628     263.6069     55.81834      1.741     3.97     77.80765      20.3983     42.50187         5     1.035     0.435   3.53  25
        17    197.3999   1023.1238 299.8994234 +22.7188412     563.4379     59.24363      2.011     6.87     75.44302      20.3983     46.77335        10     1.333     0.992  21.19  27
        18    192.5792   1023.5507 299.8977867 +22.7175161     372.8977     56.92844      1.672     5.83     75.49945      20.3983     42.48712         8     1.464     0.654 -11.74  27
        19    141.5222   1014.8852 299.8847440 +22.6997024     5348.494     72.41138     12.053    45.94     53.03386      20.3983     119.2167       940    11.294     6.912  16.33  27
        20    138.5560    968.4707 299.8989210 +22.6855123     4971.448     72.26413     28.774    97.74     29.70094      20.3983     102.2534      4205    22.186    16.138 -80.23  18
        21    713.8057    972.6525 300.0764805 +22.8593339     6907.193     72.26413      1.904     4.11     3.046924      20.3983     369.5161        53     1.584     1.465  27.88   0
        22    224.0024   1017.7258 299.9094458 +22.7252816     1304.039     72.20883      3.150    12.11      75.9247      20.3983     46.75016        29     2.377     1.718  81.65  19
        23    559.7686    994.6755 300.0213616 +22.8194456     450.8605     72.30097      2.121     6.69     2.950089      20.3983     42.49785        10     1.479     1.109  53.63   0
        24    300.4025    992.6805 299.9413390 +22.7410390     7556.439     72.20883      7.738    27.18     44.75883      20.3983     164.7447       573     9.000     4.363  61.36  19
        25    234.0877   1018.4862 299.9123325 +22.7285274      3042.53     72.42976      5.792    21.07     75.32507      20.3983     65.76716       132     4.475     2.823  15.33  27
        26    865.7468    965.9480 300.1259955 +22.9029713     312.8022     72.33779      1.603     5.34     3.298015      20.3983     28.46136         6     1.180     0.683  27.36   0
        27    622.1298    963.3165 300.0509732 +22.8291587     1589.091     72.42976      1.863     4.63     3.035088      20.3983     102.0214        29     1.406     1.331 -75.86   0
        28     44.6525    991.3333 299.8623207 +22.6638647     450.7331     72.31938      1.673     6.78     6.836833      20.3983     36.37294        10     1.334     0.966  36.09   0
        29    593.5178    967.0380 300.0408563 +22.8216435      445.325     72.26413      1.811     3.87     3.009068      20.3983     46.42206         7     0.849     0.805  -6.86   0
        30    516.1637    959.4971 300.0192362 +22.7962743     1023.314     72.30097      1.725     4.21     2.961039      20.3983     84.96987        19     1.290     0.982   2.20   0
        31    446.7003    957.7764 299.9981853 +22.7749389     6545.094      72.2457      1.820     3.85     3.052404      20.3983     460.5287        47     1.515     1.400  31.42   0
        32    988.1478    989.4497 300.1565039 +22.9464107     719.7413     72.33779      1.952     6.80     3.239434      20.3983     45.71943        15     1.311     0.990  -3.45   0
        33    480.2473    944.5601 300.0129201 +22.7812146      342.692     72.35619      1.270     4.32     3.123279      20.3983     38.80894         7     0.981     0.541 -61.50   0
        34    189.8418    976.5651 299.9122211 +22.7032299     1545.919     72.35619      8.744    10.35     45.79269      20.3983     40.14742        16     2.284     1.307 -22.14   3
        35    187.6367    970.6356 299.9134647 +22.7008687      1494.65      72.3746      9.486    11.11     41.92803      20.3983     48.54234        22     2.320     1.483 -39.02   2
        36    992.9892    936.6703 300.1751833 +22.9327097     2063.271     72.28255      2.027     5.03     3.549735      20.3983     113.1778        32     1.456     1.400  19.99   0
        37    643.2390    932.6022 300.0675353 +22.8266792     541.0728     72.31938      1.939     4.10     3.035088      20.3983      35.6013         6     0.936     0.512  42.67   2
        38    781.6132    925.7398 300.1128604 +22.8662064     826.1057     72.26413      2.382     7.18     3.108876      20.3983     41.25582        16     1.618     1.183  44.37   0
        39    594.3842    920.8171 300.0561600 +22.8086448     317.4913     72.26413      1.785     4.69     3.022378      20.3983     32.49876         5     1.345     0.464 -56.92   0
        40    816.7499    919.6803 300.1257779 +22.8750022     974.1222     72.31938      1.803     6.15     3.181497      20.3983     60.17276        18     1.291     1.024  28.72   0
        41    209.0009    974.8412 299.9187349 +22.7084879     1366.799     72.30097      3.820     9.58      45.8742      20.3983     46.62578        19     2.168     1.182 -68.44   2
        42     26.0863    916.5918 299.8808646 +22.6368762      531.863     72.20883      1.812     5.69     3.754522      20.3983     39.80304        11     1.049     0.905  68.70   0
        43    838.8993    913.3782 300.1347290 +22.8798339     11409.46     72.22726      1.819     3.98     3.262281      20.3983     706.2048        54     1.483     1.428  38.92   0
        44    885.1765    913.8763 300.1489883 +22.8938500     479.2364     72.31938      1.681     4.76     3.337989      20.3983     53.21998         8     1.144     0.660 -33.68   0
        45    150.3972    904.8586 299.9232874 +22.6708378     883.0967     72.26413      2.822     6.44     10.39801      20.3983     63.07289        14     1.309     0.958  84.75   0
        46    543.8289    901.6967 300.0466439 +22.7879954     457.8518      72.2457      1.375     4.51     2.962907      20.3983     45.54983         9     1.219     0.562 -13.26   0
        47    891.1172    901.0228 300.1550202 +22.8919411     457.6418     72.26413      1.700     5.94     3.365326      20.3983     43.02543         9     1.229     0.809  52.37   0
        48    847.2346    895.4359 300.1431616 +22.8771828     1571.368      72.3746      1.867     4.16     3.327351      20.3983     95.46339        26     1.349     1.206  35.14   0
        49    699.7722    892.7921 300.0980853 +22.8322111     389.8424     72.30097      1.565     5.17     3.259317      20.3983      38.1488         8     1.037     0.730  77.35   0
        50    885.2387    888.6691 300.1572057 +22.8866327     957.1677     72.26413      2.280     8.58     3.381191      20.3983     53.32089        19     1.791     1.149  45.72   0
        51    934.4169    880.2600 300.1752691 +22.8989589     611.5063     72.26413      1.827     6.28     3.448289      20.3983     41.85318        12     1.192     0.929  82.20   0
        52    785.4214    879.1490 300.1291990 +22.8539767     664.1232     72.30097      1.568     3.83     3.338251      20.3983     61.53998        15     1.104     0.979  63.29   0
        53    796.7967    876.2156 300.1336967 +22.8565451     463.3333     72.15349      1.526     5.59     3.351292      20.3983     42.83598        12     1.106     0.923  12.23   0
        54    497.9124    875.4879 300.0408790 +22.7667038     4156.043     72.46652      1.689     3.50     3.392502      20.3983     334.1493        35     1.342     1.258  65.46   0
        55    276.4144    863.9042 299.9757631 +22.6969229       478.99     72.22726      2.129     2.79      3.80109      20.3983     46.27834         6     0.913     0.628  59.80   0
        56    204.4223    974.8063 299.9173236 +22.7071033     1257.346     72.28255      5.161     7.24     45.52494      20.3983     49.18826        15     1.224     1.199 -15.42   3
        57    541.5274    863.2186 300.0584399 +22.7762672     357.3611     72.30097      1.688     5.19     3.045277      20.3983     30.15912         5     1.005     0.757   4.69   0
        58    223.0783    861.0443 299.9601163 +22.6800957     990.3632     72.30096      2.389     4.21      4.48708      20.3983     76.00545        15     1.249     1.011 -11.98   0
        59    200.3792    858.0918 299.9540227 +22.6724364      1513.05     72.22726      1.670     3.36     4.438755      20.3983     175.0062        19     1.157     1.066 -58.08   0
        60    132.6695    859.1483 299.9326430 +22.6524150     377.1308     72.28255      1.640     4.15       4.3094      20.3983     37.13931         6     0.770     0.637  31.36   0
        61     17.1213    977.9376 299.8581300 +22.6517589     575.4822      72.3746      2.168     5.28     1.450529      20.3983     47.13343         9     1.132     0.696  78.77   0
        62    732.0750    845.7733 300.1234346 +22.8284036     440.9333     72.30097      1.878     4.95     3.429214      20.3983     32.09863         7     0.849     0.817  38.39   0
        63    809.9029    839.7328 300.1496427 +22.8500022     684.3861     72.39299      1.738     5.27     3.436998      20.3983     48.17329        10     1.031     0.759  40.72   0
        64    232.7150    840.0549 299.9699350 +22.6769706     436.9176      72.3746      1.815     5.30     4.090368      20.3983     48.59075         8     1.060     0.748 -28.56   0
        65    677.9606    833.5648 300.1105516 +22.8086746     4826.773     72.35619      1.654     3.38     3.426421      20.3983     377.2672        36     1.325     1.221  57.39   0
        66    167.9013    834.0764 299.9517390 +22.6558039     525.1793     72.44814      1.905     3.88     4.050064      20.3983     51.04163         8     1.039     0.667  -8.06   0
        67    480.1299    830.7514 300.0498917 +22.7485371     672.9762     72.28255      1.437     4.57     3.629839      20.3983     66.33529        14     1.145     0.954  10.87   0
        68    228.0512    827.3322 299.9726217 +22.6719234     1303.505     72.28255      1.685     3.56     3.938901      20.3983     117.7167        24     1.234     1.179  36.96   0
        69    698.6461    826.0425 300.1194386 +22.8127181      777.573     72.33779      1.756     3.89     3.435514      20.3983     70.97312        14     1.069     0.939 -27.77   0
        70    247.4811    824.6545 299.9795306 +22.6769867     416.7961     72.33779      1.414     4.37      3.81723      20.3983     53.90554         8     0.999     0.783  42.90   0
        71    854.0317    813.4014 300.1719538 +22.8556705     4173.723     72.26413      1.692     3.55     3.558601      20.3983     293.0626        34     1.339     1.182  38.48   0
        72    585.5269    810.6471 300.0892256 +22.7743805     193.3968     72.30097      1.114     4.01     3.430652      20.3983     28.27643         6     0.961     0.478   0.49   0
        73    262.3537    807.3555 299.9897764 +22.6764897     344.6924     72.33779      1.545     6.47     3.625853      20.3983     44.08509        13     1.317     0.891  37.00   0
        74    570.7718    805.6973 300.0862422 +22.7685353     660.6541      72.2457      1.482     4.16     3.492196      20.3983     52.30708        14     1.100     0.955  79.16   0
        75    217.4375    803.6606 299.9770181 +22.6619514     968.7414     72.31938      1.798     3.79     3.590824      20.3983     96.37032        18     1.286     0.955 -28.53   0
        76    632.6490    799.2534 300.1075981 +22.7852415     483.5973     72.33779      1.483     4.10     3.444641      20.3983     46.06435        10     0.976     0.725  37.76   0
        77    366.9875    795.8240 300.0260543 +22.7045776     53353.44     72.30097      1.590     3.18     3.889601      20.3983      5048.73        95     1.459     1.392  53.46   0
        78    624.7930    794.9573 300.1065489 +22.7816530     1496.469     72.31938      1.488     3.21     3.464576      20.3983     155.7954        21     1.153     1.026  -6.19   0
        79    295.2207    794.0877 300.0043055 +22.6825474      441.138     72.22726      1.409     4.46     3.668518      20.3983     47.76734         8     0.897     0.630 -44.73   0
        80    653.8080    791.1830 300.1168091 +22.7892698       924.71      72.2457      1.525     3.41     3.455184      20.3983     87.20383        17     1.103     0.986 -19.65   0
        81     53.3867    790.3921 299.9303694 +22.6089084     952.9702     72.19039      2.269     4.97     3.713274      20.3983     79.05965        18     1.247     1.188  78.31   0
        82     20.2498    790.3807 299.9200837 +22.5989574     800.4548     72.30097      2.150     5.85     3.760963      20.3983     57.67517        15     1.324     1.099  32.60   0
        83    664.7521    789.3836 300.1208016 +22.7920348     618.6183     72.33779      1.523     3.80     3.446174      20.3983     70.71692        12     1.094     0.780  58.00   0
        84    770.2045    785.7422 300.1548274 +22.8226034     437.3917     72.26413      1.423     4.22     3.466826      20.3983     46.11334         7     1.141     0.444 -27.32   0
        85    416.7190    773.0999 300.0489067 +22.7129784     31158.12     72.42976      1.563     3.03     3.784111      20.3983     3031.025        77     1.416     1.338  41.25   0
        86    430.9739    773.6378 300.0531657 +22.7174087     1986.994     72.31938      1.605     3.16     3.784395      20.3983     196.4594        21     1.133     1.058  17.47   0
        87    939.8321    769.1864 300.2130697 +22.8686876     2772.091     72.30097      1.699     3.41     3.709971      20.3983     221.6164        28     1.282     1.201  80.99   0
        88    428.0516    767.4570 300.0542656 +22.7147590     729.4094     72.35619      1.888     4.53     3.824557      20.3983     56.20359        13     1.245     0.853  46.78   0
        89    968.5234    766.6536 300.2228378 +22.8765571     282.2082     72.33779      1.566     5.33     3.716664      20.3983     36.93643         7     1.606     0.500  61.14   0
        90    697.6113    765.1743 300.1389027 +22.7949378     904.0472     72.30097      1.483     3.70     3.448635      20.3983     86.10154        16     1.042     0.989 -75.53   0
        91    299.0286    764.9795 300.0149500 +22.6753424     782.8549     72.30096      1.584     3.53     3.776666      20.3983     82.17533        15     1.146     0.903  15.89   0
        92    533.9703    765.0120 300.0880136 +22.7458250     494.6646     72.30096      1.442     5.16      3.74761      20.3983     44.35365         9     0.928     0.811  74.53   0
        93    544.6833    759.8589 300.0930222 +22.7475590     929.2256     72.41138      1.591     3.08     3.743999      20.3983     91.04644        13     0.972     0.854 -35.54   0
        94    103.4119    760.5151 299.9556156 +22.6153604     482.9646      72.2457      2.050     5.62     3.617691      20.3983     41.32317         7     1.282     0.695  -1.97   0
        95    945.9929    756.8839 300.2189890 +22.8670004     522.6218     72.22726      1.485     3.66     3.741723      20.3983     58.57946        11     1.080     0.861  -2.84   0
        96    447.2327    756.3389 300.0638455 +22.7173228     288.0953     72.33779      1.424     3.21     3.894234      20.3983     42.28911         5     0.724     0.460  11.35   0
        97    808.1017    775.7635 300.1698775 +22.8310982     759.7338     72.30097      1.515     4.36     3.484297      20.3983     69.31645        15     1.224     0.874 -25.53   0
        98    490.6009    754.6160 300.0778974 +22.7298357      418.037     72.17194      1.274     3.94     3.884805      20.3983     71.86876        10     1.205     0.680  61.59   0
        99    699.1506    753.9366 300.1430345 +22.7921736     380.1673     72.35619      1.361     3.90     3.449101      20.3983     48.70538         5     0.791     0.552  54.73   0
       100    132.3081    753.8062 299.9667717 +22.6221098     498.4988     72.20883      2.143     5.41     3.563751      20.3983     51.61417         8     1.297     0.723  77.49   0
       101    924.1173    751.5773 300.2138944 +22.8589217     416.0475     72.26413      1.418     5.18     3.739995      20.3983     51.23244        10     0.963     0.787 -83.10   0
       102    297.1170    749.1182 300.0195105 +22.6702201     518.9418     72.42976      1.538     5.27     3.818914      20.3983     52.46898        12     1.256     0.759  74.09   0
       103    620.1581    739.4285 300.1231543 +22.7643273     406.7684     72.31938      1.427     3.92     3.751918      20.3983     45.16289        10     0.910     0.833  49.18   0
       104    590.0538    737.8916 300.1142826 +22.7548600     691.7018     72.35619      1.608     3.70     3.824134      20.3983     71.04469        10     0.927     0.750 -77.39   0
       105    499.3507    736.9279 300.0863683 +22.7273847     172.9828     72.28255      1.174     3.43     3.953868      20.3983     37.21551         5     0.778     0.438 -72.90   0
       106   1006.2617    734.3942 300.2450901 +22.8785978     4362.288     72.28255      1.704     3.48     3.837234      20.3983     343.6848        36     1.301     1.292 -18.64   0
       107    611.7387    735.3246 300.1218670 +22.7606251     1315.972     72.35619      1.377     2.97      3.82495      20.3983     139.7578        20     1.174     0.952  20.58   0
       108    693.2159    730.5367 300.1487913 +22.7836775     325.2098     72.28255      1.454     3.78     3.480759      20.3983     39.24407         6     0.966     0.498  -1.46   0
       109    994.7714    725.6959 300.2443340 +22.8726570     1677.454     72.22726      1.748     3.89     3.846109      20.3983     122.5712        25     1.276     1.180 -71.97   0
       110    223.5504    720.5325 300.0059337 +22.6399497     329.8159     72.30097      1.581     5.09     3.618348      20.3983     32.99024         6     1.265     0.580  44.64   0
       111    357.6731    719.7765 300.0478730 +22.6799706      853.462     72.33779      1.427     2.97     4.005744      20.3983      96.8805        13     0.973     0.830  13.00   0
       112    821.1445    717.0549 300.1930220 +22.8181508     2541.404     72.33779      1.630     3.19     3.531595      20.3983     214.0985        32     1.351     1.198  10.41   0
       113     43.6381    707.4551 299.9542935 +22.5822092     891.3708     72.30097      1.749     4.32     4.056349      20.3983     66.00789        17     1.182     1.091  11.39   0
       114    206.3591    703.1359 300.0062440 +22.6298026     535.2428     72.26413      1.524     4.37     3.660361      20.3983     54.76982        13     1.080     0.857  42.30   0
       115    903.4677    702.8430 300.2232957 +22.8387381     728.1317     72.28255      1.977     3.99     3.802012      20.3983     65.44491        12     1.093     0.898 -20.15   0
       116    939.5219    694.0120 300.2374043 +22.8470039       147243     72.30097      1.623     3.18     3.896474      20.3983     11856.39       157     1.546     1.474  57.83   0
       117    701.8456    697.1395 300.1623314 +22.7766771     386.7345     72.31938      1.509     4.78     3.633226      20.3983     47.04949         9     1.032     0.895  -5.27   0
       118    791.8680    694.3403 300.1912816 +22.8028547      848.541     72.33779      1.746     3.73     3.466826      20.3983     74.83217        16     1.168     0.941  62.96   0
       119    972.4482    686.8207 300.2500065 +22.8548024     418.4071     72.33779      1.497     4.93     3.918045      20.3983     44.85645        11     1.035     0.908  14.47   0
       120    625.6951    682.8435 300.1432653 +22.7497460     1530.635     72.31938      1.424     2.83     4.115901      20.3983     194.3502        19     1.045     0.990  59.66   0
       121    806.9706    680.1075 300.2006116 +22.8032937     9465.086     72.26413      1.470     2.85     3.492923      20.3983     901.0782        43     1.257     1.203  72.63   0
       122    308.4268    675.0929 300.0470795 +22.6523808     4805.344      72.2457      1.513     2.81     3.966934      20.3983     525.2305        35     1.263     1.157  44.07   0
       123     22.1590    673.4561 299.9586696 +22.5660160     1574.775     72.28255      1.822     3.75     4.241326      20.3983     149.7045        26     1.317     1.263  -3.30   0
       124    390.4779    673.2393 300.0731951 +22.6764597     1109.685     72.28255      1.514     2.88     4.003992      20.3983     119.5575        18     1.094     0.987  57.69   0
       125    266.2358    671.0439 300.0352794 +22.6385629     490.8539     72.35619      1.433     4.42     3.914064      20.3983     55.03278        11     1.030     0.901  21.83   0
       126    598.6973    668.8000 300.1394235 +22.7376214     673.2861     72.17194      1.346     2.97     4.282522      20.3983     95.27749        12     1.012     0.783  21.52   0
       127    590.3887    660.9221 300.1393966 +22.7328693     3127.062     72.28255      1.419     2.49     4.299966      20.3983     395.9044        26     1.134     1.049  85.51   0
       128    580.6220    654.6854 300.1383827 +22.7281511     1430.784      72.2457      1.384     2.85     4.312212      20.3983     176.6136        15     0.995     0.875  52.67   0
       129    974.2433    652.5267 300.2617087 +22.8454885     527.5014     72.28255      1.574     4.92     4.065001      20.3983     54.01825         9     1.145     0.599  34.59   0
       130    243.8494    651.1830 300.0347733 +22.6261505     692.6882     72.33779      1.650     3.66     3.914616      20.3983     64.84216        12     1.012     0.826   6.67   0
       131    258.3197    649.0848 300.0399525 +22.6298896     576.9104     72.44814      1.337     3.04     3.934937      20.3983     77.56413        10     1.028     0.687  46.94   0
       132    315.1783    646.2178 300.0585589 +22.6461227     355.3204     72.30097      1.259     3.26      3.99162      20.3983     41.41629         6     0.741     0.629 -69.80   0
       133    283.8816    645.7516 300.0489809 +22.6366014     716.4343     72.33779      1.635     3.78     3.967746      20.3983     77.22001        10     1.078     0.699  31.05   0
       134    604.7216    644.7480 300.1491127 +22.7325232     488.0909     72.30097      1.628     2.92     4.311328      20.3983     55.60941         9     0.866     0.821  55.09   0
       135    505.4744    644.3575 300.1183511 +22.7026567     1876.243     72.28255      1.487     2.77     4.137936      20.3983     195.5147        23     1.160     1.046  18.10   0
       136    539.6516    643.4377 300.1292852 +22.7126397     374.2053     72.31938      1.579     3.43     4.310577      20.3983     32.72917         5     1.037     0.328  22.24   0
       137    159.4386    639.2169 300.0124300 +22.5973942     19787.34     72.31938      1.648     3.05     3.764165      20.3983     1937.028        70     1.480     1.372  44.34   0
       138    590.5579    639.6946 300.1463454 +22.7268267     1079.507     72.31938      1.589     3.31     4.322433      20.3983     106.1969        19     1.163     1.023  78.75   0
       139     80.1211    640.7778 299.9872843 +22.5740420     721.0765     72.28255      1.998     4.27     3.859715      20.3983     71.00803        12     1.128     0.852  53.76   0
       140    625.4637    639.2829 300.1573453 +22.7371721     427.0311     72.41138      1.071     2.33     4.245123      20.3983     62.71107         6     0.678     0.621 -21.57   0
       141   1008.2401    626.0385 300.2809149 +22.8480615     1086.596      72.3746      1.718     3.95     4.222787      20.3983     85.22049        21     1.384     0.985  41.95   0
       142    672.6116    627.1832 300.1759556 +22.7478304     318.5471      72.2457      1.785     4.83     4.041899      20.3983      32.0314         6     1.010     0.655  -9.53   0
       143    875.3840    624.0894 300.2401296 +22.8077041     489.8443     72.22726      1.431     5.65     3.832995      20.3983     51.08757        11     1.544     0.582  49.65   0
       144    105.4650    623.4694 300.0007780 +22.5766838     1656.524     72.35619      2.215     5.16     3.836372      20.3983     102.5584        31     1.733     1.177  81.96   0
       145    171.7359    623.8413 300.0212450 +22.5966742     467.1935     72.26413      1.579     4.95     3.853996      20.3983     42.23037         8     1.000     0.693 -70.77   0
       146    553.8168    620.4377 300.1411650 +22.7102848     501.1366     72.30097      1.385     3.90     4.337033      20.3983     55.97756         8     0.967     0.647 -35.31   0
       147    948.8004    618.8102 300.2647294 +22.8281809     876.7167     72.11658      2.151     3.35     4.263695      20.3983     77.46245        10     0.933     0.764  60.73   0
       148    510.4806    612.5919 300.1302273 +22.6950407     720.4282      72.2457      1.337     3.02     4.170522      20.3983     89.46874        12     0.966     0.814  32.54   0
       149    658.8565    611.0692 300.1769068 +22.7390812     518.0263     72.31938      1.521     2.57     4.131054      20.3983     58.98759         8     0.803     0.637 -51.61   0
       150    705.5187    609.4327 300.1919690 +22.7525962     461.9329     72.28255      1.394     3.30     3.935862      20.3983     69.60537        13     1.068     0.824  73.32   0
       151    676.1606    609.4254 300.1828289 +22.7437955     503.2603     72.33779      1.248     3.29     4.057275      20.3983      63.8548         8     0.870     0.638  51.46   0
       152    554.4418    608.2689 300.1453121 +22.7069791     821.4893     72.28255      1.435     4.15       4.3403      20.3983      104.574        17     1.290     0.948  49.13   0
       153    520.2610    603.8345 300.1361151 +22.6954593     1657.105     72.31938      1.383     2.68     4.227339      20.3983     200.8524        21     1.151     0.922  86.03   0
       154    885.4395    601.0327 300.2507531 +22.8040935     294.6318     72.33779      1.407     4.83     3.949076      20.3983     41.37231         7     1.128     0.585  31.79   0
       155     82.1262    597.4149 300.0019909 +22.5622095     5038.262     72.30097      1.663     3.23     3.971051      20.3983     498.7557        40     1.385     1.302  40.57   0
       156    988.5320    604.0126 300.2819242 +22.8358302     3199.667     72.31938      1.564     3.02     4.343255      20.3983     292.3905        31     1.224     1.194  35.39   0
       157    383.5941    590.5290 300.0979208 +22.6506633     9121.576     72.26413      1.477     2.63     4.046906      20.3983     1129.186        42     1.294     1.185  62.10   0
       158    506.1028    587.6573 300.1369636 +22.6865713     8944.552     72.39299      1.367     2.46     4.211462      20.3983     1160.626        37     1.167     1.105  57.65   0
       159    752.6364    584.5567 300.2147244 +22.7595722     259.0711     72.35619      1.144     3.40     3.865142      20.3983     46.90528         5     0.763     0.437  22.17   0
       160   1002.4825    579.0968 300.2943671 +22.8328491     12544.54     72.46652      1.602     3.08      4.46236      20.3983     1102.945        52     1.379     1.270  70.39   0
       161    917.7461    581.4666 300.2671782 +22.8081503     1791.354     72.33779      1.546     3.73     4.282907      20.3983     191.7537        24     1.318     1.078  87.63   0
       162    566.6503    577.2454 300.1591878 +22.7017331     11576.62     72.31938      1.373     2.48     4.412326      20.3983     1384.398        46     1.222     1.134  56.84   0
       163    736.2680    573.2443 300.2132998 +22.7514187      702.587     72.28255      1.592     2.66     3.960153      20.3983     83.60104         8     0.835     0.691  88.23   0
       164    294.1006    572.5953 300.0759181 +22.6186792     1479.718     72.19039      1.577     2.69     3.967775      20.3983     155.4206        21     1.203     1.020  23.32   0
       165    451.9414    571.6124 300.1253232 +22.6657281     308.9703     72.26413      1.370     3.18     4.165059      20.3983     47.87223         6     0.980     0.457  58.60   0
       166    541.0374    570.3683 300.1534496 +22.6920812     408.4068     72.30097      1.383     3.71     4.329395      20.3983     47.86554         7     0.814     0.719 -76.34   0
       167    498.4054    565.4369 300.1417847 +22.6778856     4468.509     72.33779      1.347     2.36     4.263005      20.3983     552.3825        31     1.145     1.065  24.79   0
       168    841.2751    565.5212 300.2485230 +22.7806620     817.0396     72.41138      1.295     2.94     3.807642      20.3983     110.1628        11     0.983     0.731  67.45   0
       169    476.5540    563.9332 300.1354742 +22.6709031      1233.31     72.30097      1.389     2.53     4.234529      20.3983       169.77        17     1.120     0.868  59.55   0
       170    231.2488    563.4266 300.0593590 +22.5971977     699.5447     72.31938      1.175     2.40     3.972318      20.3983      97.1985        11     0.925     0.677 -42.79   0
       171    918.3099    561.0104 300.2739976 +22.8024421     1639.593      72.2457      1.551     3.12     4.324066      20.3983     148.5718        20     1.120     1.030  17.32   0
       172    614.9849    552.9708 300.1821166 +22.7092512     200117.4     72.31938      1.406     2.49     4.662253      20.3983     26730.73       209     1.475     1.426   9.29   0
       173    439.2439    559.5023 300.1253059 +22.6584455     393.2637     72.30097      1.260     2.74     4.190776      20.3983     55.76769         7     0.899     0.483   9.67   0
       174    798.6660    557.8358 300.2377422 +22.7656891     972.5623     72.30097      1.514     2.99     3.794048      20.3983     109.4083        13     0.965     0.898  70.17   0
       175   1002.8298    554.9487 300.3023181 +22.8260140     148.2957     72.31938      1.197     3.93      4.57641      20.3983     35.20647         5     0.869     0.510  26.21   0
       176    300.9896    552.9459 300.0844404 +22.6151074     3460.968     72.30096      1.435     2.81     3.959101      20.3983      385.151        28     1.155     1.108  65.18   0
       177    867.1272    549.2789 300.2618542 +22.7837404     574.2648     72.41138      1.711     3.95      3.87511      20.3983     52.66259         9     0.993     0.696 -85.96   0
       178    505.5792    533.2250 300.1544768 +22.6707896     2762.262     72.28255      1.457     2.40     4.356277      20.3983     315.7601        25     1.165     0.991  83.85   2
       179    349.8722    535.7064 300.1052368 +22.6248193     459.2877     72.42976      1.448     3.60     4.079511      20.3983     57.00953         9     1.092     0.570 -21.87   0
       180    955.3647    533.7743 300.2943943 +22.8057146     260.3423     72.31938      1.279     3.67     4.524609      20.3983     39.61484         5     0.954     0.407   6.39   0
       181    662.2556    530.8027 300.2040326 +22.7170522     285.0647      72.2457      1.564     4.35     4.477142      20.3983     29.83094         5     0.751     0.716 -69.03   0
       182    916.9955    530.0642 300.2836373 +22.7931570     466.5655     72.28255      1.452     4.25     4.375678      20.3983     45.65935         7     0.867     0.661  30.34   0
       183    822.9109    522.0889 300.2569044 +22.7626840     309.7896     72.46652      1.205     3.32      3.88039      20.3983     42.38419         8     0.823     0.663  31.35   0
       184    902.6925    519.5322 300.2825987 +22.7858470     1790.862     72.42976      1.398     2.56     4.284907      20.3983      206.997        21     1.088     0.963  23.01   0
       185    773.8438    517.1496 300.2432206 +22.7465658     2596.192     72.33779      1.342     2.49     3.980964      20.3983     319.3089        23     1.059     0.984 -84.39   0
       186     32.9399    517.9957 300.0125036 +22.5246765     828.4915     72.26413      1.668     4.14     4.233155      20.3983     77.85977        15     1.196     0.980   7.07   0
       187   1017.0156    510.6690 300.3211208 +22.8175367     1047.191     72.31938      2.248     4.31     4.639915      20.3983     62.95575        17     1.249     1.037  71.05  18
       188    983.0580    514.3438 300.3093383 +22.8084243     207.9486      72.3746      1.400     5.12     4.584726      20.3983     32.60184         8     0.965     0.767 -30.86   0
       189    678.4709    513.7925 300.2146050 +22.7170262     561.7486     72.28255      1.278     3.01     4.505758      20.3983     69.23489         7     0.920     0.487  81.82   0
       190    561.0383    513.1455 300.1782556 +22.6816481     702.7219     72.30097      1.325     2.93      4.53334      20.3983     89.36324        13     0.975     0.853   0.59   0
       191    902.8715    509.5648 300.2858909 +22.7830367      2394.72     72.30097      1.880     4.36      4.31199      20.3983     215.2915        38     1.684     1.297 -87.97   0
       192    656.0776    507.7819 300.2095835 +22.7085899     723.3373     72.30097      1.632     2.71     4.618429      20.3983     76.10822         9     0.861     0.697 -72.33   2
       193    441.9606    507.6244 300.1429956 +22.6443696      325.961     72.33779      1.278     3.38     4.328959      20.3983     42.48566         5     0.770     0.429  20.56   0
       194    941.0502    504.6665 300.2993829 +22.7930633      4200.02     72.28255      1.445     2.72     4.523338      20.3983     501.2427        30     1.194     1.085  82.93   0
       195    494.6006    506.3433 300.1597888 +22.6597816     283.3994     72.22726      1.125     2.85     4.390462      20.3983     51.41321         7     0.858     0.557 -33.76   0
       196    502.4655    503.7888 300.1630653 +22.6614058     167.8518      72.2457      1.074     3.41     4.407958      20.3983     32.93702         5     0.749     0.450 -68.87   0
       197    601.7462    500.4451 300.1950502 +22.6902016     298.7586     72.33779      1.118     2.90     4.722931      20.3983     49.81442         5     0.723     0.445 -22.96   0
       198    172.9669    495.0868 300.0634360 +22.5601113     992.7863     72.26413      1.508     3.03     3.996089      20.3983     101.8962        14     1.032     0.855 -29.42   0
       199    972.4102    492.3862 300.3131474 +22.7989255     303.0657     72.20883      1.687     3.35     4.574725      20.3983     43.25261         5     0.736     0.459  72.18   0
       200    165.1306    485.0220 300.0642684 +22.5548734     484.2372     72.30097      1.763     4.86     4.002347      20.3983      53.8371        11     1.190     0.963 -37.79   0
       201    773.0656    479.2487 300.2552833 +22.7354453      503.779     72.31938      1.529     3.59     4.077694      20.3983     49.85218         8     0.934     0.608  59.23   0
       202    819.3884    479.2586 300.2697127 +22.7493242     190.8011      72.2457      0.930     3.39     3.965798      20.3983     30.93728         5     0.742     0.449  71.34   0
       203    662.3145    477.0509 300.2215025 +22.7016331     389.1479     72.30097      1.444     2.37     4.742594      20.3983     44.36765         7     0.699     0.658  84.15   0
       204    382.4184    477.2214 300.1343455 +22.6177925     305.8976     72.30097      1.517     4.29     4.402927      20.3983     28.00014         5     0.896     0.585 -41.54   0
       205    714.5060    475.0671 300.2383999 +22.7167007     904.2098     72.44814      1.370     2.71     4.480865      20.3983     98.01527        12     0.916     0.812  -4.54   0
       206    775.0737    467.3559 300.2597697 +22.7326303     886.1838     72.28255      1.267     2.96     4.128931      20.3983     121.0471        14     1.029     0.805  72.81   0
       207    932.5151    463.5300 300.3100773 +22.7786860     958.4146     72.41138      1.477     2.75     4.537118      20.3983     116.8873        16     1.111     0.815  55.20   0
       208    916.7280    459.8612 300.3063468 +22.7729040     648.2131     72.33779      1.495     3.46     4.484196      20.3983     81.23859        12     1.061     0.849  15.05   0
       209    897.2125    460.2710 300.3001305 +22.7671774     396.5253     72.31938      1.518     2.62     4.403129      20.3983     45.64456         6     0.709     0.620 -74.09   0
       210    661.1223    457.9238 300.2273403 +22.6957824     3165.147     72.41138      1.325     2.43     4.716893      20.3983     461.6902        25     1.110     0.971  68.02   0
       211   1021.4446    457.2539 300.3398438 +22.8035102     485.0571     67.14481      1.285     2.26     4.631306      20.3983     68.34505         7     0.826     0.528  31.54  16
       212    501.0211    444.7252 300.1817891 +22.6440154     425.5353     72.30097      1.300     2.31     4.525015      20.3983     60.46697         7     0.700     0.660   3.51   0
       213    432.7480    445.4146 300.1603243 +22.6237498     226.6121     72.31938      1.248     3.43     4.528089      20.3983      29.3017         5     0.747     0.454 -18.73   0
       214    944.2989    436.9590 300.3223762 +22.7745782     504.0529     72.28255      1.339     3.12     4.548892      20.3983     62.30461         9     0.895     0.674  20.26   0
       215    680.4559    434.0379 300.2411139 +22.6947142     265.8962     72.30097      1.331     3.74     4.646785      20.3983     39.42626         8     0.867     0.689 -33.97   0
       216    771.6689    431.8117 300.2702467 +22.7213989      1037.76     72.31938      1.355     2.39     4.331692      20.3983     154.4777        16     1.073     0.837 -83.99   0
       217    567.2693    432.5219 300.2063672 +22.6603648     425.6377     72.41138      1.267     2.91     4.640987      20.3983     64.39989         8     0.861     0.646  47.49   0
       218    275.8212    430.0719 300.1165049 +22.5723005     748.3007     72.30097      1.537     2.81     4.477417      20.3983     83.23029        11     0.918     0.754   3.17   0
       219    337.9918    425.7451 300.1372382 +22.5896983     3604.338     72.30097      1.413     2.68     4.601618      20.3983     460.8022        27     1.117     1.077  50.36   0
       220    285.1803    420.4655 300.1225320 +22.5723496     7507.435     72.28255      1.399     2.53      4.57613      20.3983     864.4141        36     1.177     1.124  61.96   0
       221    663.4821    420.2567 300.2403012 +22.6856703     284.9604     72.33779      1.391     3.38      4.66206      20.3983     42.59402         5     0.790     0.419  66.00   0
       222    426.0334    414.7297 300.1681945 +22.6129279     4901.635     72.30097      1.390     2.51     4.645196      20.3983      646.135        33     1.176     1.061  43.64   0
       223    670.1663    411.4649 300.2452359 +22.6851475     18466.54     72.30097      1.317     2.33      4.64274      20.3983     2604.285        53     1.219     1.112  66.86   0
       224    517.4857    412.8030 300.1972732 +22.6397836     243.8072     72.22726      1.195     2.21     4.585683      20.3983     49.31028         5     0.694     0.458 -67.38   0
       225    687.9263    411.4937 300.2507572 +22.6904763      818.416     72.44814      1.884     6.33     4.608881      20.3983     54.58862        15     1.417     0.793 -38.75   0
       226    867.0865    401.7971 300.3097203 +22.7413519     429.5134     72.22726      1.439     3.74     4.473199      20.3983     57.86657         7     1.072     0.452  60.58   0
       227    290.0221    398.5666 300.1311439 +22.5675160      286.286     72.30097      1.418     2.59     4.611121      20.3983     48.57195         7     0.739     0.659 -20.84   0
       228   1003.7388    394.1045 300.3548191 +22.7800566     653.4591     72.39299      1.403     3.06     4.618213      20.3983     82.10607        10     0.862     0.830 -25.90   0
       229    540.8270    393.4119 300.2108300 +22.6412097     331.0783     72.30097      1.452     4.13     4.593575      20.3983     36.70717         6     0.768     0.634  44.81   0
       230    224.8597    391.5789 300.1131564 +22.5459733     2008.766      72.2457      1.410     2.54     4.446573      20.3983     247.8568        23     1.141     1.007  81.94   0
       231    610.7783    380.9055 300.2366622 +22.6585772     6613.303     72.20883      1.337     2.33     4.668728      20.3983     985.9447        34     1.166     1.037  60.75   0
       232   1023.7471    381.4438 300.3651677 +22.7824066     585.5857     55.84219      1.037     1.98     4.644634      20.3983     133.4148         7     0.863     0.415  80.25  24
       233    325.6281    380.1521 300.1481894 +22.5729046     659.1729     72.31938      1.361     2.66     4.621802      20.3983     86.20435        10     0.890     0.729  16.65   0
       234    236.1558    377.2075 300.1213306 +22.5452358     225.4062     72.31938      1.390     4.34     4.499064      20.3983     26.83219         5     0.755     0.711 -34.95   0
       235    183.1952    373.4080 300.1061046 +22.5282657     439.3824     72.15349      1.495     4.29     4.581444      20.3983     48.44945        10     1.147     0.653  35.36   0
       236    870.5692    372.9972 300.3201518 +22.7341180     315.8406     72.26413      1.392     2.05     4.497664      20.3983     50.53889         6     0.730     0.495  88.12   0
       237     30.5500    371.1188 300.0594305 +22.4818311     1508.321     72.31938      1.738     3.48     4.462777      20.3983       138.21        25     1.309     1.106  21.87   0
       238    814.9547    369.9059 300.3038237 +22.7165755     1118.223     72.31938      1.410     3.35      4.46914      20.3983     131.5001        16     1.144     0.797  80.09   0
       239    724.6339    371.2037 300.2752645 +22.6898973     482.5614     72.30097      1.276     2.49     4.551149      20.3983     69.37715         9     0.862     0.639  17.42   0
       240    517.4365    367.1819 300.2120622 +22.6266679     6117.633     72.30097      1.317     2.39     4.595768      20.3983     737.1449        33     1.196     1.014  62.92   0
       241   1006.7357    362.1739 300.3661156 +22.7717743     530.5551     72.28255      1.288     3.93     4.629012      20.3983     62.38508        12     1.168     0.732  27.51   0
       242    909.5641    361.6958 300.3359737 +22.7425458      1332.74     72.30097      1.322     2.43     4.523877      20.3983     175.4614        16     0.991     0.880   8.35   0
       243      8.3055    356.3256 300.0573228 +22.4709153     433.1943     72.44814      1.549     4.76     4.430526      20.3983     48.26743         8     1.094     0.656 -78.97   0
       244    501.9437    355.6430 300.2109851 +22.6187117     438.2804     72.28255      1.370     4.77     4.592607      20.3983     51.77518         9     1.088     0.607  62.97   0
       245    584.6161    353.7930 300.2373153 +22.6429513      475.743     72.22726      1.499     2.76     4.610954      20.3983     61.47224         7     0.894     0.523  33.83   0
       246     28.8328    352.6668 300.0648838 +22.4760226     1197.146     72.30097      1.701     3.96     4.459654      20.3983     100.4066        18     1.316     0.890  25.00   0
       247    863.0351    352.4165 300.3244819 +22.7259470     368.4188     72.30097      1.416     4.11     4.499875      20.3983     39.28205         5     0.819     0.588  86.38   0
       248    565.1153    351.4455 300.2320070 +22.6364344     177.8885     72.28255      1.408     4.03      4.60443      20.3983     44.63264         5     0.777     0.597  74.37   0
       249    882.5457    349.3314 300.3315639 +22.7309022     527.0449     72.33779      1.337     3.50     4.475109      20.3983     66.43964        11     0.952     0.901  21.17   0
       250    405.0297    346.3471 300.1838506 +22.5869993     2616.988     72.30097      1.382     2.55     4.580081      20.3983     300.7164        24     1.101     0.990  50.07   0
       251    123.3691    343.6888 300.0971589 +22.5017980     1084.297     72.28255      1.533     3.19     4.595476      20.3983      126.873        17     1.073     1.004  68.03   0
       252    752.2149    341.3689 300.2935364 +22.6895857      243.373     72.30097      1.243     3.49     4.538857      20.3983     39.82882         5     0.765     0.459  14.03   0
       253    374.3443    335.7963 300.1777298 +22.5747732     29604.08     72.26413      1.411     2.47     4.549912      20.3983     3722.994        69     1.353     1.161  56.58   0
       254    352.4408    339.3145 300.1697768 +22.5692183     203.0425     72.28255      1.251     3.46     4.568783      20.3983     33.21017         5     0.779     0.445  69.84   0
       255    908.9772    333.4793 300.3449461 +22.7342595     1408.041      72.2457      1.364     2.34     4.317128      20.3983     196.5627        19     1.087     0.941 -81.99   0
       256    864.1603    331.2294 300.3317069 +22.7201944     176.3074     72.30097      1.310     4.45     4.289539      20.3983     33.36184         7     1.029     0.546  73.98   0
       257     70.6756    323.5782 300.0873151 +22.4802258     5021.139     72.28255      1.605     3.02     4.653311      20.3983     536.3502        37     1.383     1.176  51.09   0
       258    824.5016    322.1866 300.3222816 +22.7057205     463.8023     72.20883      1.349     3.79     4.402319      20.3983     56.42347        11     0.952     0.889  77.40   0
       259    248.0583    322.1986 300.1428769 +22.5330154     427.1178      72.2457      1.407     2.94     4.521354      20.3983     57.52499         9     0.843     0.763 -32.65   0
       260    472.7892    321.0147 300.2131482 +22.6000309     556.8639     72.20883      1.315     2.86     4.473618      20.3983     73.32183         9     0.926     0.634  59.55   0
       261    784.7112    315.5246 300.3120449 +22.6918907     2008.902     72.42976      1.333     2.41     4.534322      20.3983     270.0663        18     1.005     0.910  50.43   0
       262    592.7886    310.1216 300.2540277 +22.6328550     349.3185     72.28255      1.306     2.24     4.481601      20.3983     55.60786         6     0.714     0.545 -54.08   0
       263   1000.0115    308.4205 300.3814593 +22.7543069     627.8323     72.28255      1.426     2.77     4.674133      20.3983      71.7835        10     0.874     0.731  79.03   0
       264    446.5434    300.2719 300.2117116 +22.5862093     2085.239     72.31938      1.465     3.19     4.382162      20.3983     269.5776        24     1.254     1.025  75.96   0
       265    185.6385    299.7299 300.1307661 +22.5078531     271.2882     72.26413      1.367     3.51     4.505138      20.3983     32.65629         5     0.778     0.457  76.26   0
       266    658.7170    298.8223 300.2782195 +22.6493574     311.8618     72.26413      1.061     2.94     4.555387      20.3983     59.09269         7     0.849     0.565  10.60   0
       267    885.8228    293.0253 300.3508528 +22.7156986     628.3611     72.26413      1.314     3.97     3.899642      20.3983     89.53554        12     1.160     0.831  55.37   0
       268    878.4352    294.1713 300.3481784 +22.7138163     249.3659     72.31938      1.106     3.40     3.909711      20.3983     47.09762         5     0.963     0.361   7.03   0
       269     17.9104    291.3783 300.0813732 +22.4551630     721.0829     72.22726      2.205     7.29     5.381088      20.3983     65.34658        15     1.705     0.872 -30.76   0
       270    767.7912    290.8983 300.3147623 +22.6797467     381.4421     72.17194      1.258     2.51     4.545166      20.3983     69.88452         7     0.726     0.621  19.94   0
       271    522.3569    279.5453 300.2420241 +22.6029718     1209.759     72.31938      1.348     2.37     4.415483      20.3983     160.2406        14     0.910     0.833  58.52   0
       272    329.2802    279.7823 300.1818863 +22.5451843     356.2725     72.30097      1.285     3.08     4.484964      20.3983     53.01261         6     0.765     0.641  47.30   0
       273     94.9320    280.4640 300.1088338 +22.4751278     367.0936     72.35619      1.547     4.02     4.566232      20.3983     41.07531         6     0.979     0.496   3.76   0
       274    905.9825    273.1049 300.3635985 +22.7160071     401.9284     72.22726      1.502     5.07     3.858983      20.3983     39.82755         8     1.144     0.714  12.96   0
       275    767.2283    271.3624 300.3209238 +22.6739636     2149.397     72.30097      1.318     2.51     4.538456      20.3983      291.768        22     1.052     0.964  76.67   0
       276    575.2164    264.2585 300.2634344 +22.6144156      208.452     72.26413      1.258     4.15     4.414892      20.3983     34.93946         6     0.908     0.619 -69.88   0
       277      1.5947    256.8910 300.0874920 +22.4403748     37412.48     57.71818      1.135     2.64     5.405564      20.3983     7920.681        56     1.411     0.819  89.12  24
       278    475.5518    255.0242 300.2354128 +22.5819056     702.7379     72.30097      1.349     2.95     4.335104      20.3983     85.73144        13     1.059     0.759  69.48   0
       279    150.6261    249.4812 300.1361841 +22.4829339     1528.279     72.28255      1.810     4.76     4.622644      20.3983     130.1775        25     1.496     1.150 -24.73   0
       280    181.0513    249.3734 300.1456728 +22.4920239     609.0907     72.31938      1.421     3.37     4.558187      20.3983     64.32491        13     0.992     0.903  35.58   0
       281    887.9508    243.1439 300.3676955 +22.7019957     348.2946     72.33779      1.429     3.32     3.859955      20.3983     46.76727         6     0.869     0.662  50.02   0
       282    234.3674    241.5790 300.1647700 +22.5057683     570.1829     72.30097      1.416     2.71     4.453346      20.3983     73.14944         9     0.851     0.741 -18.76   0
       283     90.1690    238.8044 300.1208647 +22.4617439     333.2931     72.28255      1.612     3.96     4.695745      20.3983     33.25377         5     1.006     0.447 -45.60   0
       284    910.4440    235.1806 300.3772897 +22.7064393     322.1873     72.31938      1.269     3.32     3.860214      20.3983     43.32149         7     0.813     0.646  16.87   0
       285    839.0138    232.8119 300.3557943 +22.6843757      666.326     72.22726      1.328     3.40     4.139518      20.3983     85.36725        11     0.904     0.872  69.19   0
       286    429.4210    232.4526 300.2283811 +22.5616012      427.488     72.30097      1.279     3.29     4.309954      20.3983     57.15575         9     0.966     0.697  26.25   0
       287    929.3948    225.5294 300.3863274 +22.7093367     448.8351     72.26413      1.551     3.92     3.860506      20.3983     48.51548         6     1.079     0.408  53.39   0
       288    937.1176    222.0476 300.3898642 +22.7106470     2151.822     72.31938      1.403     2.61     3.931152      20.3983     256.0584        21     1.113     0.952  43.12   0
       289    355.6542    219.2020 300.2097342 +22.5356925     2085.468      72.2457      1.370     2.41     4.321069      20.3983     253.4942        24     1.084     1.065 -57.41   0
       290    433.3126    214.7672 300.2353266 +22.5576875     1023.612     72.28255      1.612     6.68     4.308567      20.3983     120.6694        16     1.332     0.941 -59.03   0
       291    185.3970    214.8571 300.1582159 +22.4834184     293.7961     72.26413      1.307     3.10     4.573567      20.3983     47.95386         6     0.750     0.623  16.89   0
       292    835.6779    213.7662 300.3609312 +22.6779018     536.0317     72.28255      1.312     2.32     4.232772      20.3983     73.61549         9     0.772     0.717  -9.49   0
       293    942.5830    210.3626 300.3953575 +22.7089228     391.6943     72.30097      1.325     4.09     4.031464      20.3983     43.06597         6     0.870     0.550  51.86   0
       294     31.8416    207.5992 300.1128678 +22.4353001     376.8147     72.30097      1.881     3.47     5.050056      20.3983     40.06447         5     0.973     0.358 -85.53   0
       295    368.2223    206.6771 300.2177040 +22.5358615     299.0519     72.28255      1.859     3.91     4.333426      20.3983     39.51824         5     0.930     0.470 -47.04   0
       296    250.4448    206.5934 300.1811119 +22.5005426     824.8283     72.31938      1.572     2.92     4.563568      20.3983     93.99451        16     0.993     0.966   6.93   0
       297    788.2151    203.3003 300.3495356 +22.6606841     1725.282     72.20883      1.420     2.69      4.54112      20.3983     224.2196        21     1.101     0.992 -83.65   0
       298    853.1387    203.2658 300.3697777 +22.6801100     458.2845     72.33779      1.151     2.07     4.167604      20.3983     88.47968         8     0.754     0.628 -32.39   0
       299    271.8889    199.6555 300.1900274 +22.5049773     472.1813     72.33779      1.175     2.60     4.681492      20.3983     77.05103         9     0.901     0.609 -69.69   0
       300    514.4702    198.6421 300.2658068 +22.5773683     234.9155     72.26413      1.187     5.67      4.37809      20.3983     32.49612         5     1.280     0.707  43.06   0
       301    792.1591    195.0568 300.3534375 +22.6594951     785.4677     72.28255      1.284     2.36     4.546254      20.3983     114.4379        10     0.828     0.725 -84.81   0
       302    712.7291    194.0717 300.3290129 +22.6354306     1109.485      72.3746      1.256     2.53     4.462253      20.3983     161.3638        14     0.979     0.785  67.73   0
       303    534.0220    190.1947 300.2746305 +22.5807979     439.8061     72.28255      1.337     4.38     4.429034      20.3983       46.868         8     1.120     0.547  69.59   0
       304    920.2647    184.6902 300.3967242 +22.6948610     888.5082     72.41138      1.524     2.96     4.144774      20.3983     110.0794        16     1.094     0.917 -80.03   0
       305    908.1999    185.5565 300.3926822 +22.6914991     1563.863     72.28255      1.442     2.65     4.161587      20.3983     190.2655        17     1.036     0.916 -76.58   0
       306    639.0963    185.6654 300.3088082 +22.6109658     1025.403     72.41138      1.337     2.93     4.398736      20.3983     143.6457        14     0.961     0.878  75.16   0
       307     10.2185    174.2685 300.1169592 +22.4192514     315.6018     72.30097      1.415     3.07     5.165999      20.3983     50.85705         5     0.872     0.399  46.23   0
       308     60.2609    171.6574 300.1333463 +22.4335054     509.3931      72.3746      1.867     5.36     4.902322      20.3983     49.68058        12     1.117     1.022  80.35   0
       309    270.7793    168.0041 300.1999443 +22.4955562     716.6102     72.26413      1.477     3.43     4.745359      20.3983     82.49297        12     0.968     0.933 -53.80   0
       310    153.6154    166.8218 300.1639142 +22.4601020     332.8784     72.28255      1.588     4.24     4.557693      20.3983     26.93252         5     0.950     0.540 -40.25   0
       311    132.9974    162.7498 300.1588283 +22.4527529     2231.952     72.30097      1.533     2.67      4.60899      20.3983      251.594        25     1.204     1.092  80.20   0
       312    955.9763    159.9871 300.4158675 +22.6984445     709.4051     72.30096      1.486     3.09     4.288301      20.3983      87.6885        13     1.126     0.701  15.85   0
       313     82.2308    159.8721 300.1439907 +22.4367089     585.7651     72.30097      1.543     4.06     4.787551      20.3983     62.80423         8     0.975     0.699  35.61   0
       314    290.2358    156.0007 300.2098842 +22.4979396     5634.823     72.26413      1.432     2.81     4.845946      20.3983      588.687        32     1.273     1.049  66.35   0
       315    272.1197    157.1138 300.2038914 +22.4928306     322.3163     72.46652      1.304     3.27     4.776282      20.3983     54.32826         7     0.965     0.681  58.95   0
       316     36.3935    152.4194 300.1321703 +22.4208283     245.8533     72.26413      1.437     3.42     4.924141      20.3983     41.42355         5     0.944     0.480  83.40   0
       317     74.3695    150.5715 300.1445638 +22.4316826     1293.538     72.30097      1.563     2.91     4.787986      20.3983     155.9103        19     1.169     0.973  58.56   0
       318    273.8534    146.6489 300.2078228 +22.4903450     560.7217     72.33779      1.375     3.02     4.809061      20.3983     71.62204        11     0.979     0.735  72.90   0
       319    934.4068    137.6931 300.4163702 +22.6855781     3472.912     72.20883      1.449     2.49     4.359576      20.3983     468.1303        29     1.206     1.057  81.41   0
       320    483.9897    133.0184 300.2775971 +22.5493845      663.667     72.26413      1.377     2.47     4.333406      20.3983      93.3749         9     0.802     0.706  34.67   0
       321    236.8488    133.4140 300.2006100 +22.4754554     349.9902     72.31938      1.274     2.28     4.816586      20.3983     45.55175         5     0.713     0.434 -24.38   0
       322    408.3287    124.8573 300.2567038 +22.5243761     749.2703     72.31938      2.280     4.56     4.340902      20.3983     65.44137        11     1.434     0.659 -32.98   2
       323    174.1964    121.8630 300.1848828 +22.4533627     569.5978     72.28255      1.422     3.66     4.971337      20.3983     66.24168        10     0.961     0.758 -42.18   0
       324    535.3113    120.0908 300.2977586 +22.5610410     1648.366     72.46652      1.319     2.66     4.466597      20.3983     204.8744        19     1.051     0.909  88.22   0
       325    463.2848    120.7764 300.2751231 +22.5396656     416.5734     72.28255      1.190     3.37     4.333328      20.3983     68.33582         8     0.960     0.644   8.06   0
       326     71.8762    120.3344 300.1535903 +22.4222555      411.433     72.39299      1.752     5.28     4.646561      20.3983     40.86961         7     1.563     0.504  46.31   0
       327    597.3772    119.1500 300.3173829 +22.5793572     458.8644     72.30097      1.570     4.54     4.411467      20.3983     61.99234         7     0.988     0.604 -33.66   0
       328    278.8647    115.8056 300.2193783 +22.4829889     347.5051     72.26413      1.224     3.30     4.872779      20.3983     55.60493         8     0.838     0.649 -46.23   0
       329    823.5281    109.9711 300.3907964 +22.6444226     317.9523     72.30097      1.382     2.27     4.670309      20.3983     48.31256         6     0.737     0.498  86.89   0
       330    180.6195    105.9843 300.1920252 +22.4507284      145.977     72.28255      1.182     3.87      5.14482      20.3983     26.21836         5     0.886     0.484 -87.56   0
       331    969.3660    104.0642 300.4381712 +22.6863669     395.9058     72.30097      1.512     3.55     4.397673      20.3983     35.16426         7     0.733     0.677  72.29   0
       332    815.6201    100.8851 300.3912773 +22.6394431     405.2336     72.22726      1.317     3.44     4.722713      20.3983     48.31369         5     0.743     0.460  74.59   0
       333    309.2956     99.8689 300.2340046 +22.4875294     6002.218     72.42976      1.474     2.79     4.709259      20.3983     639.6118        35     1.242     1.135  82.17   0
       334    423.4142     99.5903 300.2695860 +22.5216362     200.7627     72.20883      1.502     3.91     4.346801      20.3983     31.23313         5     0.978     0.448 -76.44   0
       335    160.0332     99.2648 300.1878061 +22.4426295     603.5301     72.30097      1.315     3.37     5.247437      20.3983     71.95534        11     1.140     0.597  25.29   0
       336    938.6979     97.6014 300.4307039 +22.6753315     297.1836     72.20883      1.308     2.85     4.476559      20.3983     40.58627         5     0.704     0.469  15.60   0
       337      4.2416     96.3206 300.1403687 +22.3950876     823.6917     69.63682      1.677     3.58     4.057922      20.3983     89.63617        14     1.049     0.927  61.84  16
       338    280.7978     94.1228 300.2270067 +22.4773408     300.9266     72.20883      1.226     4.70     4.876571      20.3983     55.88403         8     1.207     0.588 -48.19   0
       339    325.1732     91.1471 300.2417682 +22.4897812     279.8265     72.31938      1.277     4.18     4.573932      20.3983     46.80864         6     1.079     0.540 -28.24   0
       340     70.9670     90.5841 300.1629498 +22.4134426     491.9069     72.28255      1.601     3.53     4.520658      20.3983     52.56929         8     0.909     0.738 -44.36   0
       341    555.3602     85.2507 300.3152909 +22.5570329     6303.727     72.30097      1.380     2.56     4.457512      20.3983     710.9465        32     1.180     1.044  68.28   0
       342    440.7306     85.1301 300.2796595 +22.5226684     640.1396     72.35619      1.268     2.91     4.348726      20.3983     89.22253        10     0.862     0.806 -72.26   0
       343    612.4534     80.1797 300.3347073 +22.5726710     342.9186     72.28255      1.468     4.43     4.385626      20.3983     37.52177         6     0.948     0.589 -19.41   0
       344    575.3101     79.4470 300.3233816 +22.5613388      222.557     72.28255      1.255     3.48     4.425665      20.3983     34.82954         5     0.747     0.469  16.59   0
       345    807.7968     75.0564 300.3972108 +22.6296746     793.1916     72.26413      1.615     2.87      4.81227      20.3983     82.27887        12     1.050     0.713  74.24   0
       346    748.8860     76.4756 300.3783966 +22.6124501     335.6921     72.41138      1.507     4.09     4.718941      20.3983      38.8494         5     0.908     0.526  48.18   0
       347    900.1487     74.2636 300.4262502 +22.6570841     177.8717     72.35619      1.129     3.27     4.486962      20.3983     64.22102         7     0.892     0.603  -4.09   0
       348    248.3075     69.2118 300.2249797 +22.4604513      496.921      72.2457      1.437     2.74     5.027187      20.3983     60.39082         9     0.846     0.714   4.51   0
       349    683.6984     65.4458 300.3616668 +22.5897655     6209.228     72.31938      1.358     2.34     4.449459      20.3983     824.0665        34     1.186     1.066  64.37   0
       350    606.8673     67.8724 300.3369567 +22.5674610     456.5684     72.33779      1.236     2.64     4.387418      20.3983      58.5229         8     0.770     0.677 -34.65   0
       351    458.4919     64.3634 300.2919153 +22.5220212     1409.854      72.2457      1.357     2.49     4.348726      20.3983     182.2017        20     1.145     0.939  63.92   0
       352    724.8858     62.9006 300.3753198 +22.6013631      883.369     72.46652      1.358     2.65     4.697273      20.3983     109.2238        10     0.846     0.719  82.94   0
       353    794.6417     60.7694 300.3977419 +22.6216291     313.1125     72.33779      1.480     3.35     4.872311      20.3983     41.12889         6     0.735     0.622 -43.23   0
       354    740.7147     58.8945 300.3815488 +22.6049493     634.7776     72.48489      1.392     3.09     4.799367      20.3983     83.27526        11     0.998     0.738  30.57   0
       355    207.5630     57.0875 300.2162444 +22.4447610     654.4384     72.28255      1.419     2.73     5.260324      20.3983     90.04604        13     1.003     0.807 -17.49   0
       356   1010.8854     56.4553 300.4665491 +22.6850933     597.6114      72.3746      1.590     4.62     4.342154      20.3983     64.05781        12     1.276     0.806  66.43   0
       357     54.3617     57.2071 300.1686082 +22.3988834     340.5957     72.31938      1.650     2.35     4.359715      20.3983     47.96035         5     0.805     0.620  45.18   0
       358    779.2150     54.3709 300.3950089 +22.6151721     482.1272     72.31938      1.412     4.00     4.873376      20.3983     73.03555         9     1.129     0.656  62.14   0
       359    742.7703     48.9672 300.3854061 +22.6027102     872.7991     72.31938      1.694     4.49     4.859801      20.3983     97.37173        16     1.513     0.731  54.34   0
       360    727.8784     50.2795 300.3803420 +22.5986301     2727.674     72.42976      1.349     2.37     4.783268      20.3983     349.1883        23     1.111     0.998  77.15   0
       361    368.7699     51.4062 300.2682044 +22.4914250     271.0581     72.30097      1.069     2.70     4.352378      20.3983     56.73656         6     0.826     0.482  42.92   0
       362     21.6042     44.3452 300.1626025 +22.3853724     848.8574     72.28255      1.651     3.26      4.14337      20.3983     92.78297        15     1.070     0.933  73.76   0
       363    814.2692     41.9464 300.4099575 +22.6220903     1497.751     72.31938      1.391     2.58     4.843869      20.3983     190.9179        21     1.088     1.018  64.15   0
       364    752.4919     35.0585 300.3929417 +22.6016207     671.1096     72.35619      1.344     3.82     4.941339      20.3983      82.7558        11     1.093     0.809 -35.03   0
       365    558.0704     34.4762 300.3325884 +22.5432516     985.9338     72.39299      1.356     2.34     4.386932      20.3983     120.5079        14     0.914     0.830 -47.93   0
       366    130.9346     34.1175 300.1998758 +22.4152026     464.7077     72.41138      1.349     2.62     4.966103      20.3983     62.53928        10     0.873     0.723   1.09   0
       367    462.1158     32.5793 300.3033420 +22.5139733     784.1937      72.2457      1.450     2.58     4.348726      20.3983      111.501        13     0.998     0.809  16.40   0
       368    843.9971     31.4664 300.4226175 +22.6279726     512.3724     72.30097      1.526     1.97     4.650499      20.3983     64.59824         6     0.726     0.498  -2.41   0
       369    297.1457   1019.4299 299.9316243 +22.7477285     1012.317     72.31938      3.447    10.63      63.3559      20.3983     41.74448        21     2.265     1.389 -11.03  19
       370    801.1636     23.0552 300.4119951 +22.6127356     558.4921     72.31938      1.456     3.92     4.976878      20.3983      62.7924        10     1.109     0.623  31.85   0
       371     26.1484     23.0893 300.1709005 +22.3806322     358.0024     72.31938      1.366     2.94       4.1506      20.3983      46.7082         5     0.736     0.668 -77.79   0
       372    559.5347     19.8086 300.3377967 +22.5394741     311.4301     72.28255      1.276     3.82     4.369319      20.3983     57.26839         6     0.903     0.488 -47.57   0
       373    655.5328     19.6466 300.3677364 +22.5681673      405.572     72.28255      1.463     3.60     4.385626      20.3983     37.02418         6     0.887     0.476   3.08   0
       374    292.1884   1019.0996 299.9301908 +22.7461456     1042.757     72.20883      2.289     6.99     68.47756      20.3983     56.16843        20     1.567     1.064 -64.85  19
       375    548.8945   1018.6458 300.0101789 +22.8230573     371.1504     72.31938      1.909     4.41     2.931008      20.3983     29.96948         5     1.128     0.490  54.27  16
       376    417.4367   1016.9844 299.9698223 +22.7831333     529.4009     72.30097      1.748     5.75     2.475157      20.3983     43.03575         8     1.233     0.756  64.61  16
       377    609.0643   1010.3256 300.0316130 +22.8387232     2259.527     72.33779      1.874     4.56     3.035088      20.3983     145.9781        31     1.450     1.302 -72.81   0
       378    795.3279   1006.3381 300.0909138 +22.8934471     607.2022     72.33779      1.888     7.54     3.087543      20.3983     46.67221        18     1.388     1.303 -34.35   0
       379    695.5317   1005.5447 300.0600890 +22.8632894     8449.169     72.33779      1.942     4.37     3.030772      20.3983     447.6799        43     1.496     1.394  57.09   3
       380    700.9661   1003.2558 300.0625259 +22.8642628     9630.193     72.31938      2.016     4.69     3.031047      20.3983     555.1653        59     1.648     1.537 -47.97   3
