#   1 NUMBER                 Running object number                                     
#   2 X_IMAGE                Object position along x                                    [pixel]
#   3 Y_IMAGE                Object position along y                                    [pixel]
#   4 ALPHA_J2000            Right ascension of barycenter (J2000)                      [deg]
#   5 DELTA_J2000            Declination of barycenter (J2000)                          [deg]
#   6 FLUX_APER              Flux vector within fixed circular aperture(s)              [count]
#   7 FLUXERR_APER           RMS error vector for aperture flux(es)                     [count]
#   8 FLUX_RADIUS            Fraction-of-light radii                                    [pixel]
#   9 FWHM_IMAGE             FWHM assuming a gaussian core                              [pixel]
#  10 BACKGROUND             Background at centroid position                            [count]
#  11 THRESHOLD              Detection threshold above background                       [count]
#  12 FLUX_MAX               Peak flux above background                                 [count]
#  13 ISOAREA_IMAGE          Isophotal area above Analysis threshold                    [pixel**2]
#  14 A_IMAGE                Profile RMS along major axis                               [pixel]
#  15 B_IMAGE                Profile RMS along minor axis                               [pixel]
#  16 THETA_IMAGE            Position angle (CCW/x)                                     [deg]
#  17 FLAGS                  Extraction flags                                          
         1    685.8787     15.7296 300.3929475 +22.6015374     810.3488     71.94271      1.480     3.31     7.142787     20.26628     98.23915        13     1.074     0.828  86.84   0
         2    491.6096     15.0372 300.3326368 +22.5432077     1123.301     71.83302      1.570     2.82     6.538269     20.26628     118.9667        16     1.035     0.932 -43.78   0
         3    395.5357     13.3287 300.3032721 +22.5139603     718.5229      71.8696      1.452     3.02     6.566324     20.26628     90.79928        13     1.087     0.790  -7.07   0
         4    777.4737     12.2607 300.4226302 +22.6279390     488.6501      71.8696      1.389     3.18     6.908668     20.26628      55.5176         6     0.850     0.571  24.87   0
         5    166.6638      3.1297 300.2353533 +22.4425032     3718.555     65.03423      1.629     3.24     6.660589     20.26628     352.0971        32     1.366     1.163   6.78  24
         6    735.0456      4.1337 300.4120323 +22.6129095     504.8007     68.80512      1.353     2.35      7.27849     20.26628      75.8751         9     0.776     0.710  36.57  16
         7    492.3616      1.1784 300.3373601 +22.5394475     210.7709     55.00493      1.510     3.51     6.620448     20.26628     40.41895         5     0.946     0.375  -4.93  24
         8    128.9135   1005.3239 299.8983392 +22.7188410     859.0458     71.96098      2.464     8.98     89.79548     20.26628     59.09704        17     2.283     0.985  14.89   3
         9     80.9573   1009.9556 299.8819240 +22.7057752     5292.569     71.90617     15.757    99.68     78.34769     20.26628     170.8419      2377    19.369    15.844  59.31  27
        10    158.9900    969.2657 299.9194178 +22.7175290     1245.035     71.79641      5.687     9.72     56.90523     20.26628     46.62184        24     2.525     1.044 -88.65   3
        11    163.3693    977.8495 299.9179882 +22.7213043     2081.807      71.8696      5.680    17.31     64.97054     20.26628     54.96492        74     3.443     2.419  64.86   3
        12    161.9068    972.0000 299.9194357 +22.7191882     867.4418     71.70482      2.893     3.69     59.56072     20.26628     50.65394         5     1.073     0.365  -0.70   3
        13    729.5963    988.0287 300.0909754 +22.8940474     737.9085     71.79641      2.116     6.98     4.415065     20.26628     48.35158        12     1.368     1.000  10.74   2
        14    195.2586    985.4327 299.9254393 +22.7330479     3841.525     71.85131      7.323    21.80      69.1171     20.26628     81.02296       241     4.932     4.547  81.43   3
        15    492.4461    976.1797 300.0209376 +22.8195444     373.2456     71.88789      1.742     5.18     4.218405     20.26628     32.37033         5     1.030     0.737 -15.00   0
        16    919.5264    971.6984 300.1555211 +22.9462781     511.6125     71.97924      2.225     7.47     4.137918     20.26628     40.44186        11     2.384     0.655 -69.27   2
        17    923.0522    971.7235 300.1566131 +22.9473417     393.8156     71.83302      1.645     7.43     4.128483     20.26628     36.32215         9     1.508     1.026 -79.38   3
        18    727.1481   1013.6319 300.0818842 +22.9006633     243.2874     71.85131      1.751     3.89     4.555451     20.26628     37.99551         5     0.902     0.480   3.80   0
        19    194.1467   1005.9911 299.9184072 +22.7386090     851.4714     71.83302      2.609     6.88     89.15187     20.26628     37.06196        14     1.514     0.878 -16.18   2
        20    214.3150    985.0438 299.9314928 +22.7386546     4615.919     71.79641      8.461    26.66     67.77256     20.26628     90.51585       377     6.612     4.645 -43.73  19
        21    140.9883    955.2474 299.9183787 +22.7081075     2051.401     71.85131     14.458    18.71     44.11457     20.26628     70.79814        80     3.532     2.753  20.34   3
        22    131.4808    956.2504 299.9150964 +22.7055420     749.0048     71.85131      3.224     2.80     45.02819     20.26628     39.87786         5     0.725     0.438 -65.35   1
        23    232.5266    972.5611 299.9412169 +22.7405395     6935.485     71.81471      8.140    32.68     49.00114     20.26628     149.4118       711    10.286     5.072  60.92  18
        24    526.4255    947.8966 300.0407182 +22.8216179     468.3526      71.7781      1.596     5.90     4.218405     20.26628     46.68645         9     1.268     0.773   7.28   0
        25    555.4362    944.0891 300.0509928 +22.8292237     1609.117     71.81471      2.035     4.83     4.271111     20.26628     95.05143        28     1.404     1.328  -5.21   0
        26    541.9433    990.9055 300.0315643 +22.8386129     2331.257     71.88789      2.052     5.20     4.218405     20.26628     138.5891        33     1.553     1.359 -15.89   0
        27    628.6894    986.4317 300.0600448 +22.8633390     8740.611     71.79641      2.100     5.17     4.793614     20.26628     479.9227        54     1.699     1.529  36.35   3
        28    449.2180    940.5501 300.0190635 +22.7963575     1025.177     71.83302      1.975     4.72     4.316517     20.26628      80.1834        19     1.267     1.191  36.69   0
        29    380.5738    938.5242 299.9983523 +22.7751890     5064.426     71.85131      1.699     3.99     4.517971     20.26628     464.6155        29     1.512     1.015  89.72   3
        30    378.0000    938.9876 299.9974005 +22.7745500     2432.771     71.63147      1.585     5.77     4.526014     20.26628     237.6113        18     1.609     0.726 -86.89   3
        31    733.0043    941.3266 300.1072265 +22.8816613     314.7785      71.7781      1.702     5.75      4.18747     20.26628     29.47769         6     1.102     0.843  86.63   0
        32    646.8776    953.2983 300.0764884 +22.8592816     6796.625     71.96098      2.041     4.98     4.588848     20.26628     382.5872        48     1.584     1.499  24.70   0
        33    152.7826    931.7745 299.9296784 +22.7049162      419.226     71.85131      3.726     5.40     23.10136     20.26628     27.82879         5     1.199     0.687  10.74   0
        34    168.4554    990.7437 299.9153765 +22.7265276     2222.987     71.88789      6.169    22.48     76.55663     20.26628      63.3602        95     4.890     2.869 -51.38   3
        35    413.0058    925.4691 300.0126931 +22.7811705     444.6082     71.79641      1.550     3.26     4.472648     20.26628     48.27705         6     1.066     0.341  50.04   0
        36    926.2032    917.5403 300.1752171 +22.9327232      2130.24     71.81471      2.030     5.21     4.220922     20.26628     102.6636        31     1.451     1.388  57.51   0
        37    169.9041    998.9732 299.9131505 +22.7293219     1525.698      71.7781      3.983    12.34     83.81834     20.26628     71.60594        35     3.763     1.127  -5.57   3
        38    609.2466    911.6762 300.0782967 +22.8360532     166.9619     71.83302      1.023     3.62     4.460217     20.26628     33.77513         5     0.845     0.610 -44.38   0
        39    715.3134    906.2686 300.1131113 +22.8662936     878.3767     71.94271      2.203     5.32     4.258202     20.26628     52.82287        20     1.393     1.091  49.20   0
        40    749.8773    900.4225 300.1257875 +22.8749737      1122.73     71.81471      1.948     5.18     4.207386     20.26628     76.73637        22     1.266     1.234  56.24   0
        41    527.5063    900.6870 300.0564053 +22.8083934     470.1189     72.01575      1.982     4.82     4.327234     20.26628     36.36082         6     0.968     0.680 -69.69   0
        42    165.0305    996.8572 299.9123232 +22.7272527     2410.637     71.85131      4.193    25.35     82.25736     20.26628      62.4608       105     6.615     2.697  42.31  19
        43    772.0980    894.0974 300.1347722 +22.8798164     11438.94       72.034      1.945     4.54     4.223138     20.26628     706.2999        53     1.523     1.480  -6.45   0
        44    963.1288    893.7267 300.1944826 +22.9369442      502.916     71.90617      2.283     7.39     4.666468     20.26628      34.9957         9     1.433     1.068  51.17   0
        45    194.1701    891.6696 299.9555881 +22.7058330     584.9519     71.83302      4.607     4.98     11.10552     20.26628     27.17904         5     1.069     0.658 -61.07   0
        46    193.0542   1001.2060 299.9196238 +22.7369092     1221.561     71.81471      3.492     8.87     84.45134     20.26628     44.35682        16     1.933     1.135 -82.04   3
        47     84.4517    885.8626 299.9233600 +22.6712473     1255.007     71.88789      6.109     8.96     9.315645     20.26628     50.97264        20     2.065     1.118  72.99   3
        48    905.0449    888.0015 300.1782202 +22.9178996     277.1821     71.83302      1.547     5.50     4.383873     20.26628     27.48675         6     1.207     0.708  21.61   0
        49    477.7260    881.5675 300.0471177 +22.7879806     450.2956     71.83302      1.884     4.06     4.497377     20.26628     49.51897         9     0.995     0.697  46.93   0
        50    780.4456    876.3408 300.1431482 +22.8772187      1479.57      71.8696      1.894     4.97     4.285969     20.26628     91.41922        25     1.435     1.193  28.63   0
        51     74.5973    876.4910 299.9233430 +22.6656031      636.845     71.74147      3.118     4.27     7.052058     20.26628     31.51079         5     1.061     0.490  89.83   0
        52    818.9760    893.9360 300.1494432 +22.8938171     575.4543     71.81471      2.091     5.44     4.242357     20.26628     40.06074         8     1.283     0.651 -88.78   0
        53    632.5472    873.8714 300.0978483 +22.8321852     480.2499     71.81471      1.636     4.51     4.400805     20.26628     37.24314         7     1.268     0.457 -19.62   0
        54    224.5207    999.7579 299.9298817 +22.7459362     525.5035     71.81471      1.528     8.10      81.7762     20.26628     64.13244        14     1.579     1.163  33.56   0
        55    818.4393    869.6075 300.1571854 +22.8866693     859.6011      71.8696      2.857     7.21     4.334929     20.26628     49.66712        16     1.535     0.948  42.23   0
        56    350.9642    996.2036 299.9703789 +22.7828531     580.4458     71.85131      2.039     3.14     4.636351     20.26628     34.43604         4     1.013     0.284  51.09   2
        57    867.1189    860.7258 300.1752562 +22.8987029     616.5631     71.94271      1.898     6.69     4.453619     20.26628     45.92637        13     1.301     0.965  17.34   0
        58    718.5714    859.8874 300.1292061 +22.8539524     785.4011     71.83302      1.847     5.54      4.33585     20.26628      48.2737        16     1.251     1.134 -16.10   0
        59    431.1170    856.0718 300.0408930 +22.7666884     4322.502     71.96098      1.844     3.87     4.646767     20.26628     338.3622        39     1.460     1.322 -10.97   0
        60    730.0589    856.9893 300.1337294 +22.8565627     643.6084      71.7781      1.933     6.14     4.342948     20.26628     40.23536        14     1.240     0.999 -19.83   0
        61   1020.3242    855.6944 300.2246987 +22.9431482     279.7869     70.54062      1.723     4.73     5.424319     20.26628     30.34665         5     1.358     0.467 -45.53  16
        62    210.0923    843.9890 299.9760393 +22.6969337     342.7929      71.7781      1.776     3.86     6.164992     20.26628     35.83544         5     0.836     0.510 -29.53   0
        63     73.9888    843.4213 299.9339028 +22.6559379     415.7319     71.81471      2.256     5.88     5.334941     20.26628     36.76963         7     1.260     0.773 -25.03   0
        64    157.3147    841.8539 299.9603192 +22.6804886     864.5154     71.88789      2.142     4.48     7.813926     20.26628     61.78413        10     1.282     0.663  76.83   2
        65    133.3252    838.7734 299.9538608 +22.6724080     1676.627     71.83302      2.075     4.68     6.721872     20.26628     125.3256        28     1.418     1.364  34.29   0
        66   1005.3115    828.3492 300.2289019 +22.9307945     2032.395     71.83302      2.004     5.36     5.273269     20.26628     123.8619        33     1.602     1.335  52.34   0
        67    959.4866    826.7097 300.2151329 +22.9165992     2310.151      71.9975      2.057     4.78     4.896669     20.26628     125.4106        37     1.602     1.414  39.94   0
        68    665.0016    827.2139 300.1231291 +22.8285163     422.4317     71.66815      1.813     4.85     4.399551     20.26628     32.14671         9     1.111     0.601  -0.46   0
        69    742.9575    820.6808 300.1495529 +22.8500009     590.4044     71.81471      1.641     4.18     4.430815     20.26628     67.24267        14     1.264     0.906 -34.99   0
        70    611.1265    814.3475 300.1105220 +22.8086755     4916.235     71.85131      1.746     3.57     4.483917     20.26628     437.0428        40     1.394     1.301 -10.97   0
        71    101.1860    814.7618 299.9516719 +22.6558792     493.9447     71.85131      2.008     5.26     5.332592     20.26628     33.29166         8     1.656     0.472  51.79   0
        72    413.1407    811.2771 300.0498558 +22.7484431     755.1647     71.88789      1.735     4.62     4.954136     20.26628     62.64064        16     1.205     1.054  32.89   0
        73    161.2685    807.9758 299.9725590 +22.6719577     1366.673     71.83302      1.953     4.62     5.694034     20.26628     109.4104        23     1.327     1.210 -40.24   0
        74    631.4870    806.7857 300.1193241 +22.8126066     720.7478      71.7781      1.709     4.92      4.46923     20.26628     56.57153        15     1.154     0.957   0.94   0
        75    787.2273    794.0795 300.1720021 +22.8556246     4317.221     71.85131      1.814     3.83     4.567515     20.26628     320.6445        36     1.385     1.325  11.98   0
        76   1004.1701    794.3994 300.2395804 +22.9206969      1183.83     71.79641      1.891     5.08     5.245055     20.26628     86.14536        22     1.284     1.220  54.65   0
        77    195.6752    788.6198 299.9895495 +22.6767261     434.5926     71.83302      1.627     5.09     5.199929     20.26628     48.61218         8     1.250     0.615 -10.50   0
        78    504.4581    786.3739 300.0863838 +22.7686720     535.1163     71.83302      1.760     5.74     4.893351     20.26628     46.83938         9     1.205     0.769  54.07   0
        79    150.7526    784.1898 299.9770183 +22.6619804     1093.657     71.85131      1.861     4.37     5.148382     20.26628     88.42989        20     1.292     1.152 -79.52   0
        80    565.3893    780.1948 300.1073713 +22.7851617      474.239     71.68649      1.800     5.29     4.769394     20.26628     45.02331        10     1.125     0.939  18.18   0
        81    300.1564    776.4385 300.0260115 +22.7045666     54043.71     71.92444      1.821     3.67     5.200414     20.26628      5067.06       102     1.568     1.511  26.44   0
        82    683.2778    779.6143 300.1442954 +22.8203245     804.1711     71.85131      0.777     0.88     4.562795     20.26628     319.3809         6     0.588     0.474 -54.12   0
        83    558.1652    775.8295 300.1065393 +22.7817431     1620.714     71.85131      1.650     3.44     4.800594     20.26628     136.2411        24     1.213     1.191 -40.25   0
        84    970.9244    775.2801 300.2354178 +22.9052467     871.0355     71.94271      1.967     5.21     5.029957     20.26628     62.80157        17     1.295     1.082  -9.29   0
        85    228.5696    774.6740 300.0043128 +22.6825914     420.9816     71.85131      1.767     5.32     5.225118     20.26628     36.48575         8     1.008     0.793   7.96   0
        86    587.1623    771.4757 300.1169879 +22.7891839     963.1844      71.7781      1.652     3.74      4.72136     20.26628     97.21739        15     1.205     0.861  78.89   0
        87    597.9323    770.1248 300.1207825 +22.7920237      576.704     71.90617      1.616     5.51      4.69299     20.26628     49.15218        14     1.282     0.803 -29.58   0
        88    703.5051    766.2704 300.1549366 +22.8225531     316.7518     71.94271      1.537     5.50     4.691827     20.26628     36.57759        10     1.174     0.726  -3.06   0
        89    740.9936    756.8344 300.1696897 +22.8310750     778.1753     71.83302      1.574     4.23     4.829223     20.26628     67.43071        14     1.171     0.844  -5.32   0
        90    349.8988    753.6901 300.0488831 +22.7129541     31620.74      71.9975      1.747     3.65     5.042066     20.26628      2820.14        78     1.493     1.450 -24.63   0
        91    364.1082    754.2615 300.0531201 +22.7173785     1968.946     71.92444      1.825     3.55     5.029738     20.26628     170.2498        26     1.306     1.186  57.79   0
        92    873.0991    749.9457 300.2131270 +22.8686692     2907.382     71.92444      1.784     3.95     4.723573     20.26628     188.3824        31     1.384     1.267 -29.84   0
        93    361.1893    748.0941 300.0542154 +22.7147333     543.8397      71.7781      1.739     3.92      5.03099     20.26628     49.39146         8     0.839     0.744  72.61   0
        94    630.8338    745.7955 300.1389400 +22.7948974     991.8676     71.83302      1.800     3.96     4.767531     20.26628     75.31274        19     1.174     1.057  -4.09   0
        95    467.2025    745.8506 300.0879491 +22.7458713     431.9991     71.83302      1.710     5.18     5.017128     20.26628      41.9541         7     1.435     0.528  29.44   0
        96    232.4603    744.9401 300.0151840 +22.6752273     953.3339     71.88789      1.968     6.57     5.234171     20.26628     72.39937        21     1.444     1.078  56.62   0
        97    478.1451    740.4772 300.0931026 +22.7476088     873.1647      71.8696      1.573     3.44     5.026851     20.26628     96.81576        16     1.063     0.997   9.80   0
        98    879.4240    737.8146 300.2190419 +22.8670780     456.1326     71.85131      1.831     5.31     4.751806     20.26628     40.18621         9     1.040     0.766 -29.34   0
        99    380.0538    737.3468 300.0635791 +22.7173046      358.781      71.8696      1.562     4.90     5.033283     20.26628     45.25549         8     1.072     0.761 -20.51   0
       100    626.5151    737.4079 300.1403195 +22.7911946     318.9653     71.75979      1.993     5.28     4.818279     20.26628     28.64183         5     1.097     0.718 -28.24   0
       101    424.0101    735.8423 300.0777520 +22.7300505       356.51     71.83302      1.331     4.70     5.036347     20.26628     44.88835         8     0.886     0.708 -21.16   0
       102    336.2629    736.2857 300.0502939 +22.7038707     323.1114     71.94271      1.366     4.01     5.114209     20.26628     50.61161         6     1.287     0.358  12.90   0
       103     65.5647    735.5804 299.9663262 +22.6224827     524.6185     71.85131      1.966     4.74     5.311159     20.26628     47.06128         7     1.258     0.700  -0.92   0
       104    857.0205    732.6926 300.2137174 +22.8588962     402.2581     71.75979      1.452     3.80     4.754152     20.26628     43.88406         7     0.827     0.723  59.38   0
       105    230.1854    729.3821 300.0195309 +22.6700811      540.577     71.79641      1.792     5.91     5.234151     20.26628     43.38625        12     1.309     0.913  23.01   0
       106    553.6041    720.6520 300.1230466 +22.7645334     285.8212     71.83302      1.283     4.34     5.060144     20.26628      39.5131         7     0.901     0.619 -20.51   0
       107    523.1545    719.0597 300.1140790 +22.7549505       684.76     71.85131      1.417     3.78     5.097696     20.26628      69.9329        11     1.021     0.743 -33.06   0
       108    561.1596    718.8649 300.1259810 +22.7662846     334.7605     71.79641      2.103     5.35     5.072093     20.26628     27.80499         5     1.225     0.660 -67.66   0
       109    432.3872    718.0461 300.0861419 +22.7274532     385.6727     71.85131      1.515     5.35     5.091496     20.26628     38.17008         8     1.065     0.758  67.13   0
       110    939.5065    715.1685 300.2451459 +22.8785638     4701.408     71.75979      1.834     3.90     5.004886     20.26628     360.3485        41     1.448     1.349 -73.64   0
       111    544.7649    715.9996 300.1218046 +22.7605485     1460.533     71.79641      1.643     3.88     5.142622     20.26628     116.7551        25     1.276     1.138  22.26   0
       112    464.7947    715.8146 300.0969578 +22.7365269      343.453     71.70482      1.572     4.31     5.097624     20.26628     40.76083         8     1.036     0.905  17.05   0
       113    927.8962    706.5859 300.2443114 +22.8726205     1782.173     71.74147      1.797     3.86     5.008861     20.26628     144.5558        25     1.248     1.194 -23.85   0
       114    290.8380    700.3672 300.0478267 +22.6799425     810.1531      71.8696      1.594     4.66     5.398086     20.26628     88.18962        12     1.102     0.867 -20.65   0
       115    157.2831    701.3950 300.0059480 +22.6401874     245.8935     71.75979      1.515     4.19     5.110054     20.26628     32.24622         5     1.034     0.485   4.03   0
       116    754.2678    697.8388 300.1929962 +22.8181048     2582.246     71.79641      1.689     3.57     5.166398     20.26628     185.1417        32     1.307     1.252   8.90   0
       117    959.1419    696.9405 300.2571953 +22.8792047     1652.972     71.90617      1.752     3.99     5.085639     20.26628     124.4657        23     1.272     1.155  36.20   0
       118    139.5649    684.2469 300.0060082 +22.6299536     674.5596     71.85131      1.759     4.87      5.25793     20.26628     69.39876        13     1.355     0.988 -40.53   0
       119    836.9378    683.8947 300.2233068 +22.8388602     548.2261     71.92444      1.738     5.97     5.211723     20.26628     48.05891        13     1.308     0.922  61.30   0
       120    872.7530    674.8094 300.2374300 +22.8469755     147793.4     71.85131      1.700     3.58     5.348671     20.26628     11191.41       159     1.563     1.513 -51.21   0
       121   1019.6911    676.6252 300.2826933 +22.8914939     1264.306     71.61311      1.822     4.51     5.135709     20.26628     86.23444        23     1.328     1.170  36.62  16
       122    725.1843    674.9669 300.1913586 +22.8028220     668.9254     71.81471      1.604     4.07     5.318825     20.26628     63.01867        14     1.189     0.889  21.64   0
       123    905.6332    668.0592 300.2498807 +22.8548818     406.8355      71.8696      1.472     3.28     5.251096     20.26628     48.53651         6     0.749     0.621  33.40   0
       124    559.0373    663.5871 300.1432764 +22.7497748       1509.1     71.81471      1.505     2.93     5.666436     20.26628     165.4703        18     1.117     0.924 -17.77   0
       125    740.2314    660.8842 300.2006241 +22.8032836     9718.696     71.83302      1.598     3.27      5.39101     20.26628     867.9404        46     1.330     1.274 -78.82   0
       126    241.7116    655.6678 300.0470607 +22.6523844     4796.033     71.96098      1.682     3.60     5.350016     20.26628     450.4615        37     1.356     1.281  44.19   0
       127    323.6140    653.8179 300.0731457 +22.6764088     1081.104     71.79641      1.613     3.94     5.303505     20.26628     111.5439        18     1.153     1.039  73.54   0
       128    199.4397    651.6194 300.0352260 +22.6385474     534.9649      71.8696      1.848     3.97     5.324155     20.26628     50.75794         9     1.075     0.793  54.38   0
       129    531.8702    649.5092 300.1393859 +22.7375912     834.5581      71.9975      1.647     3.91     5.697235     20.26628     86.37759        14     1.006     0.949  -1.54   0
       130    523.6701    641.5876 300.1394044 +22.7328591      3164.33     71.85131      1.529     3.14     5.684387     20.26628     355.6834        25     1.178     1.080  37.12   0
       131    513.9878    635.3843 300.1384033 +22.7281762     1493.951      71.7781      1.566     3.26     5.668419     20.26628     131.6049        20     1.183     0.979  11.26   0
       132    907.2812    633.7393 300.2615422 +22.8455114     577.6621     71.92444      1.930     3.43     5.382249     20.26628     57.97836         9     0.979     0.764 -85.02   0
       133    177.7111    631.1182 300.0351257 +22.6261488     593.2154     71.94271      1.722     3.90     5.424139     20.26628     72.79353        11     1.224     0.754  86.29   0
       134    191.7777    629.9388 300.0398837 +22.6300283     629.1349     71.81471      1.543     3.20     5.428901     20.26628     68.87357        11     1.015     0.938 -39.87   0
       135    960.6498    626.4025 300.2805783 +22.8593812     555.6869     71.83302      1.855     5.83     5.241444     20.26628     44.78255        12     1.168     0.958 -66.99   0
       136    438.6199    625.0159 300.1182995 +22.7026126     1873.774     71.81471      1.579     3.67     5.471289     20.26628     178.1059        26     1.320     1.079  50.99   0
       137    216.9626    626.3205 300.0488924 +22.6365414     567.6028     71.79641      1.776     6.77     5.447946     20.26628     59.92329        12     1.568     0.864  48.32   0
       138    538.1599    625.7510 300.1490610 +22.7326529     385.8681      71.8696      1.390     4.51     5.802327     20.26628     51.54247        11     0.966     0.897  11.55   0
       139   1014.6536    622.9495 300.2985552 +22.8745554     889.0743      71.8696      1.647     5.17     5.247679     20.26628     64.31554        17     1.278     0.997   7.30   0
       140    472.6653    624.2155 300.1291608 +22.7125858      307.137     71.81471      1.357     2.25     5.580625     20.26628      46.6701         5     0.723     0.431 -70.74   0
       141     13.5167    622.0640 299.9870180 +22.5743082       636.28     71.94271      1.914     4.33     5.887604     20.26628     72.71603        10     1.382     0.609 -31.23   0
       142     92.6022    619.7562 300.0123503 +22.5973660     20009.76     71.81471      1.842     3.90      5.84501     20.26628     1657.066        61     1.559     1.438  37.78   0
       143    523.5774    620.5004 300.1462238 +22.7267754     931.5024     71.77811      1.429     2.80      5.77068     20.26628     128.1131        17     1.075     0.940   7.61   0
       144    559.0601    620.0029 300.1574385 +22.7372644     459.4909     71.81471      1.402     3.96     5.801715     20.26628     49.69983         9     0.919     0.763  -8.13   0
       145    941.7524    607.0058 300.2809803 +22.8481479     1136.556     71.81471      1.775     3.53     5.283709     20.26628     95.38194        18     1.192     0.974  17.44   0
       146     38.5773    604.1282 300.0006307 +22.5766795     1532.729      71.8696      2.141     6.15     5.908487     20.26628     91.78777        29     1.698     1.273 -89.06   0
       147    808.8710    604.8176 300.2402367 +22.8077313     473.0727     71.85131      1.500     4.55     5.457972     20.26628      44.6018         9     1.074     0.839  80.05   0
       148    105.4984    604.8503 300.0211999 +22.5969566     300.8013     71.90617      1.103     3.64     5.866328     20.26628     41.01041         6     0.784     0.498 -85.81   0
       149    487.1353    601.1336 300.1411625 +22.7102937     418.8081     71.88789      1.369     3.60     5.778536     20.26628     56.97611         9     0.924     0.811  46.68   0
       150    882.1886    599.8973 300.2647040 +22.8282713      798.079     71.72315      2.379     7.13     5.674139     20.26628     58.13681        17     1.549     0.919  39.25   2
       151    877.8973    600.0000 300.2633319 +22.8270160     349.5172     71.70482      1.622     3.96     5.706179     20.26628     46.71516         5     1.095     0.409  -0.96   3
       152    280.0142    599.7977 300.0771207 +22.6478322     97.22383     71.66815      1.359     4.64     5.501802     20.26628     33.27229         5     0.932     0.655 -28.81   0
       153    637.0539    597.7177 300.1889771 +22.7542298       226.72      71.8696      1.548     4.49     5.703367     20.26628     32.84203         5     1.033     0.554  70.43   0
       154    444.0406    593.1937 300.1303207 +22.6950996     819.2322      71.8696      1.604     3.09     5.667814     20.26628     82.39204        12     1.085     0.793 -55.71   0
       155    591.8363    591.9419 300.1767623 +22.7390245     505.7034     71.83302      1.509     5.38     5.884743     20.26628     47.00462        12     1.228     0.969  88.03   0
       156    609.7850    590.0693 300.1829630 +22.7438637     540.0931     71.85131      1.617     4.63     5.866743     20.26628     64.26048        12     1.302     0.819 -38.09   0
       157    638.8135    590.3748 300.1919098 +22.7526474     492.4124     71.83302      1.549     4.71     5.731656     20.26628     41.75118         8     0.981     0.641   3.58   0
       158    488.1429    589.0590 300.1453970 +22.7071280     943.2128     71.90617      1.691     4.65     5.847539     20.26628     75.57729        17     1.158     1.079  13.98   0
       159    921.8329    584.7960 300.2819769 +22.8358000     3353.035     71.83302      1.673     3.48     5.368701     20.26628     279.2765        31     1.289     1.240 -54.68   0
       160    453.5428    584.6594 300.1360506 +22.6954964     1650.136     71.90617      1.472     2.78     5.752816     20.26628     221.4218        20     1.095     1.012   6.36   0
       161   1019.6967    583.2836 300.3130108 +22.8646607     682.9565     71.81471      1.749     5.75     5.260026     20.26628     48.99312        12     1.245     0.748 -21.68  16
       162    819.2597    582.1266 300.2508450 +22.8043211     408.6294      71.8696      1.709     3.91     5.491753     20.26628     39.15082         5     1.291     0.339 -42.24   0
       163     15.3447    577.9147 300.0019206 +22.5621910     5177.348     71.90617      2.001     4.04     5.895534     20.26628     447.3759        47     1.554     1.479  35.46   0
       164    482.8532    575.6845 300.1480922 +22.7017020     160.8095     71.88789      1.294     4.41     5.907563     20.26628      35.6134         6     0.971     0.569  61.93   0
       165    961.8383    575.1436 300.2975950 +22.8450014     474.0399     71.83302      1.988     4.88     5.311752     20.26628     30.84244         6     1.008     0.670   0.36   0
       166    316.8719    571.1814 300.0978813 +22.6506658     9258.496     71.83302      1.586     3.14     5.472715     20.26628     839.6005        46     1.331     1.306 -14.32   0
       167    439.3723    568.3224 300.1369425 +22.6865585     9150.401     71.85131      1.516     2.87     5.800105     20.26628     1021.528        41     1.278     1.179  56.21   0
       168    685.7742    565.1450 300.2147382 +22.7594652     320.1657     71.85131      1.407     2.47     5.578047     20.26628     53.53878         5     0.878     0.342  45.22   0
       169    851.1914    562.4658 300.2671887 +22.8082315     1928.387     71.79641      1.649     3.38     5.539396     20.26628     182.8608        25     1.223     1.150  49.51   0
       170    935.8151    559.9494 300.2944076 +22.8328431      12675.2     71.85131      1.643     3.41     5.362978     20.26628     1018.186        57     1.409     1.352 -89.77   0
       171    499.9531    557.9333 300.1591811 +22.7017275     11688.19     71.83302      1.493     3.13     6.049731     20.26628     1158.962        44     1.272     1.191  63.77   0
       172    669.6345    554.0770 300.2133009 +22.7514511     569.0397     71.79641      1.497     3.79     5.611151     20.26628     58.84557        10     0.938     0.858  31.14   0
       173    227.3805    553.3882 300.0758130 +22.6187319     1506.258     71.79641      1.724     3.09     5.527004     20.26628     161.1417        20     1.176     1.059  28.28   0
       174    385.0114    552.6970 300.1250908 +22.6657809     383.8684     71.72315      1.680     4.39     5.640944     20.26628     52.73972         7     0.987     0.802 -21.92   0
       175    473.9601    551.1341 300.1532933 +22.6919865     418.7405     71.79641      1.707     4.39     6.017946     20.26628     43.81152         5     0.853     0.642 -38.39   0
       176    774.3690    546.2573 300.2484916 +22.7805701     931.5561     71.85131      1.637     3.38      5.48416     20.26628     78.55392        17     1.129     0.929 -66.53   0
       177    431.5209    546.0500 300.1417286 +22.6778097     4425.445     71.85131      1.526     3.17      5.91072     20.26628      455.314        32     1.325     1.130  30.51   0
       178    409.8134    544.5812 300.1354468 +22.6708830     1238.151     71.79641      1.532     3.21     5.824432     20.26628     122.2949        19     1.139     1.003  55.22   0
       179    164.3413    543.9094 300.0592823 +22.5971122     827.0931     71.90617      1.875     3.55     5.642107     20.26628     94.09001        16     1.181     1.032 -41.19   0
       180    851.5444    541.7563 300.2740225 +22.8023845     1643.802     71.83302      1.680     3.81     5.456675     20.26628     145.2946        22     1.208     1.073 -36.36   0
       181    548.2930    533.7085 300.1821029 +22.7092518     206614.7      71.9975      1.508     2.80       6.2169     20.26628     24361.51       204     1.522     1.444  -7.82   0
       182    732.0671    538.7777 300.2377300 +22.7657530     763.1408     71.83302      1.377     3.08     5.571938     20.26628     89.52766        11     0.915     0.790 -87.74   0
       183    371.7882    539.6125 300.1252223 +22.6580609     317.6723     71.74147      1.260     3.58     5.610062     20.26628     47.22074         7     0.978     0.472  -8.03   0
       184    234.3274    533.4205 300.0844561 +22.6150826     3583.897      71.8696      1.666     3.15     5.533999     20.26628     419.2315        32     1.321     1.213  46.18   0
       185    800.1367    530.2273 300.2617313 +22.7836788     564.5137     71.83302      1.480     3.77     5.416251     20.26628     55.57155         9     1.017     0.596  29.12   0
       186    580.2095    520.5823 300.1963073 +22.7150421     201.0117      71.7781      1.224     3.34     6.180298     20.26628     30.55254         5     0.726     0.467 -16.48   0
       187    438.9019    513.8467 300.1544805 +22.6707729     2794.101      71.8696      1.553     3.13     5.930892     20.26628     280.6703        27     1.211     1.102  73.65   2
       188    283.2544    516.3022 300.1052352 +22.6248338     382.5096     71.92444      1.390     2.98     5.548254     20.26628     49.76274         6     0.813     0.734  30.13   0
       189    850.3759    510.7141 300.2837354 +22.7931115     389.3113     71.79641      1.482     4.13     5.435793     20.26628     41.83198         8     1.027     0.722  33.56   0
       190    755.9979    502.8703 300.2568477 +22.7625996     520.9786      71.7781      1.695     3.83     5.525487     20.26628     51.59885         8     1.032     0.647  50.61   0
       191    835.9315    500.3434 300.2825962 +22.7858059     1784.893     71.85131      1.531     2.93     5.418955     20.26628     181.3363        20     1.103     1.051  54.84   0
       192    707.1571    497.9024 300.2432330 +22.7465467     2672.659     71.83302      1.512     2.97     5.639088     20.26628     259.4367        27     1.140     1.129 -50.52   0
       193     67.3947    497.6779 300.0441443 +22.5547768     244.1309     71.74147      1.544     4.50     5.639307     20.26628     38.58717         5     1.206     0.476  84.34   0
       194    916.8447    495.8209 300.3093067 +22.8087275     265.5095     71.88789      1.361     3.79     5.421868     20.26628     38.10135         5     0.918     0.450  45.71   0
       195    951.4941    495.6803 300.3201647 +22.8190582     442.8122     71.96098      1.448     3.90      5.37105     20.26628     41.55371         6     0.937     0.466  -1.26   0
       196    611.9977    494.6693 300.2146234 +22.7171187     398.7441     71.79641      1.403     3.37      6.07674     20.26628     47.47354         9     0.970     0.616 -49.47   0
       197    494.6977    493.7000 300.1783953 +22.6817030     749.0345       72.034      1.415     2.74     6.089865     20.26628     108.5146        13     0.973     0.852 -72.96   0
       198    964.5616    492.0827 300.3254106 +22.8219349     1304.651     71.79641      1.593     3.63     5.341543     20.26628     118.8577        20     1.263     0.972 -85.96   0
       199    950.3839    491.2925 300.3212424 +22.8174643     900.0771     71.75979      1.923     4.38     5.374368     20.26628     71.68269        15     1.155     1.005  79.19   0
       200    836.1860    490.5859 300.2858427 +22.7830772     2381.267     71.75979      1.806     4.35     5.413229     20.26628     208.7277        32     1.525     1.140  80.86   0
       201    589.5956    488.7231 300.2095730 +22.7087004     510.0895     71.74147      1.394     3.31     6.095299     20.26628     61.82169         9     0.918     0.734 -18.20   2
       202    589.2804    484.8566 300.2107297 +22.7074950     495.8264      71.8696      1.796     3.70     6.086171     20.26628     40.10834         7     0.958     0.755  83.21   3
       203    874.3663    485.5682 300.2993815 +22.7930644     4201.304     71.85131      1.558     2.84     5.429533     20.26628     479.1505        32     1.206     1.184 -81.38   0
       204    428.0655    487.2218 300.1597482 +22.6598791     289.3425     71.81471      1.180     3.50     5.884112     20.26628     49.28069         8     0.821     0.747 -10.09   0
       205    436.0190    484.7480 300.1630275 +22.6615516      140.466     71.81471      0.991     4.20     5.912208     20.26628     32.31976         5     1.020     0.518  39.13   0
       206    612.0272    482.2601 300.2186602 +22.7135620     204.3353     71.85131      1.186     4.33     6.042984     20.26628     31.42918         7     0.774     0.689  -0.73   0
       207    534.7090    481.3365 300.1948708 +22.6901375      336.273     71.92444      1.413     5.18      6.11531     20.26628      44.7313         9     1.174     0.646  53.21   0
       208    966.1469    475.9899 300.3311287 +22.8177818     800.5078     71.83302      1.603     5.03     5.362988     20.26628     61.06791        11     0.914     0.879   4.03   0
       209    106.4493    475.3919 300.0635189 +22.5600901     924.9721     71.83302      1.651     3.69     5.586916     20.26628      104.167        18     1.155     1.114 -56.38   0
       210     99.1045    465.1297 300.0645654 +22.5549426     423.7292     71.94271      1.422     4.85     5.586354     20.26628     56.56546        11     1.192     0.682  60.15   0
       211    962.6978    465.2060 300.3335523 +22.8136485     364.7624     71.72315      1.529     5.91     5.413281     20.26628     37.06178         9     1.231     0.798 -32.99   0
       212    706.8624    460.1373 300.2553982 +22.7356050     517.1721      71.8696      1.373     2.86     5.675522     20.26628     65.87238         8     0.979     0.511 -33.13   0
       213    596.0809    457.7966 300.2216308 +22.7017568     302.1544     71.74147      1.188     2.57      6.02135     20.26628     45.13798         5     0.757     0.492  54.14   0
       214    647.6264    455.8358 300.2383301 +22.7166304     755.8588     71.85131      1.421     3.50     5.873734     20.26628      85.3355        14     1.090     0.851  29.04   0
       215    962.3912    448.3782 300.3389180 +22.8087176     683.8084     71.83302      1.600     3.57     5.481903     20.26628     71.06182        14     1.067     0.966  53.69   0
       216    708.6961    448.1758 300.2598516 +22.7327161     826.0172     71.72315      1.390     3.01     5.677028     20.26628     98.16322        15     1.108     0.834 -41.33   0
       217    865.9255    444.4112 300.3101058 +22.7787048      1100.63     71.85131      1.467     3.17     5.434461     20.26628     112.2219        17     1.087     0.991 -41.02   0
       218    850.2014    440.7795 300.3063792 +22.7729539     649.2661     71.75979      1.477     3.91     5.430724     20.26628     80.33331        14     1.168     0.943 -78.97   0
       219    830.6906    441.5979 300.3000277 +22.7673488     312.1742     71.75979      1.238     3.46     5.425052     20.26628     39.05921         5     0.725     0.481  10.32   0
       220    594.4319    438.6129 300.2273424 +22.6957506     3233.785     71.81471      1.449     2.62     5.980533     20.26628     400.4218        28     1.188     1.086  64.32   0
       221    954.5742    437.6306 300.3399663 +22.8032875     590.6249     71.83302      1.694     2.69     5.507301     20.26628      75.9636        11     0.946     0.809  26.94   0
       222     70.7603    429.6094 300.0672790 +22.5362499     373.4912     71.83302      1.247     2.20     5.531514     20.26628     46.48166         5     0.682     0.465  17.09   0
       223    366.4478    426.1490 300.1603843 +22.6238762     191.3055      71.8696      1.092     3.43     5.819227     20.26628     40.03938         5     0.767     0.444  69.03   0
       224    434.2061    425.3390 300.1817421 +22.6439438     374.6532     71.79641      1.230     3.76     5.807805     20.26628     57.81507         6     0.933     0.436  37.05   0
       225   1005.7715    418.0636 300.3622953 +22.8129806     1176.639     71.83302      1.499     3.61     5.782036     20.26628     122.2386        18     1.167     0.965 -47.91   0
       226    877.8300    418.0967 300.3223587 +22.7747018     521.7777      71.7781      1.470     2.17     5.444511     20.26628     70.28352         8     0.776     0.614  39.80   0
       227    964.1327    416.6971 300.3497424 +22.8001277     888.1375     71.92444      1.544     3.89     5.614284     20.26628      108.015        18     1.228     0.965 -12.75   0
       228    614.3911    414.9635 300.2412356 +22.6949318     270.3751     71.83302      1.242     3.47     5.946426     20.26628     45.64949         7     0.877     0.650  25.59   0
       229    500.8183    413.7452 300.2062482 +22.6605671     387.9608     71.81471      1.363     3.89      5.78719     20.26628      48.4326         6     0.787     0.551  45.67   0
       230    704.9865    412.5226 300.2702645 +22.7213577     998.9512     71.85131      1.435     3.50     5.720403     20.26628     128.6653        15     1.079     0.883  69.57   0
       231    209.2644    410.8717 300.1164295 +22.5723872     645.8751      71.8696      1.496     3.49     5.661642     20.26628      64.4311        11     0.952     0.800 -29.09   0
       232    271.3210    406.2398 300.1372388 +22.5896545     3761.789     71.81471      1.586     3.08      5.79157     20.26628     440.7669        34     1.327     1.171  72.58   0
       233   1004.5532    405.1211 300.3661146 +22.8088934     4235.615     71.83302      1.646     3.34     5.782923     20.26628     416.5171        34     1.341     1.239 -62.76   0
       234    857.0790    405.5803 300.3199465 +22.7648919     2327.253     71.83302      0.647     0.92     5.439009     20.26628     1134.881         7     0.515     0.363 -82.86   0
       235    218.5604    401.0594 300.1225047 +22.5723558     7581.807     71.83302      1.619     3.18     5.734529     20.26628     757.9514        40     1.348     1.243  50.83   0
       236    819.2391    396.7559 300.3110065 +22.7510286     4782.521     71.90617      1.087     4.04     5.439009     20.26628     1353.773        13     0.984     0.475 -14.81   0
       237    359.2946    395.3263 300.1681580 +22.6128800         4983     71.97924      1.522     2.84     5.814167     20.26628     527.6077        36     1.274     1.167  61.75   0
       238    603.5703    392.1871 300.2452536 +22.6851459     18658.46     71.83302      1.443     2.65     5.878088     20.26628     2191.539        51     1.270     1.189  74.65   0
       239    621.1422    392.4861 300.2506323 +22.6904937       898.98     71.94271      2.068     6.85     5.887332     20.26628     65.51208        18     1.731     0.760 -29.27   0
       240    800.5915    382.7529 300.3097337 +22.7414207       338.76     71.85131      1.095     2.76     5.439009     20.26628     64.88473         6     0.903     0.558  52.08   0
       241    984.5211    396.2674 300.3627347 +22.8003529     1944.873     71.94271      1.717     3.22     5.706263     20.26628     184.7686        26     1.343     1.119 -66.06   0
       242    937.2020    375.0838 300.3548397 +22.7801008     833.4381     71.74147      1.682     3.83     5.555536     20.26628     66.31754        12     0.973     0.872 -76.91   0
       243    158.1449    372.2231 300.1130677 +22.5459695     2113.721     71.85131      1.665     3.15     5.584705     20.26628     218.5172        30     1.300     1.270  18.72   0
       244    646.3030    373.3868 300.2646699 +22.6925383     223.9759     71.72315      1.076     3.77     5.884034     20.26628     45.89828         5     0.922     0.442  46.14   0
       245    957.9612    362.2575 300.3654793 +22.7826235      1204.54     71.83302      1.521     3.22     5.633726     20.26628     116.4951        20     1.107     1.069 -38.54   0
       246    544.1743    361.5636 300.2366826 +22.6585585     6718.688     71.85131      1.441     2.61     5.662651     20.26628     808.1953        37     1.210     1.139  58.04   0
       247    259.2347    361.1667 300.1481002 +22.5730887     636.3443     71.90617      1.397     3.10     6.011219     20.26628     71.25262        11     1.032     0.694  -3.46   0
       248    116.6097    354.4333 300.1059219 +22.5284132     457.8031     71.81471      1.551     3.99     5.583739     20.26628     53.64949        10     0.983     0.827   5.83   0
       249    804.2390    353.8452 300.3202494 +22.7342007     363.5663     71.90617      1.244     3.17     5.439009     20.26628     42.94754         8     0.864     0.738 -11.00   0
       250    748.2715    350.7470 300.3038014 +22.7165574     1075.789     71.81471      1.496     4.63     5.684906     20.26628     129.5834        19     1.302     0.982 -48.44   0
       251    657.9369    352.2050 300.2751673 +22.6899332     563.5817     71.79641      1.525     2.54     5.910543     20.26628     59.82428         8     0.766     0.676  43.32   0
       252    450.8271    347.7887 300.2120766 +22.6266432     6099.842     71.83302      1.462     2.85     5.713757     20.26628     770.4216        35     1.233     1.119  68.51   0
       253    940.3303    342.8046 300.3662876 +22.7717527     622.2277     71.79641      1.597     3.24     5.586287     20.26628     67.17776        13     0.997     0.921  34.93   0
       254    842.9507    342.3566 300.3360506 +22.7424833     1387.738      71.8696      1.401     3.02     5.417239     20.26628      174.404        21     1.079     1.055  81.58   0
       255    435.1779    336.7191 300.2107941 +22.6187755     349.0984     71.79641      1.166     2.52       5.7614     20.26628     61.47077         7     0.759     0.604  -3.61   0
       256    518.1185    334.7851 300.2372522 +22.6430601      503.394     71.81471      1.463     3.13     5.615124     20.26628     53.53461         9     0.899     0.658  63.83   0
       257    815.5143    330.0965 300.3314696 +22.7307464     600.1905     72.01575      1.571     3.43     5.378801     20.26628     63.14873        11     0.980     0.901  56.25   0
       258    338.3421    326.9351 300.1838212 +22.5869577     2497.804      71.8696      1.526     2.98      5.88641     20.26628     294.6074        25     1.194     1.138  53.76   0
       259     56.6072    324.3786 300.0970146 +22.5018001     1122.868     71.81471      1.818     4.21      5.96111     20.26628     100.8931        20     1.369     1.009  -0.27   0
       260    686.3513    321.8098 300.2938832 +22.6897023     280.3026     71.85131      1.375     5.18     5.743624     20.26628     34.67253         6     1.129     0.672 -78.47   0
       261    307.7509    316.3926 300.1777195 +22.5747648     30113.56     71.83302      1.561     2.87     5.984891     20.26628     3470.672        67     1.377     1.280  61.13   0
       262    842.4503    314.2509 300.3450109 +22.7342509     1329.627      71.8696      1.443     3.09     5.360901     20.26628     156.9048        16     0.990     0.961  74.47   0
       263    798.1132    312.1990 300.3318475 +22.7203919     355.1266     71.74147      1.354     4.59     5.328032     20.26628     45.03211         8     1.157     0.592  60.92   0
       264      3.9989    304.0156 300.0872660 +22.4801852     5015.191     68.26817      1.847     3.63     6.167621     20.26628     444.8289        38     1.466     1.363  51.27  24
       265    881.6149    303.5055 300.3607138 +22.7428803     344.1672     71.75979      1.527     3.44     5.417292     20.26628      29.5956         5     1.088     0.314 -69.09   0
       266    757.5226    303.3311 300.3220656 +22.7056933     586.7792     71.94271      1.549     3.28     5.435477     20.26628     65.76239        11     1.069     0.717  29.76   0
       267    181.9135    302.7642 300.1429884 +22.5331475     417.4808     71.81471      1.625     4.33     5.952133     20.26628     51.49854         7     1.194     0.567  43.14   0
       268    406.2526    302.0910 300.2130188 +22.6001625     557.0141     71.88789      1.285     2.22     5.832667     20.26628     76.45266         8     0.761     0.648 -32.39   0
       269    718.1926    296.3029 300.3120822 +22.6919004     2092.752     71.72315      1.537     2.86     5.519178     20.26628      241.503        24     1.218     1.017 -88.50   0
       270    526.6471    291.2282 300.2540354 +22.6330964     317.0828     71.85131      1.049     2.42     5.554434     20.26628     49.26736         5     0.712     0.450 -72.91   0
       271    933.2859    289.3588 300.3814244 +22.7542716     499.5815     71.81471      1.347     3.52     5.553175     20.26628     66.40874        12     0.942     0.915 -46.41   0
       272    379.9668    280.7708 300.2117493 +22.5861637     2139.628     71.85131      1.681     3.61     5.853379     20.26628     183.8842        26     1.323     1.100  69.27   0
       273    592.2424    280.0179 300.2781071 +22.6495144     403.4937     71.85131      1.534     4.16     5.219339     20.26628      42.0289         7     0.767     0.653 -68.94   0
       274    819.3627    273.5534 300.3510082 +22.7156375     655.9907      71.8696      1.478     4.35     5.276014     20.26628     76.94598        15     1.308     0.877 -64.60   0
       275    701.2889    271.8461 300.3147436 +22.6798089     444.8157     71.81471      1.722     3.63     5.586965     20.26628     51.54068         6     0.927     0.523 -18.70   0
       276    455.6577    260.1126 300.2420150 +22.6028963     1246.068     71.90617      1.503     3.09     5.803021     20.26628     126.4277        18     1.134     0.910  60.86   0
       277    308.3724    258.8429 300.1965751 +22.5584188     237.6952     71.85131      1.391     3.46     6.014986     20.26628     28.26933         5     0.796     0.434 -71.33   0
       278    967.2980    256.8145 300.4025928 +22.7550845     379.9323     71.72315      1.600     3.82     5.560397     20.26628     45.19908         7     1.004     0.537 -22.31   0
       279    700.7685    252.1322 300.3209739 +22.6739847      2230.06     71.83302      1.419     2.80     5.662081     20.26628     259.8857        24     1.159     1.028  48.97   0
       280    962.0374    246.6855 300.4042354 +22.7505967     3179.351     71.81471      1.599     3.20     5.560757     20.26628     328.6823        33     1.306     1.207 -70.37   0
       281   1023.2969    241.8389 300.4249284 +22.7675263     366.8464      57.9828      1.368     2.39     5.563619     20.26628     50.49952         6     0.720     0.580   9.44  24
       282    409.0143    235.8712 300.2353510 +22.5819618     733.1489     71.83302      1.486     3.13     5.912617     20.26628     91.45674        13     1.052     0.836 -46.22   0
       283     84.1556    230.0866 300.1361533 +22.4829827     1502.237     71.81471      1.781     3.78     5.999765     20.26628      124.966        23     1.373     1.053 -26.80   0
       284    114.5476    230.1432 300.1455847 +22.4921061     667.7893     71.88789      1.622     4.37     5.982831     20.26628     61.42789        11     1.177     0.750  -0.32   0
       285    977.8945    227.2226 300.4154952 +22.7497402      505.067     71.74147      1.546     4.28     5.562322     20.26628     54.87223        13     1.108     0.971 -25.84   0
       286    821.2879    224.0846 300.3676490 +22.7019856     233.4388     71.96098      1.236     2.91     5.287252     20.26628     49.45338         7     0.726     0.664  55.69   0
       287    167.7846    222.1860 300.1647203 +22.5057719     380.4815      71.7781      1.537     3.93     6.035685     20.26628     55.46409         7     0.963     0.535 -29.68   0
       288    844.1760    216.3019 300.3773117 +22.7065952     320.1877     71.75979      1.278     3.28     5.388066     20.26628     41.17361         7     0.860     0.561 -29.88   0
       289    772.4378    213.5872 300.3558172 +22.6843490     642.9323     71.83302      1.441     3.56     5.530096     20.26628     84.62688        14     1.064     0.917  80.79   0
       290    363.0249    213.0910 300.2284189 +22.5616428     381.9477      71.7781      1.424     3.19     6.031338     20.26628     62.51077         8     0.969     0.814 -50.79   0
       291    908.9847    206.7573 300.4006253 +22.7232386     85.67686     71.85131      1.053     4.89     5.601747     20.26628     32.90172         5     1.144     0.591 -88.87   0
       292    870.5838    202.6774 300.3899668 +22.7105768     2163.681     71.83302      1.568     3.17      5.54109     20.26628     230.7475        25     1.201     1.137  44.56   0
       293    366.8196    195.2196 300.2353935 +22.5576437     992.6793     71.83302      1.501     3.59     6.025146     20.26628     96.62128        16     1.100     0.980  -9.31   0
       294    768.8939    194.4328 300.3609217 +22.6777794     578.6418      71.7781      1.589     4.00     5.629465     20.26628     65.78345        10     1.030     0.817  -1.77   0
       295    118.8085    195.3447 300.1581902 +22.4833888     364.7005     71.83302      1.456     4.23     6.120298     20.26628     26.42722         6     1.235     0.413 -31.62   0
       296    288.9473    199.7786 300.2096786 +22.5356311     2199.074     71.83302      1.571     3.17     6.029508     20.26628     220.1496        26     1.216     1.127  55.62   0
       297    301.2840    186.1186 300.2179456 +22.5354013     285.0968     71.96098      1.471     6.70     6.020136     20.26628     29.88605         7     1.287     0.978  70.05   0
       298    183.9633    186.9337 300.1811798 +22.5004931     757.3305     71.83302      1.600     4.78     6.131782     20.26628     74.76763        10     1.331     0.894  40.80   0
       299    721.7594    184.1186 300.3495683 +22.6607084     1717.367     71.79641      1.401     2.91     5.754405     20.26628     196.9882        20     1.103     0.972 -45.80   0
       300    786.9357    183.4344 300.3701134 +22.6800145     713.7905     71.83302      1.838     4.85     5.627694     20.26628     74.08813        15     1.378     1.095 -79.88   0
       301    205.3368    180.4330 300.1899354 +22.5050285       491.67     71.83302      1.447     3.26     6.168612     20.26628     62.92128         7     0.933     0.468 -11.60   0
       302    993.3881    176.8027 300.4366771 +22.7398661     886.9147     71.64981      1.511     3.72     6.318964     20.26628     89.43938        15     1.111     1.028  58.98   0
       303    725.7769    175.8656 300.3534962 +22.6595371     676.2327     71.81471      1.299     2.71     5.752634     20.26628     94.08349        12     0.942     0.797  22.39   0
       304    646.2629    174.7154 300.3290822 +22.6354103     1167.686     71.92444      1.508     2.80     5.696836     20.26628     135.5112        19     1.116     1.034 -49.24   0
       305    495.5890    176.3718 300.2815995 +22.5907839     311.2151     71.83302      1.196     3.71     5.939426     20.26628     40.55852         6     0.832     0.548  42.58   0
       306    467.1969    171.3210 300.2743939 +22.5808317     356.7182     71.74147      1.411     2.30     5.987419     20.26628     52.26093         6     0.832     0.696  -8.24   0
       307    841.6374    166.5587 300.3926452 +22.6915262     1411.615     71.92444      1.460     2.59      5.78887     20.26628     181.6324        18     1.075     0.921  82.45   0
       308    572.5124    166.5288 300.3087533 +22.6109819     851.5191      71.9975      1.399     2.86     5.802221     20.26628     119.3584        14     0.949     0.927   2.33   0
       309    899.4607    165.6281 300.4109864 +22.7085563     365.2813     71.85131      1.594     4.26     5.843018     20.26628     34.63696         6     1.109     0.467 -36.55   0
       310    853.7493    165.7529 300.3966847 +22.6949178     873.1269      71.8696      1.704     3.27      5.81637     20.26628     101.0503        15     1.199     0.842 -14.51   0
       311   1014.7466    156.4888 300.4499290 +22.7404077     1505.395     71.85131      1.536     3.28     6.796791     20.26628     165.7244        23     1.189     1.111  54.04   0
       312    970.3276    155.9704 300.4362319 +22.7269742      1009.63     71.83302      1.488     3.26      6.33526     20.26628     117.0392        18     1.147     1.031   4.46   0
       313    204.3908    148.6044 300.1999570 +22.4956013     762.4069     71.66815      1.686     3.01     6.207579     20.26628     90.04865        14     1.075     0.905 -48.26   0
       314     66.2739    143.2373 300.1587443 +22.4526828     2338.734      71.7781      1.765     3.68     6.462102     20.26628     211.9135        34     1.473     1.312  49.14   0
       315    889.3142    140.4893 300.4159687 +22.6982882     761.8061      71.9975      1.461     4.24     5.972128     20.26628     88.02551        14     1.381     0.746  65.18   0
       316     16.3496    140.3516 300.1441602 +22.4368952     408.7245      71.8696      1.337     3.56     6.561529     20.26628     48.37659         6     0.837     0.531 -40.40   0
       317    223.6969    136.6102 300.2098499 +22.4979382     5796.277     71.74147      1.642     3.13     6.274848     20.26628     665.7665        40     1.378     1.245  59.33   0
       318      7.9693    131.0419 300.1445723 +22.4317105     1243.067      71.8696      1.862     3.84     6.568228     20.26628     124.5783        23     1.461     1.185 -16.90  16
       319    207.2582    127.5901 300.2076590 +22.4904228     617.0937     71.79641      1.607     4.18     6.324981     20.26628     72.03232        12     1.175     0.885 -38.53   0
       320   1022.4803    124.5519 300.4626944 +22.7335286     16343.36     62.24618      1.580     3.40     6.758053     20.26628     1803.674        45     1.503     1.106  79.72  24
       321    867.9932    118.4600 300.4164562 +22.6855721     3568.306     71.79641      1.554     2.96     5.999786     20.26628     444.8386        31     1.350     1.128  85.16   0
       322    971.6806    117.3854 300.4491598 +22.7162747     2685.656     71.81471      1.611     2.87     6.456468     20.26628     304.6799        28     1.260     1.140  86.29   0
       323    417.2483    113.4995 300.2775792 +22.5492568     715.2021      71.8696      1.464     2.83     6.048064     20.26628     91.81099        10     0.961     0.706 -24.44   0
       324    170.7769    114.0708 300.2006922 +22.4756114      238.962     71.85131      1.256     3.80     6.402514     20.26628     39.06074         6     0.945     0.439 -55.18   0
       325    531.9601    111.6746 300.3138970 +22.5830720     406.3376     71.81471      1.406     3.86     6.033369     20.26628     37.67876         7     0.767     0.642 -12.29   0
       326    342.6373    105.2868 300.2570128 +22.5245569     918.7402     71.81471      2.083     7.70     6.093349     20.26628     57.92677        17     2.054     0.807 -17.83   0
       327    468.7036    100.7533 300.2977328 +22.5609969     1693.525     71.85131      1.491     2.76      6.05157     20.26628     200.3696        23     1.197     1.014  75.68   0
       328    396.9285    101.2480 300.2752225 +22.5396515     476.3061     71.81471      1.451     4.10     6.053232     20.26628     56.34544        11     1.004     0.904  68.88   0
       329    107.8474    102.1876 300.1849721 +22.4533470     631.0393     71.83302      1.705     4.24     6.512484     20.26628     75.11845         9     1.188     0.831 -26.92   0
       330    530.5300    100.0592 300.3172153 +22.5793041      321.961      71.8696      1.331     3.77     6.057851     20.26628     47.74881         6     0.851     0.479 -78.43   0
       331    212.3817     96.6036 300.2192936 +22.4830544     392.2233     71.75979      1.213     3.45     6.498403     20.26628     57.65585         5     0.777     0.444 -18.81   0
       332    684.9965     94.8014 300.3670548 +22.6240188     267.9887     71.61311      1.525     3.83     5.944964     20.26628     28.82077         5     0.829     0.507  53.46   0
       333    114.1948     86.5865 300.1920007 +22.4507667     343.2776     71.70482      2.321     3.45     6.546535     20.26628     29.51223         5     0.740     0.466 -16.15   0
       334    902.8361     84.7412 300.4382539 +22.6862910     329.8595     71.85131      1.604     4.95     6.304936     20.26628     33.16802         9     0.923     0.752  76.89   0
       335    647.9388     85.0650 300.3586586 +22.6101298      203.209      71.8696      1.487     3.73      6.05719     20.26628     29.00583         5     1.034     0.387 -32.62   0
       336    242.7312     80.4261 300.2339773 +22.4874952     6094.127     71.83302      1.658     3.11     6.483077     20.26628      694.541        38     1.411     1.198  73.57   0
       337     93.8625     80.2374 300.1877355 +22.4428521     739.5753     71.85131      1.717     3.55     6.581903     20.26628     68.02728        10     1.051     0.688 -34.76   0
       338    872.4431     78.5240 300.4307857 +22.6754118     295.8994     71.81471      1.054     3.62     6.219442     20.26628     48.71798         6     0.901     0.446  16.71   0
       339    214.7374     74.9966 300.2270271 +22.4775514     305.6699     71.83302      1.271     3.17     6.522552     20.26628     56.59032         7     1.094     0.404 -33.94   0
       340    258.7101     71.6439 300.2417943 +22.4897566     271.0814     71.83302      1.293     5.03     6.467047     20.26628     35.78792         7     0.998     0.718 -49.00   0
       341    488.8599     65.8715 300.3153125 +22.5570017     6410.832      71.8696      1.541     3.08     6.240201     20.26628     661.9163        42     1.403     1.215  78.83   0
       342    374.1350     65.8209 300.2796049 +22.5226439     608.3143     71.81471      1.474     2.77     6.243674     20.26628     78.19364         9     0.912     0.628  52.92   0
       343    546.1604     60.9210 300.3347658 +22.5727283      408.905     71.81471      1.747     3.77     6.239181     20.26628       44.591         9     0.990     0.709  -6.61   0
       344      4.9107     71.0617 300.1630558 +22.4135679     307.6946     71.02339      1.345     4.20     7.013535     20.26628     40.13839         6     1.174     0.429 -33.28  16
       345    741.5053     55.5149 300.3974017 +22.6296245     917.9572     72.01575      1.914     3.40     6.559552     20.26628     92.94245        15     1.103     0.992 -42.53   0
       346    833.6763     54.4208 300.4265015 +22.6568810     441.3216     71.83302      1.497     4.71     6.395558     20.26628     62.90567         9     1.368     0.699  65.78   0
       347    182.1355     49.2651 300.2252217 +22.4603937     496.7557     71.88789      1.660     5.06      6.57136     20.26628      54.1097         9     1.099     0.660 -74.54   0
       348    540.2689     48.4805 300.3369608 +22.5673876     471.7681     71.94271      1.318     3.28     6.306622     20.26628     72.72176        10     1.120     0.591   7.93   0
       349    617.2318     46.0272 300.3617363 +22.5897134      6218.87     71.83302      1.505     2.99      6.33741     20.26628     693.9156        36     1.306     1.186 -85.52   0
       350    392.1216     45.0933 300.2919196 +22.5220702     1550.987     71.96098      1.430     2.88     6.371516     20.26628     158.8958        21     1.153     0.999 -89.68   0
       351    658.3622     43.6794 300.3753160 +22.6013450     986.0513     71.79641      1.481     2.98     6.617547     20.26628     115.5416        14     0.969     0.884  30.47   0
       352    674.2521     39.9892 300.3814645 +22.6050377     529.1377     71.83302      1.437     3.56     6.776784     20.26628      70.0799        11     1.008     0.836  70.04   0
       353    944.3622     37.5161 300.4665131 +22.6851180     444.9595     71.81471      1.440     4.25     6.518873     20.26628     58.74894        10     1.107     0.710 -10.02   0
       354    141.0147     36.9935 300.2164073 +22.4445521     674.3304     71.74147      1.791     5.44     6.624658     20.26628     60.75113        15     1.344     1.005 -60.36   0
       355    199.1807     35.9911 300.2348238 +22.4616842     167.8701     71.79641      0.980     3.36     6.577883     20.26628     34.82848         5     0.799     0.497  33.12   0
       356    712.5905     35.4763 300.3948782 +22.6152095      532.019     71.81471      1.327     2.69      6.85693     20.26628     68.56417         8     0.960     0.499   1.21   0
       357    661.4367     31.0250 300.3803738 +22.5986248     2724.133     71.85131      1.481     2.86     6.817533     20.26628     305.1996        29     1.229     1.126  70.56   0
       358    302.2408     31.7370 300.2682685 +22.4913218       382.91     71.81471      1.521     4.93     6.490641     20.26628      37.4658         8     1.097     0.719 -43.93   0
       359    676.2448     29.6453 300.3854366 +22.6026583     923.4283      71.8696      1.841     5.81     6.931839     20.26628     63.72788        20     1.702     0.961  55.69   0
       360    748.0193     22.7884 300.4100350 +22.6221577     1536.978     71.79641      1.489     2.73     6.958083     20.26628     198.4587        19     1.089     0.970  55.02   0
       361    908.9418     21.6171 300.4606104 +22.6699502     293.5068      71.7781      1.535     4.43     6.623333     20.26628     46.16329         5     1.155     0.484   2.45   0
       362    882.0139   1018.1031 300.1287237 +22.9483636     286.8736     71.72315      1.238     4.58     4.370858     20.26628     48.95837         5     1.414     0.421  75.32  16
       363     71.1290    952.0608 299.8976963 +22.6862288     5105.969      71.8696     25.656    96.31     29.65108     20.26628     1328.428      3120    20.257    12.705 -19.03  27
       364     64.1096     15.1370 300.1995737 +22.4152378     559.1933     71.92444      1.597     4.73     7.189242     20.26628     61.90355         9     1.176     0.586 -23.20   0
       365    634.1390    983.8697 300.0625762 +22.8642375      9378.23      71.8696      2.119     5.08     4.781188     20.26628     519.2269        48     1.606     1.492  30.85   3
       366    290.2005   1011.5038 299.9464940 +22.7690116     1211.915     71.70482      2.227     5.92     6.492338     20.26628     70.92327        26     1.679     1.405 -20.50   0
       367     72.1348    916.7499 299.9094899 +22.6764072     4054.009      71.8696     29.505    64.99     12.81649     20.26628     86.48626      1243    14.834     7.901 -21.79  19
       368    125.5990   1007.8910 299.8964738 +22.7185822     991.9279     71.72315      2.587     9.21     92.53633     20.26628     46.61629        21     2.015     1.175   7.97   3
