#   1 NUMBER                 Running object number                                     
#   2 X_IMAGE                Object position along x                                    [pixel]
#   3 Y_IMAGE                Object position along y                                    [pixel]
#   4 ALPHA_J2000            Right ascension of barycenter (J2000)                      [deg]
#   5 DELTA_J2000            Declination of barycenter (J2000)                          [deg]
#   6 FLUX_APER              Flux vector within fixed circular aperture(s)              [count]
#   7 FLUXERR_APER           RMS error vector for aperture flux(es)                     [count]
#   8 FLUX_RADIUS            Fraction-of-light radii                                    [pixel]
#   9 FWHM_IMAGE             FWHM assuming a gaussian core                              [pixel]
#  10 BACKGROUND             Background at centroid position                            [count]
#  11 THRESHOLD              Detection threshold above background                       [count]
#  12 FLUX_MAX               Peak flux above background                                 [count]
#  13 ISOAREA_IMAGE          Isophotal area above Analysis threshold                    [pixel**2]
#  14 A_IMAGE                Profile RMS along major axis                               [pixel]
#  15 B_IMAGE                Profile RMS along minor axis                               [pixel]
#  16 THETA_IMAGE            Position angle (CCW/x)                                     [deg]
#  17 FLAGS                  Extraction flags                                          
         1    220.6268     17.4712 300.2354559 +22.4424851     3780.695     72.18884      1.532     2.58     4.685738     20.37185     496.2873        32     1.336     1.130  34.06   0
         2    336.6860      9.5054 300.2741323 +22.4749629     1120.652     72.39091      1.395     2.70     4.515685     20.37185     143.8285        18     1.120     0.907  86.61   0
         3    781.9848     10.1045 300.4125961 +22.6084534     877.7565     72.13362      1.290     2.78     4.466934     20.37185     110.2108        11     0.975     0.706  -1.39   0
         4    747.6193      9.0991 300.4022116 +22.5978797     473.5561     72.13362      1.858     3.51     4.441581     20.37185     44.21551         5     0.958     0.439  27.89   0
         5    819.8107      5.4296 300.4259019 +22.6184276      710.385     72.20723      1.636     4.97     4.519448     20.37185     58.68552        15     1.270     0.884 -84.07  16
         6    563.5468      7.2809 300.3454601 +22.5422581     357.4672     72.22562      1.549     3.71     4.264026     20.37185      42.5032         6     0.906     0.449  -0.74   0
         7    742.9615      5.0678 300.4020667 +22.5953262      541.601      71.6348      1.476     2.44      4.44417     20.37185     62.75875         5     0.622     0.573   2.56   0
         8    839.8303      1.7487 300.4333359 +22.6233590     1669.186     58.55765      1.130     2.16     4.558971     20.37185      300.588        14     1.046     0.669 -12.34  24
         9    682.7207   1000.5834 300.0599757 +22.8632904     8297.374     72.20723      1.892     4.42     2.371063     20.37185     477.8933        43     1.461     1.396  42.58   3
        10    281.2071   1013.8918 299.9306858 +22.7466281     2098.488      72.1152      5.264    23.19     60.18173     20.37185     76.97635        96     5.912     2.525  -1.74  19
        11    251.6845   1018.7452 299.9199270 +22.7391569     2600.356     72.28075      7.730    29.12     71.34954     20.37185     63.21535       206     5.208     4.520  26.66  27
        12    249.4431    999.8640 299.9253748 +22.7330712     4498.758     72.20723      8.692    21.71     59.52011     20.37185     89.34879       299     5.173     4.809  78.19  19
        13    287.8991    987.7094 299.9412871 +22.7411303     7966.593     72.37257      7.975    30.44     42.57619     20.37185      160.747       705    10.415     4.826  62.77  19
        14    222.8962   1011.0892 299.9134688 +22.7283195     3521.985     72.39091      7.677    28.36      73.2416     20.37185     71.14707       278     6.081     4.215  63.72  19
        15    199.1629   1020.4754 299.9030367 +22.7238846     1101.314     70.30621      3.106     7.72     79.58749     20.37185       40.909        14     1.627     1.025  21.73  26
        16    181.6478   1020.9368 299.8974426 +22.7187580      2071.37     68.95203      3.421    14.81     80.29259     20.37185     53.57219        63     3.220     1.895   0.35  24
        17    132.6123   1013.6057 299.8845895 +22.7019332     5181.203     72.07837     13.272    60.25     63.73377     20.37185     110.3129      1108    13.084     7.700  34.32  27
        18    126.5048    966.5460 299.8980050 +22.6866115     5263.607     72.28075     23.184    81.55     32.53944     20.37185     103.7908      3463    19.338    15.729 -14.44  19
        19    267.7594    999.4508 299.9312040 +22.7384512     5419.776     72.22562      9.351    26.62     54.16128     20.37185     97.37854       462     6.832     5.197 -53.39  19
        20     31.7889    986.6029 299.8620537 +22.6639179     618.7881     72.02307      1.903     6.22     3.456396     20.37185     39.90225        10     1.343     0.838  78.27   0
        21    975.5180    984.3507 300.1565223 +22.9464237     884.8239     72.22562      1.988     6.31     2.387039     20.37185      54.5867        19     1.540     1.147  15.22   0
        22    782.9672   1001.2338 300.0909971 +22.8935416     673.2125     72.28075      1.972     6.51     2.589252     20.37185     45.60336        12     1.199     0.991 -30.05   0
        23      4.1235    972.5425 299.8580362 +22.6515804     1067.248     69.18276      5.377     6.02    -6.669013     20.37185     51.38994        12     1.886     0.910  51.96  26
        24    194.5835    970.0602 299.9180191 +22.7080581     1751.072     72.17043      6.099    14.10     44.33252     20.37185     48.15411        45     2.571     2.152  -3.17   2
        25    126.5474    929.8142 299.9099687 +22.6760954     3960.723       72.244     18.799    50.95     9.942946     20.37185     80.86799       872    11.304     6.372 -32.35   3
        26    215.3578    986.1360 299.9192457 +22.7189032     1601.639     72.20723      6.919    13.49     55.61411     20.37185      51.4902        24     3.533     1.433  36.93   3
        27    701.0768    967.5623 300.0764399 +22.8593197     6759.581     72.18884      1.887     4.07     2.761213     20.37185     413.7412        49     1.537     1.442 -11.26   0
        28      3.5380   1003.5396 299.8477683 +22.6602864     1240.693     67.03795     15.346    23.33    -13.90598     20.37185     39.66766        55     6.129     2.467  79.24  27
        29    852.9501    960.8668 300.1259464 +22.9029381     385.1916     72.18884      2.169     4.77     2.759059     20.37185     26.85912         5     0.988     0.653 -34.24   0
        30    211.5080   1012.8887 299.9093431 +22.7254163     1142.365     72.37257      2.773     7.78      74.6518     20.37185      52.3924        19     2.013     0.840 -56.06  19
        31    609.5581    958.2515 300.0509653 +22.8291986     1427.729     72.20723      1.788     4.34     2.644665     20.37185     101.1331        22     1.218     1.208  19.69   0
        32    581.2960    962.2029 300.0408793 +22.8218547     341.0758      72.1152      1.484     3.01      2.62097     20.37185      42.8656         7     0.819     0.617 -62.60   0
        33    503.3093    954.7626 300.0190226 +22.7963244     928.9236     72.18884      1.644     4.00     2.669901     20.37185     89.40936        17     1.162     1.008  -8.22   0
        34    434.0196    952.7099 299.9981273 +22.7749461     6593.276     72.13362      1.781     3.77     3.005547     20.37185     554.2987        42     1.398     1.370 -22.98   0
        35    167.5973    931.4488 299.9221938 +22.6888878     1456.627     72.20723     12.828    13.46     16.83364     20.37185      43.0789        33     2.625     1.919  57.73   3
        36    466.7610    939.5233 300.0126062 +22.7809875      515.237     72.18884      1.686     5.82     2.866723     20.37185     53.77744        11     1.168     0.816 -59.73   0
        37    980.2674    931.5091 300.1751991 +22.9326730     2336.236     72.33585      2.016     4.74     2.892382     20.37185     118.2705        34     1.497     1.394 -20.14   0
        38    769.5237    920.9329 300.1129383 +22.8664612     829.5804     72.29913      2.162     5.63     2.987572     20.37185     54.20848        18     1.540     1.007  68.27   0
        39    804.0173    914.4213 300.1258065 +22.8749338     1012.942     72.18884      1.751     4.40     2.994293     20.37185     67.33567        20     1.267     1.055 -40.50   0
        40    581.1549    915.5323 300.0560203 +22.8084212     340.5414     72.18884      1.580     3.94     3.000968     20.37185       45.295         5     0.894     0.498   2.22   0
        41      9.0599   1021.5605 299.8436187 +22.6671083     1232.358     66.66048      7.710    11.53    -14.28458     20.37185     37.41562        23     2.106     1.759  53.02  27
        42     14.1203    911.7870 299.8809064 +22.6371717     542.5744     72.18884      2.070     4.79     3.641238     20.37185     45.15891         8     1.113     0.660  -6.43   0
        43    826.2483    908.2418 300.1347460 +22.8798245     11477.41     72.22562      1.779     3.90     3.014315     20.37185     724.4911        55     1.465     1.428  -4.22   0
        44   1017.1763    908.2676 300.1942741 +22.9370592     607.4437     72.18884      2.377     4.87     2.921602     20.37185     38.64824         9     1.230     1.001  -8.94  16
        45    871.6797    908.2454 300.1489070 +22.8934449     529.9915     72.18884      1.844     4.78     3.039505     20.37185     48.74177        11     1.227     0.725 -25.66   0
        46    215.6774    992.7531 299.9171918 +22.7208960     2051.138     72.20723      4.383    12.47     60.54981     20.37185     59.60778        50     2.538     1.766 -79.15   3
        47    137.6278    900.3903 299.9229835 +22.6709871     1178.224     72.20723      4.121     4.79       7.8366     20.37185     74.02087        19     1.352     1.133 -38.21   0
        48    877.9888    895.9744 300.1548661 +22.8918126     501.5312     72.20722      1.661     5.40     3.014232     20.37185     39.74159        10     1.302     0.631 -19.85   0
        49    532.5244    896.2576 300.0471507 +22.7883036     540.6337       72.244      2.195     4.05     3.074491     20.37185      40.4058         6     0.901     0.520  49.29   0
        50    127.7419    891.0898 299.9229367 +22.6653531     712.9836     72.28075      4.910     7.33     6.031425     20.37185     38.57991        10     1.407     1.069 -22.10   0
        51    834.7175    890.3549 300.1432049 +22.8772279     1393.491     72.17043      1.741     4.43      3.00769     20.37185     94.98569        23     1.338     1.134  10.36   0
        52    687.0394    887.6591 300.0980641 +22.8321772     526.0621     72.20723      1.773     4.80      2.88735     20.37185     40.44418         9     0.907     0.733  74.98   0
        53    872.9088    883.9615 300.1571904 +22.8868404     676.2084     72.18883      1.533     5.79      3.00919     20.37185     58.32056        14     1.148     1.024 -49.06   0
        54    921.2360    874.8837 300.1752116 +22.8987187     601.5291     72.18884      1.926     6.35     2.932601     20.37185     32.61147        13     1.214     0.934  20.61   0
        55    772.6385    874.0033 300.1291761 +22.8539226     658.3717       72.244      1.587     3.82     2.941055     20.37185     61.02121        10     1.034     0.789 -79.31   0
        56    784.0269    871.3212 300.1335976 +22.8565668     654.5134     72.20723      1.672     4.96     2.952995     20.37185     60.27427        15     1.287     0.884 -44.56   0
        57    485.2506    870.4254 300.0408388 +22.7667110     4125.659     72.22562      1.595     3.17     2.959443     20.37185     413.0333        31     1.263     1.157 -12.94   0
        58     32.4514    872.1891 299.8994796 +22.6313266     329.9366     72.20723      1.759     3.51     3.649389     20.37185     36.18734         5     0.773     0.460  72.24   0
        59    263.4892    858.9303 299.9755918 +22.6968766      440.122     72.37257      2.128     5.25     4.583927     20.37185     29.96875         6     1.043     0.747  23.44   0
        60    146.8153    858.8365 299.9393541 +22.6618318     462.1489     72.20723      1.592     5.78     3.619783     20.37185     42.46973        11     1.059     0.920 -41.56   0
        61    210.5667    855.8141 299.9601519 +22.6801001     809.0456     72.18884      1.647     4.09     5.064986     20.37185     81.35598        14     1.119     0.930  49.04   0
        62    187.6213    853.0475 299.9539193 +22.6724201     1604.031       72.244      1.784     4.06      4.32288     20.37185      138.243        25     1.408     1.205  25.60   0
        63   1013.6699    840.6434 300.2151786 +22.9165838     2129.713     72.17043      1.885     4.57     3.091538     20.37185     131.3757        29     1.395     1.294  41.44   0
        64    719.6053    840.3999 300.1235814 +22.8283757     536.1758     72.02307      1.987     3.59     2.877917     20.37185     41.18284         6     0.926     0.641  67.54   0
        65    797.1356    834.9796 300.1495034 +22.8500622     637.3967     72.18884      1.642     4.78     2.914222     20.37185     54.14959        12     1.039     0.886  71.15   0
        66    219.7733    834.9078 299.9698129 +22.6768680     451.6057     72.15203      1.628     3.87     4.513442     20.37185     51.02734        11     1.019     0.879  14.12   0
        67    665.2822    828.5882 300.1105003 +22.8086973     4635.039     72.17043      1.568     3.02     2.883617     20.37185     461.1237        32     1.223     1.179 -77.58   0
        68    155.1801    829.0317 299.9516465 +22.6557967      536.843     72.20723      1.789     5.77     3.415406     20.37185     48.08714         8     1.248     0.811 -70.21   0
        69    467.1980    825.6400 300.0497863 +22.7484457     720.6008     72.22562      1.813     5.28     3.047296     20.37185     51.04433        15     1.312     0.921 -27.63   0
        70    215.4456    822.3742 299.9725434 +22.6719749      1244.66     72.22562      1.636     4.11     3.951874     20.37185     136.7686        21     1.261     1.093  37.87   0
        71    685.8701    821.3756 300.1192590 +22.8127997     670.5753     72.20723      1.467     3.50     2.877802     20.37185     73.65028        14     1.033     0.921 -28.03   0
        72    841.2819    808.3591 300.1719210 +22.8556504      4199.13     72.17043      1.661     3.37     2.886831     20.37185     365.0487        32     1.252     1.211 -27.65   0
        73    249.8648    802.7046 299.9896400 +22.6766626     444.7399      72.3175      1.331     4.65     3.323469     20.37185       43.671        10     1.072     0.680 -50.56   0
        74    558.4788    801.1713 300.0861566 +22.7688012     668.7628     72.20723      1.617     2.81     3.137929     20.37185     72.50563        10     0.895     0.784  63.94   0
        75    204.6212    798.8189 299.9768379 +22.6619712     992.0996     72.20723      1.622     3.08     3.193097     20.37185     121.6065        17     1.179     0.917 -31.81   0
        76    354.3257    790.8300 300.0259871 +22.7045987     53856.82     72.22562      1.612     3.07     3.387683     20.37185     6033.279        98     1.434     1.404  -6.59   0
        77    619.6842    794.1411 300.1075008 +22.7851368     510.0681      72.3175      1.491     4.80      2.92917     20.37185     49.08796         9     0.945     0.690  15.08   0
        78    612.0436    789.9896 300.1064713 +22.7816541     1728.208     72.20722      1.514     3.77     2.944384     20.37185      166.841        23     1.220     1.092 -24.69   0
        79   1023.6823    789.6616 300.2348826 +22.9049373     318.8116     56.19678      1.015     3.16     3.400482     20.37185     70.76767         7     0.960     0.448 -81.33  24
        80    282.8823    789.3943 300.0042342 +22.6827520     464.8729     72.13362      1.637     5.47     3.356852     20.37185     45.33135        10     1.114     0.801  23.33   0
        81    641.2630    786.1450 300.1168213 +22.7893116     899.5388     72.26238      1.450     3.37     2.922138     20.37185     92.70175        15     1.063     0.903  66.50   0
        82     40.4310    785.8333 299.9300392 +22.6089672     767.8185     72.22562      1.713     4.57     3.510961     20.37185     71.48633        16     1.354     0.982 -14.06   0
        83      7.3540    785.3118 299.9199348 +22.5988881     772.7782     72.18884      1.835     5.65     3.505046     20.37185     71.96208        15     1.352     1.061  65.76  16
        84    652.0210    784.3423 300.1207581 +22.7920196     635.4249     72.22562      1.450     3.63     2.912948     20.37185     60.93797        12     0.999     0.838   6.26   0
        85    972.4683    781.9638 300.2214102 +22.8873816     307.5891     72.20723      1.404     3.54     3.177892     20.37185       40.874         5     0.731     0.637   7.62   0
        86    795.1797    770.8722 300.1697411 +22.8310671     787.0385       72.244      1.587     3.52     2.870022     20.37185     81.44426        15     1.138     0.866 -38.64   0
        87    404.0532    768.0789 300.0488541 +22.7129886      31798.8       72.244      1.519     3.01     3.400711     20.37185     3218.142        75     1.361     1.331  -4.68   0
        88    418.4435    768.6198 300.0531557 +22.7174602     1944.032       72.244      1.540     2.83     3.396797     20.37185     238.8027        22     1.193     1.023   6.62   0
        89    927.2412    764.0704 300.2131233 +22.8686899     2792.456     72.17043      1.662     3.38     3.105149     20.37185     209.1819        32     1.344     1.205  -4.85   0
        90    415.2902    762.5701 300.0541414 +22.7147785     653.5319     72.17043      1.883     4.05     3.403543     20.37185      66.1912         8     1.004     0.664 -40.40   0
        91    684.9677    759.8358 300.1389888 +22.7948614     970.0392     72.22562      1.479     3.73     2.903035     20.37185     101.4183        16     1.071     0.984  43.38   0
        92    521.7283    760.1283 300.0880607 +22.7460004     474.0915     72.26238      1.454     3.64     3.215173     20.37185     47.77607        11     0.987     0.762 -14.61   0
        93    286.5807    759.7676 300.0150166 +22.6753631     799.4637     72.20723      1.426     2.59     3.349333     20.37185     119.5344        14     0.967     0.879   0.55   0
        94     91.0574    755.3128 299.9556893 +22.6154125     512.8351     72.28075      1.809     4.04     3.402687     20.37185      45.5028         7     0.949     0.826 -71.21   0
        95    532.3431    754.9249 300.0930567 +22.7476901     913.2944       72.244      1.549     3.21     3.213982     20.37185     83.72284        13     0.987     0.850   8.16   0
        96    932.9058    751.9638 300.2188261 +22.8669094     493.7305     72.20722      1.566     4.43     3.181763     20.37185     45.74128         9     0.903     0.743  85.29   0
        97    434.5852    751.1425 300.0638604 +22.7172866     400.8164     72.18884      1.423     2.66     3.383981     20.37185      53.5951         7     0.888     0.711  38.34   0
        98    390.2373    750.6536 300.0502209 +22.7038444     280.0677     72.22562      1.192     4.31      3.41034     20.37185      53.1249         6     0.875     0.604 -32.74   0
        99    478.4918    749.5026 300.0780574 +22.7299844     401.9236     72.39091      1.259     3.36     3.327958     20.37185      46.6538         6     0.884     0.450  73.43   0
       100    120.0823    749.5945 299.9665669 +22.6224839     534.8451     72.13362      1.593     5.32     3.358308     20.37185     44.92823         9     1.096     0.737  34.06   0
       101    686.5608    749.0178 300.1430022 +22.7922329     343.8078     72.22562      1.401     3.43     2.908926     20.37185     36.03362         6     0.794     0.496  88.71   0
       102    911.2280    746.8806 300.2137188 +22.8589538     351.1162     72.22562      1.247     3.11     3.135632     20.37185      48.6482         6     0.746     0.569 -39.93   0
       103    284.4142    744.4048 300.0193372 +22.6703060     577.6771     72.07837      1.610     4.65     3.331775     20.37185     49.13242        10     1.122     0.692 -13.66   0
       104    607.6725    734.8498 300.1230375 +22.7645147      457.823     72.20723      1.443     3.97     3.076384     20.37185     60.69168         8     0.968     0.681   1.35   0
       105    577.2554    732.5531 300.1143126 +22.7547355     676.0237       72.244      1.537     3.92     3.153281     20.37185     72.89564        14     1.082     0.941 -72.92   0
       106    486.7049    732.5706 300.0861180 +22.7275880     255.2977      72.1152      1.333     4.18     3.406002     20.37185     40.13468         7     0.879     0.644 -69.42   0
       107    599.0045    730.4014 300.1217844 +22.7606388     1336.985     72.02307      1.435     3.10     3.130435     20.37185     133.4232        21     1.226     1.027  36.17   0
       108    993.5279    729.3612 300.2450822 +22.8785781     4644.938     72.17043      1.711     3.46      3.26356     20.37185      362.407        39     1.333     1.299 -25.41   0
       109    519.0870    730.0870 300.0970048 +22.7365858     341.8185     72.33585      1.519     2.67     3.313563     20.37185     57.87102         7     0.896     0.555 -76.07   0
       110    680.7479    725.3843 300.1488746 +22.7837044     260.1242     72.20723      1.302     4.72     2.957406     20.37185     39.77916         8     0.971     0.651   2.42   0
       111    982.0900    720.9001 300.2442651 +22.8727205     1791.794     72.37257      1.592     3.37      3.27358     20.37185     154.5314        22     1.139     1.091  24.01   0
       112    211.3006    715.5529 300.0059835 +22.6400932     289.7089     72.22562      1.399     3.85     3.263799     20.37185      46.4086         6     0.925     0.458  89.55   0
       113    345.0114    714.5663 300.0478829 +22.6799238     681.3464     72.18884      1.407     3.23     3.432987     20.37185     87.61104        14     1.021     0.922 -50.40   0
       114    808.5483    712.0738 300.1930237 +22.8181867     2737.242     72.22562      1.661     3.27     2.975403     20.37185     224.2461        33     1.511     1.087  -1.54   0
       115   1013.2909    710.9547 300.2572311 +22.8792095     1808.121     72.18884      1.726     3.75     3.258952     20.37185      132.628        23     1.268     1.107 -26.92   0
       116     31.0348    702.2120 299.9543027 +22.5821710     855.2913     72.20723      1.686     4.28     3.318641     20.37185     97.25484        13     1.164     0.884  66.05   0
       117    890.7839    698.1966 300.2231708 +22.8388424     745.1264      72.1152      1.637     5.48      3.26114     20.37185     52.56274        14     1.305     0.794  21.15   0
       118    194.0460    698.4191 300.0061887 +22.6300013     684.2396       72.244      1.669     4.43     3.317717     20.37185     64.55206        12     1.079     0.857 -86.10   0
       119    926.8403    688.9728 300.2374122 +22.8469951     148108.6     72.26238      1.566     3.08     3.372982     20.37185     12847.97       151     1.488     1.437 -41.46   0
       120    779.4441    689.0921 300.1914232 +22.8028638     734.8273     72.18884      1.450     3.45     3.016805     20.37185     83.30402        14     1.001     0.970  73.06   0
       121    689.4467    693.1658 300.1620573 +22.7770604     524.1658       72.244      1.624     3.68     3.050979     20.37185     47.38595         7     0.814     0.656  17.64   0
       122    959.7680    682.0068 300.2499456 +22.8548581     527.9918     72.20723      1.859     3.59     3.344186     20.37185     50.27623         8     1.030     0.685 -13.93   0
       123    613.0802    677.8138 300.1432611 +22.7497606      1714.67     72.18884      1.384     2.81     3.473124     20.37185     191.6618        21     1.130     0.985 -72.10   0
       124    794.3705    675.0881 300.2006268 +22.8033146     9429.848     72.20723      1.455     2.80      3.05442     20.37185     911.9102        42     1.212     1.205 -32.04   0
       125    276.7144    676.8674 300.0388949 +22.6486199     417.9745     72.29913      1.570     3.58     3.358597     20.37185     42.99958         6     0.774     0.563  41.44   0
       126    295.8282    670.1066 300.0470359 +22.6524137     5035.319      72.1152      1.494     2.88     3.386408     20.37185     547.2748        35     1.210     1.187  19.00   0
       127    378.1227    668.0826 300.0732909 +22.6765162     1403.946     72.29913      1.623     4.01     3.475663     20.37185     136.7245        21     1.302     0.976 -36.81   0
       128      9.5380    668.4531 299.9585967 +22.5660387     1586.605     72.26238      1.816     3.77     3.232924     20.37185     147.6024        24     1.284     1.160  13.44   0
       129    253.6197    666.2589 300.0351612 +22.6386482     573.0234     72.15203      1.893     3.78     3.359983     20.37185     70.65176         9     1.203     0.795  87.76   0
       130    586.0056    663.7364 300.1394052 +22.7376022     776.1105     72.18884      1.358     2.72     3.618405     20.37185      101.633        14     1.003     0.827   8.23   0
       131    478.3983    661.2052 300.1067285 +22.7046130     139.6404     72.02307      1.217     4.12     3.623816     20.37185     34.72557         5     1.007     0.482  84.50   0
       132    577.8573    655.8977 300.1394155 +22.7329088     3283.893     72.29913      1.357     2.41     3.693326     20.37185     448.6024        26     1.112     1.059   4.12   0
       133    568.1271    649.6802 300.1384064 +22.7282067     1463.732     72.33585      1.339     2.56     3.749517     20.37185     175.2688        18     1.044     0.917  -3.30   0
       134    497.3279    648.9152 300.1166143 +22.7067609     249.2548      72.3175      1.346     2.82     3.735523     20.37185     48.17903         5     0.772     0.572 -12.56   0
       135    961.7682    646.9548 300.2619618 +22.8453850     469.2075     72.26238      1.561     3.81     3.575133     20.37185     50.36816         7     0.915     0.834  -9.39   0
       136    245.5435    644.5818 300.0396943 +22.6300061     485.0496     72.18884      1.453     3.83     3.375116     20.37185       71.747        11     1.040     0.938 -58.16   0
       137    231.3860    645.9368 300.0348523 +22.6261479     462.1631     72.17043      1.386     3.38     3.357682     20.37185     92.51728         9     0.986     0.828   9.31   0
       138   1014.9642    640.8273 300.2805467 +22.8595577     458.7891     72.22562      1.551     5.88     3.629746     20.37185     45.78968        10     1.049     0.927  41.37   0
       139    492.8514    639.3167 300.1183401 +22.7026632     1779.821     72.22562      1.426     2.80     3.816684     20.37185     210.4352        23     1.101     1.049 -46.74   0
       140    271.6806    641.0884 300.0489565 +22.6368441     496.3662     72.33585      1.494     2.94     3.410723     20.37185     65.16972        11     0.970     0.754  -5.74   0
       141    591.8307    640.0081 300.1489302 +22.7325354     397.5566     72.20723      1.322     2.64     3.843169     20.37185     66.65196        10     0.883     0.728   2.68   0
       142    146.7280    634.2282 300.0123414 +22.5973908      19844.3     72.20723      1.614     3.15     3.520407     20.37185     1871.364        60     1.415     1.317  30.13   0
       143    612.9812    634.3221 300.1573643 +22.7372428     437.3965     72.20723      1.452     2.70     3.893933     20.37185     61.46171         6     0.880     0.463  89.38   0
       144    577.7395    634.6009 300.1462995 +22.7267587      1122.27     72.17043      1.422     2.51     3.889994     20.37185      145.612        17     1.009     0.960  44.10   0
       145    302.3943    640.6846 300.0586390 +22.6459408     475.6306     72.13362      2.044     5.08     3.444656     20.37185     49.56081         8     1.125     0.649  83.12   0
       146    661.2188    622.2311 300.1763171 +22.7482289     273.6631     72.20723      1.531     4.84     4.020382     20.37185     46.31404         8     1.159     0.572  81.15   0
       147    995.6226    621.0670 300.2809345 +22.8480856     1035.608     72.18884      1.527     3.79     3.839619     20.37185      87.4165        15     1.036     0.929  54.12   0
       148    417.2500    620.9767 300.1007717 +22.6747300     255.4777     72.20723      1.198     3.83     3.682296     20.37185      29.4184         5     0.829     0.508  39.72   0
       149     92.7535    618.3930 300.0007139 +22.5766540      1732.62     72.22562      1.979     4.95     3.571018     20.37185     108.9107        29     1.674     1.148 -87.52   0
       150    862.6027    619.2507 300.2400420 +22.8077178     558.9279     72.20723      1.547     4.39     3.338543     20.37185     58.01558         8     0.976     0.601  21.23   0
       151     67.6905    636.1403 299.9871607 +22.5742238     790.4228     72.29913      1.777     3.67     3.465105     20.37185     74.76684        13     1.108     0.840 -33.98   0
       152    541.0583    615.1449 300.1412008 +22.7101762     425.8574     72.26238      1.310     2.95     4.072593     20.37185     49.56471         9     0.777     0.761 -36.66   0
       153    936.0128    613.4948 300.2648026 +22.8280549     815.9466     72.13362      1.783     4.93     3.817795     20.37185     67.82397        11     1.290     0.700  80.05   0
       154    931.6188    613.4498 300.2634469 +22.8267258     543.4534     72.20723      2.127     3.76     3.810709     20.37185     38.86605         9     0.971     0.678  33.68   1
       155    334.4437    614.2491 300.0771966 +22.6479668     298.5073       72.244      1.376     3.78      3.49318     20.37185      54.7561         6     0.911     0.575 -29.12   0
       156    680.7335    612.0860 300.1856924 +22.7511639     277.5428      72.3175      1.234     2.71     4.171184     20.37185     44.56636         5     0.763     0.488  37.31   0
       157    497.8979    607.5863 300.1302211 +22.6950668     762.0559     72.09679      1.377     2.99     4.074562     20.37185     100.2079        13     0.980     0.839 -68.73   0
       158    645.6151    606.2300 300.1766561 +22.7389569       421.96     72.20723      1.177     2.60     4.210112     20.37185     83.31863         8     0.858     0.609 -82.33   0
       159    693.2219    604.7570 300.1919642 +22.7528015     414.0886     72.26238      1.280     2.96     4.188983     20.37185     47.28592         8     0.856     0.646   5.50   0
       160    542.3654    603.5923 300.1453613 +22.7072510     1037.007     72.20723      1.521     3.18      4.14989     20.37185     110.1931        19     1.229     0.982  13.41   0
       161    663.6819    604.1916 300.1829459 +22.7437862     624.8795     72.15203      1.447     3.03     4.246534     20.37185     75.46403        10     0.927     0.717 -27.22   0
       162    975.8721    599.0353 300.2819326 +22.8358382     3322.462     72.20723      1.457     2.82     3.926033     20.37185     348.2738        29     1.173     1.135  85.35   0
       163    507.6089    598.8320 300.1360881 +22.6954648     1733.354     72.20723      1.337     2.52     4.110672     20.37185     241.2444        19     1.024     0.951  60.99   0
       164    872.8881    595.9845 300.2508085 +22.8041140     217.7757     72.15203      1.307     5.49     3.399502     20.37185     33.13774         8     1.109     0.766 -15.14   0
       165    482.8774    594.1000 300.1299275 +22.6866917     241.4525     72.37257      1.269     4.49     4.073853     20.37185     31.35515         8     0.866     0.661  41.13   0
       166     69.4976    592.4056 300.0019311 +22.5622218     5074.028      72.1152      1.708     3.28      3.63168     20.37185     505.4319        42     1.402     1.331  21.63   0
       167   1015.9640    588.6380 300.2978174 +22.8448569      315.191     72.28075      1.741     4.19     4.006628     20.37185      27.3354         5     1.129     0.445  66.06   0
       168    370.9933    585.5861 300.0978784 +22.6507009     8892.261     72.09679      1.409     2.62     3.685168     20.37185     1102.533        38     1.220     1.101  37.38   0
       169    493.4501    582.6458 300.1369396 +22.6865728     8739.781     72.22562      1.340     2.39     4.113871     20.37185     1259.623        36     1.126     1.103  46.84   0
       170    462.4887    583.2418 300.1271095 +22.6774617     99.63908     72.20723      1.155     5.09     4.015999     20.37185     30.65453         5     1.053     0.695  -8.93   0
       171    905.0604    576.6622 300.2671177 +22.8081988     1899.823       72.244      1.552     3.01     3.645113     20.37185     202.0363        24     1.223     1.077  69.19   0
       172    989.8086    574.1171 300.2943759 +22.8328502     12250.28     72.15203      1.517     2.93     3.954241     20.37185     1171.408        47     1.276     1.247  81.70   0
       173    554.0631    572.2632 300.1591817 +22.7017615     11648.07       72.244      1.336     2.46     4.288699     20.37185      1381.45        44     1.157     1.115  74.48   0
       174    723.4003    568.0973 300.2132770 +22.7513146     480.7461     72.07837      1.288     4.19     4.102881     20.37185     68.66064        11     1.066     0.758  39.39   0
       175    439.4737    567.5260 300.1250526 +22.6660497     296.0235     72.26238      1.144     3.71     3.982306     20.37185     38.34276         6     0.991     0.399 -70.67   0
       176    281.3947    567.4688 300.0758956 +22.6186316     1402.028     72.17043      1.524     2.88     3.755704     20.37185     170.4718        20     1.244     1.015  59.97   0
       177    528.2780    565.3134 300.1534117 +22.6920367     357.8451     72.35421      1.252     3.29     4.262141     20.37185     55.69765         9     0.948     0.719 -54.92   0
       178    485.7242    560.4467 300.1417464 +22.6778829     4364.696     72.20723      1.325     2.43     4.131601     20.37185     581.8833        27     1.094     1.026   5.62   0
       179    828.6689    560.5479 300.2485362 +22.7806849     715.0887     72.20723      1.256     2.55     3.582966     20.37185     116.1154        14     0.918     0.873 -33.60   0
       180    464.1860    558.8500 300.1355616 +22.6709676     1275.229       72.244      1.337     2.59      4.07334     20.37185     188.1721        14     0.989     0.866 -49.92   0
       181    218.4013    558.2309 300.0593097 +22.5970873     687.4212     72.17043      1.386     3.02      3.51998     20.37185     96.86031        12     1.028     0.868  56.53   0
       182    905.6662    555.9517 300.2740350 +22.8024285     1622.737     72.20723      1.539     3.26     3.651653     20.37185     158.7072        27     1.457     1.005 -44.02   0
       183    602.3532    547.9979 300.1821008 +22.7092668     200941.9     72.20723      1.368     2.42     4.389376     20.37185     25889.61       207     1.451     1.390 -24.04   0
       184   1005.9844    554.9706 300.3056422 +22.8321909     235.1009     72.20722      1.240     3.73     3.986479     20.37185     34.50451         5     0.990     0.403  26.94   0
       185    786.0309    553.0464 300.2376833 +22.7657559      797.631       72.244      1.396     3.35     3.894043     20.37185     98.26895        14     1.092     0.834  25.10   0
       186    426.1859    554.0905 300.1252821 +22.6582086     424.5595     72.15203      1.335     2.38     3.998812     20.37185     51.06059         7     0.717     0.645 -83.62   0
       187    288.3836    547.9736 300.0844016 +22.6151324     3386.217     72.22562      1.400     2.57     3.927264     20.37185     467.7625        27     1.113     1.069  44.53   0
       188    853.9974    543.7341 300.2618941 +22.7834408     502.1062     72.20723      1.440     5.60      3.43192     20.37185     55.69879         9     1.165     0.759  49.55   0
       189    873.0689    542.9581 300.2680920 +22.7889305     290.5763     72.18883      1.234     3.68     3.390796     20.37185     37.22863         5     1.019     0.383  31.87   0
       190    634.0997    534.3672 300.1964153 +22.7148659     83.82936     72.18884      1.196     4.22     4.377091     20.37185     37.47089         6     0.775     0.654 -50.86   0
       191    492.8234    532.4484 300.1530507 +22.6719718     439.3273     72.20723      1.599     2.86     4.203867     20.37185     49.01126         6     0.749     0.578 -43.97   3
       192    492.9674    528.2886 300.1544467 +22.6708205     2704.524     72.17043      1.314     2.44     4.210033     20.37185     322.9372        23     1.045     0.971 -56.30   2
       193    337.3912    530.7106 300.1052510 +22.6248735     426.8491     72.13362      1.099     2.25     3.863384     20.37185     66.50021         7     0.781     0.581  26.91   0
       194    942.5524    528.6330 300.2944123 +22.8056243     295.2516       72.244      1.766     3.89     3.755145     20.37185     36.70997         5     0.992     0.437  74.58   0
       195    904.7460    525.1116 300.2837662 +22.7932895     365.4863       72.244      1.599     3.72     3.552358     20.37185     51.13525         5     0.758     0.671  36.80   0
       196    921.9507    520.0150 300.2907867 +22.7969774     133.2515       72.244      0.945     3.47     3.612577     20.37185     41.14899         5     0.686     0.523   0.22   0
       197    890.0237    514.7759 300.2825327 +22.7859095     1775.681     72.17043      1.464     2.55     3.442667     20.37185     219.3105        21     1.075     1.049 -78.47   0
       198    810.3937    517.1304 300.2569432 +22.7627344     348.4795     72.17043      1.146     2.43     3.841259     20.37185     59.25662         5     0.691     0.472  75.47   0
       199    761.1309    512.1898 300.2431945 +22.7465571     2634.461     72.18884      1.330     2.45      3.99588     20.37185     321.6255        23     1.048     0.996 -76.21   0
       200     20.0999    512.8383 300.0124295 +22.5245768     813.0941     72.22562      1.714     3.81     3.898245     20.37185     76.80443        16     1.237     1.015  51.59   0
       201   1005.0529    509.3741 300.3201630 +22.8188045     509.3272     72.22562      1.642     4.12     3.886619     20.37185     60.15298         7     1.116     0.592  43.15   3
       202   1004.0004    505.4910 300.3210958 +22.8173730     822.6942     72.07837      1.695     3.59     3.871276     20.37185      63.1844        13     1.028     0.867  22.17   2
       203    970.7733    509.1489 300.3095430 +22.8084750     267.7177     72.22562      1.275     4.53     3.742957     20.37185     51.48845         7     0.985     0.792  64.15   0
       204    666.1310    508.9114 300.2146605 +22.7171521     493.1145     72.37257      1.563     2.69     4.261708     20.37185     60.81473         7     0.813     0.661  11.00   0
       205    548.4330    508.1844 300.1782429 +22.6816721     729.1058     72.18884      1.356     2.67     4.400255     20.37185     91.20934        13     0.940     0.880  26.38   0
       206   1018.5651    506.4209 300.3253375 +22.8220014     1349.462     72.22562      1.505     2.96     3.940199     20.37185     134.1031        17     1.083     0.929  -9.34  16
       207    890.2443    504.5109 300.2859355 +22.7830253     2377.833     72.22562      1.794     4.45     3.415031     20.37185     234.0533        31     1.662     1.048  71.87   0
       208    643.7598    502.8828 300.2096502 +22.7087169     563.6665     72.17043      1.221     2.63     4.285544     20.37185     73.15533         7     0.798     0.621  71.44   2
       209    643.0703    498.9095 300.2107258 +22.7073689     443.2438     72.37257      1.542     3.03     4.276807     20.37185     52.35538         5     0.765     0.512  26.30   2
       210    481.9680    501.5649 300.1597024 +22.6598496     343.9529     72.22562      1.366     3.25     4.217992     20.37185     55.25585         8     0.886     0.736 -49.31   0
       211    429.9746    502.2519 300.1432981 +22.6444612     277.1485     72.22562      1.317     3.04     4.057405     20.37185     50.48753         7     0.815     0.675 -51.96   0
       212    928.3794    499.7744 300.2993656 +22.7930849     4379.223     72.18884      1.426     2.52     3.496524     20.37185     545.9047        30     1.136     1.097  -8.75   0
       213    588.8544    495.1794 300.1950525 +22.6900510     379.4224     72.18884      1.282     4.12     4.368153     20.37185     54.53862         8     0.954     0.678  67.28   0
       214   1020.4045    490.2366 300.3311679 +22.8178992     693.0695      70.6078      1.358     3.23     3.915859     20.37185     87.42797        12     1.004     0.877 -60.66  16
       215    160.4749    489.8816 300.0635015 +22.5600997     1086.184      72.3175      1.528     3.41     4.135484     20.37185     120.3609        19     1.171     1.018 -41.00   0
       216    821.2709    484.1057 300.2710595 +22.7565024     302.5981      72.3175      1.244     3.84     3.742081     20.37185     43.10973         6     1.010     0.503 -41.98   0
       217    427.0176    483.7878 300.1483742 +22.6382731     235.1819     72.17043      1.468     3.81     4.053466     20.37185      28.8997         5     0.825     0.505  50.56   0
       218    153.4722    480.1339 300.0644903 +22.5552021     426.2597       72.244      1.587     2.85     4.111874     20.37185     53.50087         8     0.862     0.639 -33.43   0
       219   1016.4908    479.1468 300.3335485 +22.8135390     368.6758     72.26238      1.447     4.27     3.858916     20.37185     41.76709         8     0.899     0.676 -36.60   0
       220    760.6501    474.3571 300.2553315 +22.7355422     459.4941       72.244      1.235     2.81     3.985801     20.37185     71.11237         8     0.885     0.623  -3.42   0
       221    649.6992    472.0509 300.2215129 +22.7016394     316.1328     72.29913      1.412     2.70     4.186571     20.37185      45.5623         5     0.785     0.466 -36.61   0
       222    701.8234    470.0455 300.2384017 +22.7166802     674.4588     72.22562      1.204     2.47     4.073107     20.37185      121.776        10     0.898     0.696  53.70   0
       223   1016.3157    462.8795 300.3387767 +22.8088095     587.3768     72.35421      1.545     4.26      3.72298     20.37185     60.48396        12     1.135     0.912 -54.63  16
       224    762.5827    462.4988 300.2597846 +22.7327136     773.7511      72.1152      1.196     2.51     3.960337     20.37185     111.2349        15     1.049     0.801  33.33   0
       225    920.0281    458.5177 300.3101597 +22.7787247     1053.049     72.20723      1.361     2.45     3.357209     20.37185     162.1119        13     0.978     0.799  88.14   0
       226    904.2670    454.9438 300.3064053 +22.7729776     691.4275     72.26238      1.266     2.35     3.354913     20.37185     98.77917        11     0.932     0.682 -11.96   0
       227    884.8497    455.1977 300.3002683 +22.7672358     303.4503     72.20723      1.100     2.70     3.352013     20.37185     42.52017         8     0.811     0.640  44.47   0
       228    648.3922    452.9545 300.2273068 +22.6957616     3289.577     72.22562      1.266     2.24     4.152645     20.37185     455.0626        24     1.043     0.979  88.55   0
       229   1008.9616    451.9863 300.3400198 +22.8034757     577.9326     72.22562      1.744     4.67     3.607735     20.37185     65.99851        12     1.138     0.776  27.61   0
       230    488.5097    439.9766 300.1817377 +22.6441233     378.2585     72.13362      1.266     2.15     4.320438     20.37185     63.32729         6     0.730     0.482  75.98   0
       231    931.6418    431.7506 300.3224731 +22.7745075     514.7302     72.22562      1.385     2.65     3.362206     20.37185     89.32527        13     0.970     0.834  35.73   0
       232   1017.9678    430.7335 300.3497305 +22.8000612     1087.782     72.20723      1.521     3.12      3.45323     20.37185     116.0228        16     1.104     0.938 -19.63  16
       233    759.1132    426.9405 300.2702492 +22.7214559      1180.73     72.29913      1.347     2.21     3.903904     20.37185     180.1575        16     0.991     0.875  32.17   0
       234    554.9313    427.5287 300.2064569 +22.6604532     371.0304       72.244      1.314     2.60     4.365046     20.37185     59.55225         8     0.902     0.574 -42.51   0
       235    263.2422    425.1518 300.1164675 +22.5723389     653.5009       72.244      1.400     2.54     4.036611     20.37185     73.81264         8     0.768     0.668 -36.70   0
       236    103.1821    423.3277 300.0673050 +22.5238173     271.8116     72.20723      1.311     3.22     3.939426     20.37185     37.46859         5     0.760     0.428  17.88   0
       237    325.3107    420.6732 300.1372248 +22.5896618     3739.272     72.37257      1.368     2.47     4.020757     20.37185     520.9166        26     1.086     1.064  61.42   0
       238    272.4963    415.4014 300.1225106 +22.5723144     7729.091      72.1152      1.460     2.61     4.080817     20.37185     986.9175        41     1.268     1.161  55.05   0
       239    777.1702    415.8862 300.2794656 +22.7236875     239.6354     72.20723      1.305     3.34      3.85385     20.37185     32.10971         6     0.749     0.570 -38.02   0
       240    413.3493    409.7578 300.1681575 +22.6129179      4720.41     72.22562      1.301     2.28     4.155328     20.37185     671.8696        32     1.107     1.052  64.56   0
       241    657.5914    406.4994 300.2452551 +22.6851705     18619.68     72.09679      1.283     2.19     4.033352     20.37185     2688.308        51     1.200     1.101  79.38   0
       242    504.8252    407.5661 300.1973387 +22.6397040     285.1601     72.20723      1.084     3.58     4.348693     20.37185     39.38519         5     0.995     0.371 -84.87   0
       243    675.1086    406.3657 300.2507553 +22.6903799     795.9094     72.18884      1.831     5.30     4.009081     20.37185     66.06947        15     1.425     0.814 -46.90   0
       244    514.5184    403.3542 300.2017235 +22.6413989     385.8167     72.18884      1.341     3.42     4.338159     20.37185     44.67844         5     0.743     0.454 -69.29   0
       245    854.4937    396.9654 300.3097108 +22.7414063     517.9104     72.17043      1.466     3.30     3.482208     20.37185     63.93203         8     1.032     0.535  53.33   0
       246    277.8498    393.6081 300.1312499 +22.5676627     352.3365     72.20723      1.335     4.18     4.048654     20.37185     49.37518         6     0.954     0.547 -67.35   0
       247    991.2853    389.1156 300.3549184 +22.7801062     832.9614     72.33585      1.583     3.16     3.307449     20.37185     93.28398        13     1.018     0.861 -69.01   0
       248    701.2186    387.8132 300.2649123 +22.6928701     322.4094     72.17043      1.278     2.03       3.9304     20.37185     57.66881         6     0.735     0.500 -44.75   0
       249    212.3070    386.5874 300.1131492 +22.5459963     2024.254     72.15203      1.381     2.44     3.972338     20.37185     259.2155        23     1.083     1.062   9.44   0
       250    598.2249    375.8865 300.2367027 +22.6585892     6631.241     72.15203      1.305     2.32     4.055595     20.37185     937.1372        32     1.127     1.015  68.08   0
       251   1011.6990    376.2153 300.3654745 +22.7825075     1235.476      72.1152      1.506     3.37     3.274215     20.37185     127.8905        21     1.223     1.046  49.92   0
       252    313.0508    375.2339 300.1481618 +22.5729398     540.1526     72.22562      1.249     3.44     3.992542     20.37185     89.56206        11     0.977     0.861   9.61   0
       253    170.6254    368.5822 300.1060360 +22.5283299     459.2802     72.22562      1.444     3.62     3.990851     20.37185     65.09621         9     0.972     0.755   1.73   0
       254    858.2195    367.9876 300.3202792 +22.7341916      361.825     72.17043      1.446     1.75     3.528248     20.37185     69.89572         5     0.708     0.432  23.69   0
       255     17.8922    366.1860 300.0593546 +22.4818388     1299.016     72.13362      1.619     3.49     3.827243     20.37185     140.1283        24     1.240     1.172 -52.06   0
       256    802.3755    364.8996 300.3038732 +22.7165814     1235.666     72.15203      1.522     2.65     3.807554     20.37185     140.2736        16     1.010     0.899  78.70   0
       257    711.8786    366.0591 300.2752951 +22.6898114     546.9824       72.244      1.319     2.84     3.878352     20.37185     71.93583        10     0.906     0.717  30.20   0
       258    504.8762    362.1453 300.2120985 +22.6266722     6108.022       72.244      1.308     2.39     4.277506     20.37185     821.2923        31     1.116     1.024  74.23   0
       259    994.3497    356.7126 300.3663929 +22.7717056     742.7119     72.20723      1.557     4.35     3.267097     20.37185     91.32411        13     1.238     0.840 -49.16   0
       260    896.8806    356.6837 300.3360028 +22.7425176     1347.709     72.35421      1.316     2.18     3.431989     20.37185     207.4498        17     0.985     0.873 -22.30   0
       261    489.3506    350.9621 300.2108953 +22.6188075     425.7038     72.22562      1.307     3.54     4.340228     20.37185     52.51138        10     0.929     0.735   6.11   0
       262    572.3715    348.8380 300.2374314 +22.6430722     439.2798     72.20723      1.371     3.69     4.029062     20.37185      59.9547         7     1.106     0.447 -49.35   0
       263     16.3548    347.6317 300.0648987 +22.4760533     1112.398     72.26238      1.615     3.18     3.829941     20.37185     111.3306        17     1.113     1.001   6.45   0
       264    869.8459    344.4606 300.3315406 +22.7309090     636.3239     72.22562      1.481     3.05     3.562679     20.37185     62.64044         8     0.886     0.631  33.84   0
       265    150.9839    343.1746 300.1081770 +22.5151472     146.6958     72.22562      1.287     3.91      3.92652     20.37185     26.35444         5     0.847     0.517 -56.85   0
       266    392.3572    341.3116 300.1838427 +22.5869691     2483.515     72.20723      1.353     2.52     4.291118     20.37185     293.4866        24     1.069     1.062  41.44   0
       267    110.8028    338.9793 300.0970508 +22.5018946     885.4827     72.15203      1.368     2.52     3.868888     20.37185     137.9241        14     0.936     0.909 -40.59   0
       268    361.7363    330.7552 300.1777418 +22.5747601        29569     72.22562      1.380     2.49     4.222485     20.37185     4278.022        67     1.294     1.168  65.41   0
       269    896.3439    328.2490 300.3450644 +22.7341814     1452.946       72.244      1.385     2.48     3.583842     20.37185     171.4914        20     1.163     0.982 -80.86   0
       270    851.6517    326.1913 300.3317976 +22.7202090     287.4496     72.20723      1.296     2.76     3.692472     20.37185      46.6967         6     0.712     0.625  45.07   0
       271     58.0494    318.5974 300.0872733 +22.4802252     4887.623     72.20723      1.569     2.82     3.846732     20.37185      557.635        38     1.340     1.248  -0.93   0
       272    934.6125    318.7433 300.3600835 +22.7429046     270.0976     72.20723      1.125     3.45      3.54609     20.37185     28.28845         5     0.768     0.448  72.10   0
       273    811.8973    317.6461 300.3221779 +22.7058489     451.1041     72.22562      1.140     2.19     3.801225     20.37185     73.75117         7     0.707     0.612  13.90   0
       274    236.1148    317.0379 300.1431233 +22.5331668      440.437     72.18883      1.364     3.33      3.91321     20.37185     53.73685         9     0.829     0.729 -33.30   0
       275    460.4563    316.0780 300.2132231 +22.6001285     425.5063       72.244      0.989     2.16     4.427901     20.37185     79.79692         8     0.759     0.649   2.82   0
       276    772.2090    310.6336 300.3120835 +22.6919487     1996.021     72.20723      1.332     2.28     3.836094     20.37185     296.4032        18     1.073     0.852  55.25   0
       277    580.1990    304.9230 300.2541206 +22.6327989     317.4612     72.09679      1.071     3.07     4.016353     20.37185     62.05809         5     0.888     0.575  74.65   0
       278    987.3087    303.6313 300.3814243 +22.7543324     636.1603     72.15203      1.415     2.67     3.302495     20.37185      94.0575         9     0.867     0.728 -33.06   0
       279    433.9074    295.1374 300.2117558 +22.5861578     2110.177      72.3175      1.512     3.07     4.551684     20.37185     244.4483        23     1.275     0.936  53.35   0
       280    646.5093    294.1637 300.2782637 +22.6495696       316.95     72.18884      1.269     4.21     3.925142     20.37185     45.83188         8     1.084     0.576  54.65   0
       281    873.2131    287.8814 300.3509522 +22.7156492     589.7747     72.18884      1.362     2.86     3.825807     20.37185     84.36198        12     0.999     0.755  60.37   0
       282    865.4150    288.8188 300.3482167 +22.7135842      291.815     72.18884      1.273     3.56     3.831527     20.37185     36.93477         5     0.971     0.376   5.41   0
       283      5.9717    286.6843 300.0814500 +22.4554485     842.8898     72.20723      2.221     6.75     3.851076     20.37185      67.5811        16     1.934     0.660 -31.61  16
       284    772.8131    285.6217 300.3203882 +22.6849393     188.8916     72.18884      1.083     3.42     3.839881     20.37185      32.4337         5     0.741     0.457  16.23   0
       285    723.7190    284.7948 300.3053576 +22.6700004     285.0521     72.13362      1.403     2.83      3.85792     20.37185     42.12413         6     0.711     0.644 -14.79   0
       286    224.2146    276.2050 300.1526724 +22.5178750     232.1745     72.07837      1.509     3.43     3.890082     20.37185     30.67496         5     0.975     0.349 -45.86   0
       287    509.7754    274.6927 300.2420034 +22.6030155     1187.572     72.15203      1.198     2.20     4.198716     20.37185     184.2308        13     0.883     0.786 -27.86   0
       288    317.0135    274.6809 300.1820253 +22.5452519     245.1084     72.18884      1.210     2.18     4.141087     20.37185     44.70868         5     0.825     0.466  -1.62   0
       289   1021.2438    270.7739 300.4026732 +22.7550383     384.9853     67.82573      1.579     4.75     3.245257     20.37185      50.9622         8     0.946     0.677  82.18  16
       290    754.6077    266.2494 300.3210004 +22.6739188     2253.558     72.20723      1.386     2.87     3.846293     20.37185     318.7104        23     1.310     0.995  82.10   0
       291   1016.0577    260.8254 300.4042832 +22.7506246      3185.04     72.20723      1.494     2.86     3.384688     20.37185     381.4031        31     1.242     1.140 -28.91  16
       292    462.9654    250.2841 300.2353519 +22.5819785     698.3362     72.17043      1.260     3.06     4.216787     20.37185     81.37761        11     0.946     0.830  14.94   0
       293    137.8256    244.4270 300.1361272 +22.4828536     1461.544     72.17043      1.784     3.65     4.133281     20.37185     139.1973        25     1.360     1.128 -30.48   0
       294    168.5454    244.4076 300.1456818 +22.4920572     634.8203     72.20723      1.374     3.49     4.025359     20.37185     77.69041        12     1.188     0.711  43.60   0
       295    221.8226    236.3626 300.1648542 +22.5057171     519.2561     72.22562      1.350     3.25      3.92666     20.37185      65.3447        10     0.963     0.742 -29.14   0
       296   1017.0100    234.2979 300.4131869 +22.7432787      297.506     72.09679      1.227     3.18     3.680571     20.37185     50.23516         5     0.781     0.396  19.82   0
       297     77.7713    233.6143 300.1209723 +22.4617449     398.4174     72.22562      1.338     2.95     4.406733     20.37185     42.92124         5     0.708     0.472  13.03   0
       298    897.9681    230.3757 300.3773291 +22.7065227     342.1929     72.20723      1.275     3.52     3.818627     20.37185     52.24075         7     0.844     0.745 -43.39   0
       299    826.2956    228.0836 300.3557265 +22.6844088     594.2082     72.39091      1.202     2.14     3.848694     20.37185      104.979        11     1.013     0.665 -17.20   0
       300    416.8613    227.5439 300.2283809 +22.5616321     433.7841     72.28075      1.306     1.90     4.038913     20.37185     66.30499         6     0.708     0.498  -1.29   0
       301    917.0064    221.0189 300.3863014 +22.7095301     372.3662     72.17043      1.220     2.77     3.801791     20.37185     52.67935         7     0.843     0.532  48.84   0
       302    924.6266    216.9521 300.3899972 +22.7106412     2225.021     72.22562      1.453     2.62     3.794089     20.37185     252.5184        27     1.204     1.108  53.57   0
       303    420.8623    209.3899 300.2355147 +22.5576151     1139.671     72.13362      1.495     2.55     3.973016     20.37185     112.2108        15     0.978     0.870 -31.96   0
       304    172.8638    209.8790 300.1582244 +22.4834371     421.5327     72.29913      1.400     4.74     4.173352     20.37185     48.02887         8     0.999     0.661 -22.96   0
       305    822.8563    208.5692 300.3609847 +22.6777677     605.9875     72.22562      1.418     4.02     3.857098     20.37185     86.23964        12     1.258     0.789 -28.02   0
       306    343.0275    214.1435 300.2097559 +22.5356595     2158.728     72.20723      1.352     2.52     4.007603     20.37185     275.5927        22     1.068     0.994  81.46   0
       307     18.7894    202.8434 300.1126285 +22.4352273     395.2229     72.20723      1.343     4.10     4.558765     20.37185     39.48059         6     0.781     0.616  -0.28   0
       308    355.6644    201.0826 300.2179235 +22.5356941     352.8068      72.3175      1.651     4.56     4.132644     20.37185     39.50163         7     1.056     0.789  36.36   0
       309    237.7424    201.5184 300.1811064 +22.5004818     801.5394     72.26238      1.358     2.44     4.149551     20.37185     109.8012        11     0.928     0.709  -9.67   0
       310    775.5564    198.4160 300.3495350 +22.6606881     1733.179     72.22562      1.268     2.28     3.901548     20.37185     241.5785        18     1.066     0.919  85.38   0
       311    840.4047    198.0129 300.3698795 +22.6799851     587.2336     72.07837      1.372     3.53     3.854056     20.37185     78.97196        11     0.961     0.821 -29.23   0
       312    259.1537    194.8761 300.1899186 +22.5049910     568.9256     72.20723      1.456     4.17     4.213167     20.37185     69.58732        10     1.220     0.603  44.10   0
       313    779.4224    190.0100 300.3534664 +22.6594284     858.9921     72.20723      1.582     3.60     3.912511     20.37185     93.38064        12     1.130     0.698  48.65   0
       314    700.2366    189.0562 300.3291001 +22.6354463     1391.244     72.20723      1.342     2.21     3.965684     20.37185     186.2209        20     1.044     0.947 -66.41   0
       315    549.1984    190.5381 300.2815768 +22.5906417     400.8909     72.17043      1.462     2.39     4.050234     20.37185     47.35603         5     0.726     0.451  22.02   0
       316    895.6285    180.5251 300.3927701 +22.6914849      1380.88     72.22562      1.325     2.50     3.812441     20.37185     193.0985        18     1.115     0.961 -75.99   0
       317    626.2029    180.6261 300.3087718 +22.6108543     978.3431     72.15203      1.329     3.02     4.035512     20.37185     126.3941        16     1.098     0.880  55.62   0
       318    907.6106    179.5937 300.3968086 +22.6948031     923.9852     72.07837      1.559     3.02     3.802699     20.37185     109.2069        16     1.095     0.896  72.96   0
       319    954.0381    178.8380 300.4115333 +22.7084801     279.7884     72.28075      1.237     3.90     3.785025     20.37185     39.94687         6     0.759     0.575 -33.97   0
       320   1023.5527    170.0179 300.4360795 +22.7267437     718.3044     56.83126      1.155     2.63     3.783147     20.37185     140.9651        10     1.014     0.570  86.97  24
       321     47.7883    166.2280 300.1335120 +22.4334100      464.525     72.20723      1.596     5.32     4.527466     20.37185     57.48146        11     1.137     0.756  54.07   0
       322    258.4972    162.8997 300.2000848 +22.4956097     764.4261     72.40926      1.378     2.74     4.536965     20.37185     108.7199        13     0.945     0.872  10.07   0
       323    120.2665    157.6338 300.1588202 +22.4526689     2117.277     72.20723      1.555     2.97     4.478587     20.37185     258.2376        25     1.223     1.070  65.88   0
       324    943.4406    154.9592 300.4159726 +22.6984396     741.6002     72.28075      1.598     3.36     3.779406     20.37185     79.52763        14     1.037     0.888  50.12   0
       325     69.8103    154.7309 300.1440824 +22.4367108     545.1483     72.18884      1.485     3.47     4.507465     20.37185     70.50331         8     1.060     0.605 -76.16   0
       326    277.6844    151.0344 300.2098994 +22.4979511     5511.364     72.17043      1.431     2.66     4.563191     20.37185     669.8503        35     1.246     1.099  65.81   0
       327     61.7246    145.2825 300.1446339 +22.4315740      1370.82      72.3175      1.663     3.30     4.520181     20.37185      142.449        22     1.238     1.080  65.64   0
       328     11.3722    145.7276 300.1288467 +22.4166069     622.1631     72.20723      0.712     0.77     4.561834     20.37185     374.2122         5     0.578     0.396 -28.96   0
       329    261.0368    141.8369 300.2077048 +22.4903206     667.3739     72.28075      1.511     3.08     4.568596     20.37185     87.08595        11     1.000     0.720  72.43   0
       330    921.8247    132.6890 300.4164532 +22.6855645     3378.397     72.15203      1.402     2.60     3.793073     20.37185     495.8971        27     1.185     1.025  77.70   0
       331   1023.8637    130.9379 300.4488506 +22.7155924     636.3564     55.05076      1.259     3.92     3.691813     20.37185     137.3157         9     1.523     0.328  86.12  24
       332    471.2484    127.8361 300.2776446 +22.5492741     767.6805     72.22562      1.460     2.75     4.066849     20.37185     89.57047        10     0.941     0.658  47.32   0
       333    224.2677    128.6413 300.2005502 +22.4755120     308.9106     72.18884      1.123     2.69     4.575709     20.37185     47.24865         5     0.713     0.457 -15.35   0
       334    395.6557    119.4818 300.2568285 +22.5242304     760.7881       72.244      1.889     3.33     4.028758     20.37185     74.52211        13     1.070     0.837 -53.26   0
       335    930.2686    118.3826 300.4237258 +22.6839756     253.7069     72.20723      1.267     3.48     3.769258     20.37185     31.22015         5     0.753     0.463  14.30   0
       336    161.4163    116.9700 300.1847951 +22.4533245     636.8867     72.20723      1.412     2.44     4.553408     20.37185     80.80498         9     0.874     0.685  -8.79   0
       337    522.5845    115.0271 300.2977784 +22.5609677     1715.255     72.22562      1.326     2.47     4.113723     20.37185     214.9688        20     1.068     0.973  75.95   0
       338    450.5787    115.3816 300.2752496 +22.5395038      501.049     72.20723      1.564     3.12     3.896634     20.37185     67.06963         9     0.951     0.703   3.17   0
       339    584.0619    114.5412 300.3170781 +22.5792380     430.0364     72.26238      1.519     2.01     4.285105     20.37185     55.09243         6     0.727     0.498  -0.10   0
       340    346.7691    111.3557 300.2442535 +22.5072505     64.83469       72.244      1.114     3.41       4.4958     20.37185     28.87414         5     0.750     0.448 -16.36   0
       341    266.1397    110.4037 300.2194836 +22.4828200     395.5336     72.18884      1.421     2.73     4.587815     20.37185     71.40359         6     0.878     0.497  39.52   0
       342    810.8188    105.0109 300.3908175 +22.6443819     359.1275     72.17043      1.401     2.52     4.199509     20.37185     53.20687         5     0.771     0.480  28.97   0
       343    658.2766    101.3488 300.3444705 +22.5976662      227.356     72.20723      1.223     4.19     4.388066     20.37185      34.5138         6     0.733     0.683 -67.65   0
       344    168.6043    100.5892 300.1923404 +22.4507739     231.9481     72.04151      1.118     3.45     4.583466     20.37185     27.49726         5     1.044     0.330 -68.64   0
       345    956.9459     98.9222 300.4383564 +22.6863591     451.0042       72.244      1.731     4.74     3.714324     20.37185     49.01049         6     1.269     0.502  83.20   0
       346    296.6339     94.8624 300.2340060 +22.4874916      6004.78     72.20723      1.488     2.79     4.580843     20.37185     738.5893        38     1.320     1.130  68.55   0
       347    802.9716     95.7001 300.3913903 +22.6393553      381.796      72.1152      1.338     2.65     4.270163     20.37185     54.21866         5     0.849     0.446  -8.24   0
       348    147.8306     94.3474 300.1879067 +22.4427556     740.4033     72.22562      1.367     2.84     4.584088     20.37185     92.83491        10     0.940     0.725  82.22   0
       349    926.0267     92.7375 300.4307182 +22.6753284     336.2073     72.20723      1.186     2.20     3.819305     20.37185     54.62789         7     0.714     0.621  -4.86   0
       350    268.3336     88.2853 300.2273368 +22.4771231     286.8798     72.29913      1.386     5.05     4.603644     20.37185     57.37098         6     1.288     0.560  69.55   0
       351    311.7680     86.3252 300.2414809 +22.4895729     356.6328     72.20723      1.495     3.48     4.554697     20.37185     45.58839         5     0.763     0.459  -9.03   0
       352     58.1360     85.1219 300.1630239 +22.4132238     292.0287     72.29913      1.250     4.01     4.643377     20.37185     42.64217         7     0.984     0.602  -1.27   0
       353    542.7402     80.2421 300.3153316 +22.5570045     6391.588     72.18884      1.376     2.59     4.205853     20.37185     860.0245        37     1.252     1.085  83.48   0
       354    428.2401     80.2910 300.2796743 +22.5227282      714.636     72.20723      1.493     3.35     3.796452     20.37185     91.30935        13     1.054     0.858 -29.75   0
       355    563.3129     74.3645 300.3236428 +22.5614751     300.5056     72.18884      1.313     3.49     4.279055     20.37185     37.64425         5     0.754     0.466  11.78   0
       356    708.3689     96.3972 300.3616820 +22.6112387     206.8172     72.17043      1.327     4.11     4.342307     20.37185     27.72534         5     1.002     0.482   5.48   0
       357    795.1392     70.4598 300.3971320 +22.6297513     812.8805       72.244      1.542     3.34     4.338211     20.37185     102.4241        12     1.043     0.807 -85.48   0
       358    736.8123     71.4484 300.3786335 +22.6125781     326.0468     72.22562      1.174     2.60     4.334553     20.37185     55.96249         5     0.716     0.449 -22.49   0
       359    887.6674     68.7891 300.4265202 +22.6569604     448.8265     72.20723      1.448     2.58     4.167271     20.37185     65.82419         6     0.905     0.516  52.84   0
       360    106.7755     66.6813 300.1841156 +22.4225059     298.9584     72.18884      1.732     4.60     4.605555     20.37185      32.7416         6     1.055     0.570 -67.56   0
       361    593.9089     63.0260 300.3368463 +22.5673762     469.8262     72.13362      1.336     3.35     4.374724     20.37185     60.16137         8     0.923     0.656 -58.97   0
       362    235.5346     64.3086 300.2249101 +22.4604078     528.3362     72.33585      1.691     2.83     4.630779     20.37185     74.57181         8     0.989     0.606  12.00   0
       363    671.1187     60.3254 300.3617709 +22.5897147     6291.845      72.3175      1.386     2.46      4.56481     20.37185     924.0776        39     1.251     1.126  74.58   0
       364    445.9698     59.3316 300.2919865 +22.5220143     1679.882     72.18884      1.510     2.77     3.797813     20.37185     175.0974        19     1.021     0.978  54.89   0
       365    712.1760     57.8406 300.3753681 +22.6012903      872.485       72.244      1.388     2.76     4.442555     20.37185     135.4146        13     0.956     0.862  68.81   0
       366    782.0199     55.6552 300.3978423 +22.6215665      327.441     72.18884      1.578     4.06      4.36789     20.37185     41.82827         5     0.964     0.563 -73.60   0
       367    728.1861     53.9634 300.3816137 +22.6049675      454.511     72.20723      1.337     2.70       4.3947     20.37185     83.04282        11     0.866     0.845 -33.56   0
       368    998.2461     51.3883 300.4666504 +22.6850375     745.8307     72.20723      1.803     2.82     3.463317     20.37185     80.71642        10     0.947     0.762 -64.96   0
       369    194.8458     51.7704 300.2163236 +22.4446145      673.937       72.244      1.328     2.90     4.645368     20.37185     102.7854        12     0.948     0.831  39.40   0
       370    766.8076     49.3899 300.3951320 +22.6152116     576.6655     72.05994      1.590     3.31     4.378432     20.37185     69.81252        10     1.093     0.678 -84.16   0
       371    715.3422     45.2942 300.3804218 +22.5986298     2684.496     72.26238      1.313     2.36     4.466678     20.37185     353.6689        26     1.209     0.995 -89.01   0
       372    730.3969     44.3276 300.3854261 +22.6028578     959.6425     72.15203      1.704     4.31     4.406576     20.37185     102.9336        15     1.391     0.826  58.65   0
       373    356.0965     45.8478 300.2683917 +22.4912209     325.7234       72.244      1.132     3.58     4.435165     20.37185      51.1607         9     0.961     0.724  86.91   0
       374      8.8093     39.2309 300.1625749 +22.3852609     814.6385     72.20723      1.622     3.91      5.49006     20.37185     83.79034        17     1.257     0.949  15.88   0
       375    801.6971     36.9566 300.4100368 +22.6220768     1469.439     72.20723      1.375     2.46     4.417236     20.37185     204.6074        18     1.024     0.956 -87.61   0
       376    962.2364     35.4945 300.4605694 +22.6696913     246.7898     72.20723      1.268     3.40      3.92658     20.37185     35.76025         5     0.767     0.437  22.66   0
       377    739.6741     30.1501 300.3929126 +22.6015568     859.0417     72.20723      1.474     2.71     4.401073     20.37185     98.54285        13     0.907     0.879  20.36   0
       378    545.5119     29.1889 300.3327439 +22.5431574     1132.204     72.15203      1.565     3.03     4.221678     20.37185     125.4917        17     1.139     0.900 -79.80   0
       379    118.3424     29.3053 300.1998250 +22.4152372     498.2925     72.28075      1.350     3.36     4.674449     20.37185     63.19061         9     1.041     0.610  -7.60   0
       380    449.0143     27.3665 300.3032952 +22.5137383     760.1519     72.18884      1.388     2.70     3.798762     20.37185     119.0103        14     1.218     0.732  83.57   0
       381    831.5643     26.0892 300.4228698 +22.6278882     419.9447     72.18884      1.440     4.43     4.454127     20.37185     63.20693         8     1.114     0.650 -26.06   0
       382    788.5871     18.3375 300.4119855 +22.6127975     646.4387     72.18884      1.345     2.98     4.454573     20.37185     78.17389        10     0.923     0.773  20.67   0
       383    688.3812    998.1110 300.0625435 +22.8642787     9514.265     72.15203      1.944     4.65     2.459243     20.37185     562.3059        51     1.592     1.445 -20.39   3
       384    643.1807     14.2873 300.3679907 +22.5681124     292.0518     72.15203      1.329     3.72     4.594781     20.37185     36.42937         5     0.887     0.447  47.77   0
       385    535.6739   1014.0574 300.0098010 +22.8230441     431.4104       72.244      1.575     6.01     2.041437     20.37185     38.82469         9     1.237     0.821  -8.42   0
       386    404.6717   1011.8007 299.9697672 +22.7830865     756.2191     72.09679      2.751     6.63     2.934149     20.37185     47.33651        15     1.621     0.761  63.79   0
       387    547.5663    989.7565 300.0214118 +22.8196410     508.7286     72.26238      2.317     6.04     2.308563     20.37185     32.26044        10     1.893     0.543  -7.50   0
       388    596.2176   1005.1743 300.0315414 +22.8386597     2442.296     72.22562      1.926     4.20     2.141797     20.37185     186.6939        28     1.385     1.224 -49.09   0
       389      2.1414   1014.6476 299.8437198 +22.6630496     1268.846     60.67393      7.720    10.32     -17.8888     20.37185     43.53777        21     2.000     1.484 -82.77  27
       390     21.5059   1004.2546 299.8531159 +22.6658877     769.0477     72.26238      4.545     5.59     -2.79217     20.37185     40.62239        10     1.209     0.728   6.01   0
