#   1 NUMBER                 Running object number                                     
#   2 X_IMAGE                Object position along x                                    [pixel]
#   3 Y_IMAGE                Object position along y                                    [pixel]
#   4 ALPHA_J2000            Right ascension of barycenter (J2000)                      [deg]
#   5 DELTA_J2000            Declination of barycenter (J2000)                          [deg]
#   6 FLUX_APER              Flux vector within fixed circular aperture(s)              [count]
#   7 FLUXERR_APER           RMS error vector for aperture flux(es)                     [count]
#   8 FLUX_RADIUS            Fraction-of-light radii                                    [pixel]
#   9 FWHM_IMAGE             FWHM assuming a gaussian core                              [pixel]
#  10 BACKGROUND             Background at centroid position                            [count]
#  11 THRESHOLD              Detection threshold above background                       [count]
#  12 FLUX_MAX               Peak flux above background                                 [count]
#  13 ISOAREA_IMAGE          Isophotal area above Analysis threshold                    [pixel**2]
#  14 A_IMAGE                Profile RMS along major axis                               [pixel]
#  15 B_IMAGE                Profile RMS along minor axis                               [pixel]
#  16 THETA_IMAGE            Position angle (CCW/x)                                     [deg]
#  17 FLAGS                  Extraction flags                                          
         1    504.2172     15.5465 300.3326228 +22.5432375     1129.564     72.34235      1.487     2.92     5.170248     20.41518     122.2057        16     0.996     0.945 -78.58   0
         2    407.9270     13.5176 300.3032964 +22.5138362     784.4158     72.48969      1.504     3.90     5.174467     20.41518     95.42773        12     1.185     0.779  51.27   0
         3    789.9164     12.7352 300.4225709 +22.6279015     378.1364     72.47129      1.455     4.09     5.793121     20.41518     43.73768        10     0.996     0.769  31.75   0
         4    704.5494     10.7481 300.3965988 +22.6017961       256.05     72.39764      1.388     3.44     5.621966     20.41518     33.49667         5     0.786     0.434  68.28   0
         5    747.4965      4.5022 300.4120113 +22.6128460     613.3555     70.62589      1.412     3.92     5.669857     20.41518     75.27168        13     1.235     0.724  49.95  16
         6    179.4395      3.5047 300.2354417 +22.4425554     3727.859     67.00161      1.678     2.86     5.691797     20.41518     448.6742        36     1.368     1.287  -6.99  24
         7    602.0792      1.1557 300.3677711 +22.5683827     182.4339     55.26445      1.116     3.37     5.667805     20.41518     57.63794         5     1.066     0.322  -9.48  24
         8    240.6133    999.7289 299.9310688 +22.7467669     2410.844     72.36079      5.616    24.95     60.06172     20.41518     72.50421       136     6.299     2.744  -8.60  19
         9    976.0243   1023.6071 300.1524100 +22.9741059     317.1331     56.59977      1.563     3.46     4.012481     20.41518     27.82082         5     1.430     0.242 -17.52  24
        10     93.6765   1010.1082 299.8820047 +22.7056490     4935.753     72.50809     16.197    79.39     82.74329     20.41518     153.2395      1953    16.646    12.101  39.71  27
        11     84.9174    945.2031 299.9003931 +22.6844204     5856.234     72.28703     30.680     4.44     22.61039     20.41518     1350.057      5175    22.253    18.429 -60.80  19
        12    742.0504    987.3491 300.0912338 +22.8935860     662.6358     72.39764      1.878     4.99     4.377795     20.41518     49.84649        14     1.248     1.119  22.97   0
        13    172.8118    971.5878 299.9191369 +22.7183572     1668.406     72.25012      8.831    20.31     59.52037     20.41518     52.48682        58     5.034     2.275  68.54   3
        14     24.9216   1008.6538 299.8611098 +22.6845958     763.3854     72.39764      5.251     5.07     -4.20332     20.41518     42.00337         5     1.183     0.613  47.63   1
        15    208.0455    986.0125 299.9254016 +22.7330636     3953.373     72.36079      8.271    33.63     66.75969     20.41518     75.15289       306     7.504     4.183 -82.15  19
        16    227.3031    984.6672 299.9318284 +22.7384560     5389.634     72.45289     10.070    41.31     61.70446     20.41518     100.3573       501     9.121     5.193 -56.49  19
        17    933.9489    970.5364 300.1565481 +22.9462639     878.6265     72.41606      2.248     7.62     4.019574     20.41518     48.45228        21     1.457     1.297  45.75   0
        18    152.2991    955.0596 299.9181346 +22.7074648     1943.119     72.45289      8.743    15.96     45.25632     20.41518     57.39943        62     3.466     2.044  37.35   1
        19    659.6216    953.7469 300.0764739 +22.8592367     6905.383     72.36079      1.957     4.32     4.298725     20.41518     374.1021        50     1.572     1.481  19.31   0
        20    539.1412    947.8970 300.0408432 +22.8214400     542.7106     72.43448      1.735     6.33     4.111142     20.41518     41.24097        11     1.410     0.854  35.58   0
        21    251.1230    947.7581 299.9512421 +22.7350214     400.7537     72.32392      1.725     5.70       20.168     20.41518     46.14614         9     1.343     0.846  44.63   0
        22    811.3716    946.3171 300.1261938 +22.9025843     384.7146     72.36079      2.003     5.66     4.466262     20.41518     30.33564         6     0.980     0.922  24.09   0
        23    568.0831    944.3960 300.0509964 +22.8291127     1536.925     72.28703      1.824     4.60      4.11292     20.41518     127.2167        28     1.525     1.197  22.63   0
        24    462.0124    941.0144 300.0190640 +22.7963393     998.2152     72.28703      1.953     5.11     4.187686     20.41518      78.3738        19     1.398     1.059  -2.44   0
        25    392.5398    938.9248 299.9981170 +22.7749063     6621.909     72.41606      1.930     4.31     4.507474     20.41518      441.293        46     1.528     1.441   8.12   0
        26    169.6910    998.0507 299.9095588 +22.7250054     945.5774     72.39764      2.378    10.79     82.51626     20.41518     45.73292        26     2.132     1.633  57.57   3
        27    181.0285    991.1459 299.9153302 +22.7264285      1949.81     72.36079      7.473    17.66     74.95663     20.41518     65.82431        59     3.599     2.408 -77.84   3
        28    178.2058    997.5037 299.9123844 +22.7274037     2871.541     72.26858      5.391    23.80     81.48779     20.41518     61.60751       122     5.277     2.981  43.97  19
        29    425.9019    925.6043 300.0128339 +22.7810909     562.2928     72.26858      2.229     6.80      4.38525     20.41518     32.06153        11     1.315     0.987  62.65   0
        30    156.3564   1007.9655 299.9021874 +22.7238455     576.3459     72.41606      1.837     6.88     91.65408     20.41518     41.47303         9     1.429     0.930 -19.50   0
        31    939.0595    917.8142 300.1752916 +22.9326572      2101.46     72.32392      2.005     4.63     4.078827     20.41518     120.1946        33     1.491     1.370  32.85   0
        32    588.9734    914.9100 300.0670935 +22.8269156     419.7941     72.32392      1.862     5.65     4.184808     20.41518     39.23624         6     1.404     0.642  67.21   0
        33    727.8005    906.5694 300.1130666 +22.8661320     862.8021     72.32392      1.995     5.55     4.678832     20.41518     59.08779        17     1.607     0.931  49.00   0
        34    762.4233    900.8856 300.1257081 +22.8748759     1048.349     72.30547      1.905     5.83     4.628775     20.41518     69.27275        23     1.512     1.168  49.90   0
        35    665.9874    999.5364 300.0635623 +22.8742833     1611.348     72.32392      0.654     2.68      3.76206     20.41518     719.2825         8     0.617     0.346  88.44   0
        36    554.7443    991.4461 300.0315371 +22.8386109      2376.08     72.39764      1.907     4.69     4.111707     20.41518     144.7149        32     1.454     1.348  58.60   0
        37    975.4443    894.7878 300.1941332 +22.9369435     458.9682     72.36079      1.768     4.73     4.233513     20.41518     44.85017         8     1.116     0.580  -8.35   0
        38    830.3459    894.3270 300.1490195 +22.8933450     492.6601     72.34236      1.659     5.82     4.501589     20.41518     39.27675        12     1.136     0.839  88.19   0
        39    784.8329    894.5355 300.1347598 +22.8797680     11199.18     72.36079      1.888     4.16     4.576282     20.41518     665.8209        53     1.491     1.478  58.13   0
        40    262.0741    888.4633 299.9739308 +22.7213057      2690.35     72.39764      0.705     0.50     6.854419     20.41518     1143.839         8     0.574     0.434 -88.94   0
        41     97.5100    885.7590 299.9236372 +22.6711616     1032.207     72.36079      4.001     5.05     8.376364     20.41518     57.68974        10     1.273     0.728 -55.45   1
        42    148.7373    885.2219 299.9397375 +22.6863774     671.8682     72.34235      3.768     3.75     12.53633     20.41518     33.76278         5     1.331     0.304 -30.58   0
        43    489.7410    883.0335 300.0465531 +22.7880212     495.7665     72.37922      1.760     5.77     4.274137     20.41518     36.77294        10     1.192     0.787 -19.99   0
        44    836.4420    881.8655 300.1549730 +22.8915937     467.8431     72.34235      1.802     5.58     4.514074     20.41518     38.39915         7     1.065     0.825 -48.46   0
        45      9.0340   1003.8845 299.8577245 +22.6784604     2683.231     72.32392     15.926    54.77      -22.429     20.41518     67.53345       847    14.232     5.849  83.96  24
        46    793.2513    876.7923 300.1431545 +22.8771969     1433.963     72.36079      1.799     4.31     4.558174     20.41518     108.9747        24     1.285     1.193 -34.45   0
        47    246.2383    973.6873 299.9412893 +22.7409894     8403.956     72.34235     10.324    34.63     38.29734     20.41518     183.5848       915    12.086     5.207  63.83  19
        48    976.3213    876.0151 300.2005116 +22.9318150      490.817     72.37922      1.747     6.67     4.347287     20.41518     45.43358        12     1.131     1.104  68.87   0
        49    645.0698    873.8672 300.0979173 +22.8319524     527.5127     72.41606      1.868     5.24     4.487165     20.41518     36.38752        12     1.365     0.845   7.00   0
        50    831.4029    870.0388 300.1572472 +22.8866885     886.8152     72.39764      2.076     5.68     4.535249     20.41518     52.58614        17     1.350     1.023  63.76   0
        51    880.1284    861.6464 300.1751730 +22.8988758     475.5393     72.34235      1.578     6.05     4.509977     20.41518     52.02664        11     1.376     0.922  41.39   0
        52    731.4866    860.5616 300.1291762 +22.8540308     634.8458     72.34236      1.558     3.50      4.66648     20.41518     69.22818        14     1.044     0.972 -74.33   0
        53    443.8443    856.6374 300.0408454 +22.7666882     4266.747     72.43448      1.787     3.79     4.375966     20.41518     335.0517        35     1.344     1.317 -68.36   0
        54    742.7179    857.5659 300.1336514 +22.8565363     498.4156     72.32392      1.750     6.20     4.662875     20.41518     48.46688        12     1.263     0.880 -47.09   0
        55    105.7856    845.0553 299.9394428 +22.6619767     320.1061     72.34235      1.300     3.74     6.292113     20.41518     30.14483         5     1.444     0.279 -77.72   0
        56    168.9808    842.1492 299.9600353 +22.6801018     833.3798     72.34235      2.150     4.57     6.959451     20.41518     77.24368        16     1.366     1.081  13.43   0
        57    146.1667    839.2090 299.9538974 +22.6724151     1538.779     72.36079      1.902     3.81     6.696633     20.41518     154.9655        24     1.345     1.217  26.41   0
        58    641.2764    986.7247 300.0600302 +22.8631996     8999.998     72.45289      2.092     4.65     4.005363     20.41518      485.731        49     1.579     1.502  33.11   3
        59   1017.8679    828.6317 300.2288842 +22.9306478     2215.299     72.36079      2.031     4.62     4.434615     20.41518      121.381        35     1.529     1.338  15.89  16
        60    972.3012    826.9551 300.2152088 +22.9165206     2124.203     72.37922      1.895     4.35     4.446785     20.41518     125.1177        33     1.509     1.328 -38.69   0
        61    677.6271    827.6434 300.1230916 +22.8284426     403.0923     72.37922      1.660     4.88     4.535968     20.41518     38.70436         6     0.894     0.753 -77.83   0
        62    755.7325    821.0153 300.1495918 +22.8499430     593.4557     72.34235      1.782     6.20     4.604276     20.41518     42.71553        13     1.105     0.978  41.09   0
        63    178.2446    821.0977 299.9697591 +22.6768448      405.828     72.37922      1.621     3.76     5.748175     20.41518     57.52273         9     1.220     0.655 -26.78   0
        64    990.1368    816.3954 300.2242077 +22.9188287     197.2184     72.32392      1.557     4.20     4.442708     20.41518     24.76889         5     1.187     0.424 -12.69   0
        65    623.8419    814.7502 300.1105230 +22.8086238     4858.625     72.37922      1.659     3.48     4.458149     20.41518     374.6452        34     1.284     1.262  45.85   0
        66    646.8259    984.4326 300.0625050 +22.8642056      9346.33     72.36079      2.007     4.68     4.009127     20.41518     529.4352        52     1.559     1.526 -72.98   3
        67    425.9967    811.9261 300.0498244 +22.7485104     582.6636     72.26858      1.753     6.54     4.395174     20.41518     40.12691        12     1.329     0.905   9.41   0
        68    173.9086    808.2921 299.9725732 +22.6718724     1447.755     72.52648      1.881     4.68     5.070438     20.41518     124.8635        25     1.410     1.216  40.67   0
        69    644.2080    807.2120 300.1193193 +22.8125635     732.3583     72.25012      1.671     5.23     4.483583     20.41518     60.99241        14     1.220     0.848  -9.69   0
        70    193.5358    806.0100 299.9794185 +22.6771051     506.0195     72.32392      1.763     3.59     5.130855     20.41518     38.10041         6     0.794     0.495  84.18   0
        71   1016.8358    795.0074 300.2394931 +22.9206797       1265.2     72.36079      1.975     5.05     4.447152     20.41518     75.03671        27     1.515     1.287  77.88  16
        72    799.8234    794.5508 300.1719416 +22.8555537     4304.193     72.36079      1.735     3.76     4.586793     20.41518     316.8367        38     1.402     1.293  37.05   0
        73    208.7150    788.2186 299.9899218 +22.6765559     359.4769     72.30547      1.443     3.80     4.992996     20.41518     43.96605         6     0.903     0.646  -5.98   0
        74    516.9159    787.0185 300.0862297 +22.7686184     516.4188     72.28703      1.599     5.42      4.31134     20.41518      56.7457        11     0.961     0.911 -32.62   0
        75    162.9776    784.4282 299.9769305 +22.6617509      971.362     72.36079      1.926     6.67     4.532972     20.41518     85.28252        19     1.445     1.134  30.73   0
        76    578.7634    780.5244 300.1076042 +22.7852911     544.3101     72.32392      1.664     3.78     4.428617     20.41518     53.78794         9     0.909     0.736 -27.28   0
        77    312.8960    776.9351 300.0259976 +22.7045619     54021.57     72.47129      1.730     3.48     4.974474     20.41518     4848.866        95     1.529     1.462  34.11   0
        78    647.6193    779.6030 300.1293565 +22.8056608     250.5617     72.28703      1.835     6.37     4.479311     20.41518     28.75759         7     1.272     0.896   0.14   0
        79    570.8032    776.1865 300.1065345 +22.7816605     1748.137     72.19472      1.651     3.59     4.424702     20.41518     148.3763        20     1.149     1.066 -25.57   0
        80    983.7678    775.7791 300.2354233 +22.9052544     829.5733     72.36079      1.750     5.14     4.629887     20.41518     65.66341        14     1.224     0.835  34.64   0
        81    241.3582    775.0920 300.0043410 +22.6825812     408.4096     72.36079      1.534     4.54     4.982294     20.41518     55.23444         9     1.177     0.667  25.68   0
        82    599.6914    772.0594 300.1168752 +22.7891333      941.418     72.43448      1.571     3.82     4.434595     20.41518     80.70842        14     1.049     0.909 -14.29   0
        83    610.8582    770.5684 300.1208388 +22.7920517     644.3178     72.37922      1.872     5.17      4.43995     20.41518     51.07173        14     1.216     1.033 -37.82   0
        84    929.7495    767.6227 300.2212190 +22.8867354     284.8808     72.36079      1.534     4.49     4.733644     20.41518     39.25278         5     0.833     0.687 -47.29   0
        85    716.3073    767.0991 300.1548276 +22.8226518     469.2328     72.54487      1.559     4.76     4.540781     20.41518     39.86069         9     0.968     0.664 -19.41   0
        86    362.6092    754.1931 300.0488585 +22.7129434     31595.38     72.19472      1.665     3.40      4.58646     20.41518     2722.812        77     1.461     1.383  50.15   0
        87    753.7464    757.0315 300.1697705 +22.8309774     857.5109     72.37922      1.705     4.04     4.563227     20.41518     65.88779        16     1.135     1.009  20.51   0
        88    376.8668    754.8087 300.0530959 +22.7173944      2045.96     72.36079      1.659     3.43     4.511547     20.41518     200.1372        27     1.259     1.210  42.50   0
        89    885.8475    750.3488 300.2131375 +22.8686262     2641.357     72.39764      1.688     3.87     4.953888     20.41518     192.1413        25     1.281     1.164  25.97   0
        90    915.5061    749.8080 300.2225654 +22.8773529      320.434     72.26858      1.574     4.78     4.872837     20.41518     25.23203         6     0.967     0.670   8.50   0
        91    373.9598    748.5992 300.0542091 +22.7147415     690.6973     72.37922      1.685     4.61     4.468609     20.41518     69.96292        12     1.207     0.820  67.87   1
        92    643.6361    746.0568 300.1390181 +22.7948374      1056.78     72.36079      1.790     4.12     4.463013     20.41518     92.85252        21     1.246     1.163  65.86   0
        93    480.1358    746.4735 300.0879534 +22.7459591     411.3689     72.39764      1.569     4.73     4.171536     20.41518     44.35937         9     1.010     0.727 -67.21   0
        94    245.2286    746.0165 300.0149938 +22.6754027     760.7085     72.36079      1.543     3.45     4.610743     20.41518     105.8722        12     1.045     0.849   6.97   0
        95    490.9971    741.0374 300.0931021 +22.7476545     791.1743     72.39764      1.510     3.31     4.206276     20.41518     85.11468        17     1.178     0.920  22.26   0
        96     49.8726    741.6342 299.9556765 +22.6155535     341.9206     72.36079      1.463     6.11     5.145586     20.41518      43.3139        11     1.231     0.852 -35.93   0
        97    892.1110    738.2939 300.2190091 +22.8670396     553.7512     72.54487      1.718     5.49      4.98731     20.41518     53.64774        11     1.356     0.689  35.83   0
        98     78.1490    735.5819 299.9664317 +22.6223004     434.0971     72.34235      1.994     5.24     5.096035     20.41518     64.95142         8     1.506     0.516 -52.53   0
        99    645.5829    736.1058 300.1428586 +22.7925640     315.2892     72.28703      1.430     3.20     4.467817     20.41518     38.91262         5     0.737     0.453 -70.49   0
       100    437.2142    736.3677 300.0778737 +22.7301938     305.2401     72.36079      1.325     2.06     4.193407     20.41518     45.98621         5     0.674     0.465  15.16   0
       101    869.7852    733.4019 300.2136349 +22.8589483     428.2419     72.21319      1.749     5.45     5.055363     20.41518     42.00306        10     1.023     0.820  26.46   0
       102    243.2727    730.1783 300.0195320 +22.6702734      525.775     72.37922      1.291     2.56     4.537436     20.41518     72.51829         7     0.737     0.636  88.99   0
       103    371.3802    725.9940 300.0607519 +22.7074825     2170.821     72.32392      0.571     0.62      4.40835     20.41518     1335.691         6     0.537     0.238   1.52   0
       104    566.0347    720.7604 300.1230616 +22.7643229     509.2639     72.39764      1.778     6.36     4.460961     20.41518     43.26623        12     1.217     1.043  77.06   0
       105    535.7131    719.0872 300.1141607 +22.7547561     592.8832     72.48969      1.442     3.31     4.393726     20.41518     70.29945        13     0.963     0.910 -29.75   0
       106    445.0217    718.6680 300.0860558 +22.7274550     353.4935     72.36079      1.862     2.93      4.24581     20.41518     42.37864         5     0.983     0.521 -39.38   0
       107    952.2198    715.7485 300.2450889 +22.8785626     4442.123     72.34235      1.717     3.65     4.969212     20.41518     322.6563        37     1.390     1.271  36.28   0
       108    557.6367    716.4578 300.1218437 +22.7605713     1461.681     72.36079      1.603     4.00     4.456487     20.41518     137.6411        21     1.165     1.153  25.28   0
       109    477.9571    715.9581 300.0971911 +22.7365489     342.2412     72.47129      1.532     3.15     4.245807     20.41518     45.24002         6     0.876     0.653  45.01   0
       110    940.8028    707.1594 300.2443176 +22.8726766     1691.166     72.37922      1.642     3.55     5.020498     20.41518     146.8673        25     1.226     1.183  63.07   0
       111    303.6238    700.7154 300.0478804 +22.6799170     975.7519     72.34235      1.728     2.92     4.674236     20.41518     106.3766        15     1.018     0.911  18.00   0
       112    767.1395    698.2495 300.1930481 +22.8181096     2656.321     72.41606      1.649     3.57     4.796845     20.41518     218.5601        33     1.493     1.176   9.97   0
       113    971.7891    697.1934 300.2572248 +22.8790910     1584.711     72.23166      1.670     3.62     4.964335     20.41518     131.1394        23     1.219     1.116  24.15   0
       114    849.5058    684.1481 300.2233145 +22.8387279     554.2744     72.43448      1.682     3.41     5.191427     20.41518     56.53407        11     1.046     0.700  37.77   0
       115    152.5311    684.1776 300.0062573 +22.6298685     606.2415     72.37922      1.694     5.25      4.57755     20.41518     68.38998        14     1.299     0.925  73.14   0
       116    885.4824    675.2515 300.2374267 +22.8469456     148586.6     72.37922      1.676     3.34     5.272198     20.41518     12971.64       160     1.526     1.498 -49.03   0
       117    648.0298    678.9835 300.1621819 +22.7768974     437.3405     72.36079      1.833     4.54     4.853012     20.41518     46.94661         7     1.182     0.495  24.49   0
       118    737.9121    675.7516 300.1912461 +22.8028943     760.8376     72.36079      1.524     3.79     4.882126     20.41518     75.88406        13     1.118     0.797  58.47   0
       119    918.3498    668.4344 300.2498949 +22.8548285     381.6637     72.37922      1.400     4.03     5.221566     20.41518     47.60363         8     1.052     0.494  -2.19   0
       120    571.6282    664.0428 300.1432319 +22.7497176      1755.53     72.37922      1.463     2.85     4.715977     20.41518     207.9073        24     1.130     1.091   1.89   0
       121    752.9849    661.3370 300.2006281 +22.8032692     9499.377     72.32392      1.514     3.00     4.930592     20.41518     900.9682        46     1.300     1.219  89.91   0
       122    254.5050    656.2659 300.0470392 +22.6524387     4975.152     72.48969      1.615     2.83     4.884726     20.41518     543.2063        36     1.306     1.201  48.88   0
       123    336.4541    654.3439 300.0731609 +22.6764543     1139.855     72.41606      1.533     3.47     4.800227     20.41518     100.7141        19     1.149     1.001  34.50   0
       124    212.3219    651.3925 300.0355013 +22.6383933     447.8963     72.28703      1.525     5.23     4.852929     20.41518     49.01148         9     1.392     0.555  42.70   0
       125    544.6470    649.8797 300.1394284 +22.7375674     857.0358     72.37922      1.634     5.36     4.684062     20.41518     83.07124        13     1.231     0.820  49.28   0
       126    536.3816    642.0237 300.1394060 +22.7328356     3229.895     72.36079      1.505     3.11      4.74881     20.41518     339.9413        28     1.221     1.076  38.66   0
       127    526.6019    635.6870 300.1384184 +22.7280861      1366.71     72.28703      1.513     2.95      4.79733     20.41518     170.9829        17     1.052     0.946  32.83   0
       128    455.5669    635.1698 300.1164658 +22.7066518     303.1876     72.37922      1.559     1.94     4.712264     20.41518     44.15844         5     0.670     0.460 -67.84   0
       129    920.4080    633.3889 300.2619222 +22.8453759     462.6778     72.25012      1.416     4.74     5.217978     20.41518     46.68206         8     0.985     0.778 -74.93   0
       130    189.7449    631.6458 300.0348937 +22.6259595     794.3439     72.39764      1.655     4.29     4.907435     20.41518     77.18414        15     1.206     0.917  39.72   0
       131    204.3884    630.4115 300.0398487 +22.6299959     657.7351     72.25012      1.597     3.35     4.927397     20.41518     59.14338        11     0.927     0.798 -77.57   0
       132    973.6069    627.3826 300.2804727 +22.8595763     395.2257     72.30547      1.389     4.10     5.030447     20.41518     48.43726        10     0.980     0.815 -15.28   0
       133    261.3501    627.4742 300.0585207 +22.6462306     294.8381     72.36079      1.796     3.82     4.918312     20.41518     40.01915         5     0.997     0.420  75.47   0
       134    230.1009    627.0492 300.0489381 +22.6367403      524.051     72.41606      1.508     4.77     4.943044     20.41518     46.30859         8     0.874     0.737  59.98   0
       135    550.6077    625.9206 300.1490678 +22.7324751     459.0451     72.28703      1.479     4.76     4.919747     20.41518     52.29225        10     0.985     0.829 -64.16   0
       136    451.4278    625.4999 300.1183180 +22.7026358     1867.758     72.30547      1.553     2.79      4.77909     20.41518     250.6315        24     1.225     1.046   1.37   0
       137    105.3498    620.2921 300.0123399 +22.5973967      19992.9     72.39764      1.793     3.53     5.235459     20.41518     1942.344        60     1.510     1.397  37.72   0
       138     26.7271    622.0991 299.9873152 +22.5743362     693.6545     72.50809      1.831     4.45     5.386724     20.41518     55.71825        13     0.996     0.971 -30.45   0
       139    536.5296    620.6475 300.1463955 +22.7267432     1184.555     72.34235      1.689     3.38     4.940477     20.41518     121.1783        19     1.276     1.026 -82.67   0
       140    571.6559    619.9774 300.1575547 +22.7370749     439.4607     72.39764      1.408     3.57     5.035182     20.41518     52.34087         8     1.065     0.581 -23.56   0
       141    954.5866    607.4960 300.2809971 +22.8481679     1063.682     72.28703      1.633     3.49     5.114985     20.41518     93.59617        21     1.318     0.962  -0.92   0
       142     51.4957    604.5851 300.0007009 +22.5767418     1425.981     72.28703      2.021     5.34     5.365783     20.41518       96.879        28     1.639     1.194  70.20   0
       143    821.5490    605.7126 300.2400759 +22.8078249     425.2725     72.37922      1.295     3.26     5.127618     20.41518      55.8447         7     0.840     0.604   5.84   0
       144    117.7060    604.6127 300.0212734 +22.5966046     414.1555     72.28703      1.572     4.56     5.230749     20.41518     50.60164         8     1.210     0.805  89.41   0
       145    499.8091    601.4483 300.1411950 +22.7102291     563.3685     72.37922      1.607     3.13     5.073758     20.41518      56.7371         8     0.903     0.623   8.83   0
       146    893.7919    599.8851 300.2645016 +22.8277809     1060.313     72.28703      2.509     7.69     5.293354     20.41518     69.20354        20     1.823     0.908  -3.08   0
       147    292.6540    600.5343 300.0770094 +22.6478847     250.5014     72.39764      1.390     3.76     4.912931     20.41518     37.36469         6     0.958     0.425  17.72   0
       148    456.7301    593.8305 300.1302547 +22.6951342     828.0457     72.36079      1.590     3.12     4.987751     20.41518     85.36887        12     0.903     0.878   1.18   0
       149    604.6250    592.4985 300.1767507 +22.7390617     486.4354     72.30547      1.664     3.47     5.284829     20.41518     64.69117         8     1.071     0.578  57.31   0
       150    651.8636    591.2438 300.1918774 +22.7528514     365.5308     72.36079      1.230     3.44     5.163887     20.41518     60.39733        11     1.032     0.818  20.40   0
       151    622.0674    590.6781 300.1827765 +22.7437638     661.4568     72.47129      1.852     4.20     5.256411     20.41518     60.87158        11     1.197     0.662  28.38   0
       152    501.1107    589.5286 300.1454715 +22.7071972     961.9724     72.52648      1.603     3.73     5.121837     20.41518     106.2338        16     1.315     0.875  25.78   0
       153    934.5723    585.1899 300.2819972 +22.8357667     3425.783     72.36079      1.617     3.22     5.237915     20.41518     326.3545        35     1.385     1.211  34.72   0
       154    466.2672    584.9731 300.1361008 +22.6954494     1659.463     72.34235      1.380     2.99     5.049561     20.41518     189.6114        20     1.069     1.018 -66.26   0
       155    831.2484    582.6863 300.2505794 +22.8041140     189.9555     72.34235      1.442     2.03     5.313745     20.41518     54.33659         5     0.714     0.424 -19.09   0
       156    804.2389    581.8183 300.2424384 +22.7957774     95.74397     72.37922      0.960     3.41     5.243818     20.41518       32.855         5     0.964     0.348  43.56   0
       157    442.2712    580.3788 300.1301215 +22.6869403     230.4395     72.36079      0.968     3.50      4.99566     20.41518     39.48436         5     0.778     0.454  15.67   0
       158     28.1727    578.3996 300.0019557 +22.5622376     5151.513     72.32392      1.841     3.59      5.47697     20.41518     534.8984        41     1.435     1.370  44.23   0
       159    973.6753    575.9779 300.2971906 +22.8448244     280.5703     72.34235      1.355     3.72      5.07355     20.41518      36.7528         7     0.739     0.693 -76.69   0
       160    495.7270    575.5656 300.1483295 +22.7015755     304.0779     72.34235      1.273     3.00     5.166416     20.41518      40.3186         5     0.735     0.431  24.27   0
       161    329.6222    571.6737 300.0978848 +22.6506831     9173.971     72.37922      1.559     2.94     4.982632     20.41518     1084.487        43     1.314     1.238  75.33   0
       162    452.1092    568.8242 300.1369368 +22.6865712     9187.613     72.30547      1.454     2.82     5.068276     20.41518     1007.649        40     1.213     1.179  75.28   0
       163    698.6946    565.1469 300.2149478 +22.7593825     380.6313     72.43448      1.366     2.80     5.228563     20.41518     43.87046         7     0.829     0.569  63.01   0
       164    863.7828    562.8855 300.2671571 +22.8081657     1998.557     72.32392      1.565     3.21     5.484489     20.41518     184.2342        26     1.391     1.074  74.70   0
       165    948.4750    560.3818 300.2943919 +22.8327992     12408.79     72.36079      1.625     3.11     5.227055     20.41518     1187.915        50     1.334     1.307 -85.15   0
       166    512.6719    558.4356 300.1591692 +22.7017342     11658.26     72.34236      1.440     2.65     5.314484     20.41518     1430.624        40     1.200     1.149  46.16   0
       167    682.1258    554.3976 300.2132743 +22.7513329      527.163     72.26858      1.208     2.74     5.292986     20.41518     64.52151        10     0.852     0.748  84.26   0
       168    240.2066    553.7341 300.0758905 +22.6187343     1392.804     72.36079      1.538     3.25      5.07022     20.41518     157.2061        21     1.196     1.031  52.91   0
       169    398.0179    553.4152 300.1251008 +22.6659397     261.9713     72.34235      1.360     4.34     5.073568     20.41518     41.70034         5     1.089     0.492   1.34   0
       170    487.1236    551.2365 300.1535506 +22.6920131     394.6797     72.32392      1.353     4.62     5.215795     20.41518     62.32615         9     0.861     0.759  49.24   0
       171    444.3965    546.5510 300.1417679 +22.6778662     4483.844     72.36079      1.483     2.64     5.143956     20.41518     566.9604        36     1.296     1.123  45.17   0
       172    787.2404    546.8426 300.2484960 +22.7806395     654.6635     72.45289      1.281     2.82     5.489945     20.41518     88.29064        12     0.972     0.776 -57.24   0
       173    422.8335    544.9073 300.1355884 +22.6709334     1327.034     72.30547      1.514     2.71     5.125759     20.41518     178.2454        21     1.144     1.029  10.26   0
       174    864.2770    542.3419 300.2739825 +22.8024106     1593.621     72.39764      1.601     3.20     5.543472     20.41518     163.2109        23     1.199     1.081 -11.33   0
       175    110.6136    541.9977 300.0394005 +22.5765167     327.0732     72.19472      1.467     4.35     5.109789     20.41518     37.37547         5     1.120     0.480  85.46   0
       176    384.7357    540.3155 300.1252198 +22.6581994     439.5296     72.45289      1.538     3.57     5.118093     20.41518     48.65946         8     1.045     0.632  60.71   0
       177    744.6143    539.0844 300.2377251 +22.7656473     742.7407     72.32392      1.371     3.48     5.339402     20.41518     91.93855        14     1.086     0.879  63.06   0
       178    561.0148    534.1606 300.1821089 +22.7092461     206253.8     72.37922      1.429     2.80     5.571977     20.41518     21358.56       193     1.482     1.422 -12.92   0
       179    837.4164    537.3366 300.2672300 +22.7929311     142.2148     72.34235      1.070     3.41     5.529136     20.41518     36.09855         5     0.737     0.457  71.39   0
       180    247.1088    534.0480 300.0844293 +22.6151542     3531.745     72.37922      1.491     2.88     5.086719     20.41518     383.1877        28     1.205     1.122  56.77   0
       181    176.8943    544.2256 300.0592862 +22.5970270     593.0446     72.28703      1.529     4.80     4.953295     20.41518     72.18604        13     1.229     0.868  36.29   0
       182    813.2370    530.4015 300.2619411 +22.7836994     573.1052     72.37922      1.637     4.63     5.509064     20.41518     59.86485         9     1.112     0.670 -52.12   0
       183    592.3887    520.7415 300.1962396 +22.7147900       331.97     72.30547      1.603     4.34     5.555278     20.41518     38.55416         8     0.934     0.670 -71.53   0
       184    451.6275    514.4371 300.1544460 +22.6708131     2870.609     72.37922      1.534     2.54     5.179291     20.41518     336.4745        24     1.139     1.018  88.19   2
       185    296.2572    516.7244 300.1053443 +22.6249131     522.2847     72.39764      1.636     3.29      5.09015     20.41518     56.86617        10     1.039     0.690 -86.29   0
       186    902.0200    514.9923 300.2946366 +22.8058496     185.1819     72.32392      1.324     3.13     5.418509     20.41518     39.18474         5     0.950     0.379  28.92   0
       187    863.6108    511.3803 300.2838278 +22.7933143      330.425     72.34236      1.386     4.08     5.454585     20.41518     37.05949         6     0.892     0.534  45.84   0
       188    682.3326    510.3206 300.2276503 +22.7387343     218.6315     72.47129      1.147     3.36     5.389355     20.41518     36.18522         6     0.846     0.511 -45.04   0
       189    768.5242    503.3452 300.2567835 +22.7625388     309.9361     72.39764      1.375     3.25     5.281141     20.41518     52.66167         7     0.829     0.684 -15.21   0
       190    848.6942    500.7242 300.2826349 +22.7857868     1536.172     72.50809      1.454     3.06     5.425911     20.41518     166.0512        19     1.096     0.989 -16.98   0
       191    735.4936    500.5977 300.2473776 +22.7518597     311.7734     72.26858      1.120     4.13     5.130808     20.41518     43.06273         5     1.102     0.442  55.00   0
       192    719.8512    498.3330 300.2432366 +22.7465254     2643.872     72.37922      1.462     2.88     5.198309     20.41518     299.0735        26     1.157     1.089 -80.91   0
       193    964.1800    496.3703 300.3200772 +22.8191021     352.2169     72.36079      1.237     3.49     5.344405     20.41518      50.6153         5     0.808     0.435  17.98   2
       194    963.0116    491.7308 300.3212189 +22.8174188     795.0694     72.37922      1.952     5.24     5.360552     20.41518     72.33762        19     1.613     0.945  64.91   2
       195    929.5529    496.0317 300.3093825 +22.8086413     288.5432     72.39764      1.429     5.07     5.392072     20.41518     28.99758         6     0.919     0.792  -2.39   0
       196    624.9567    494.9831 300.2147495 +22.7171463     411.3876     72.37922      1.277     3.29     5.519313     20.41518      50.1141         9     0.806     0.750 -26.43   0
       197    507.2184    494.2399 300.1783137 +22.6816678     823.1505     72.37922      1.437     2.90     5.408505     20.41518      81.7867        13     0.982     0.806  55.65   0
       198    977.2805    492.5603 300.3254024 +22.8219275     1364.906     72.32392      1.526     2.92     5.341164     20.41518      145.662        19     1.088     1.045  84.28   0
       199    848.9885    490.8983 300.2859167 +22.7830513     2175.913     72.25012      1.615     3.86     5.397238     20.41518     226.7965        29     1.533     1.051  82.58   0
       200    602.0219    487.7395 300.2099550 +22.7081970     897.6877     72.32392      2.310     6.20     5.550562     20.41518     77.80325        19     1.852     0.956  84.41   0
       201    887.1408    485.9846 300.2994126 +22.7930594     4242.208     72.32392      1.470     2.88     5.388283     20.41518     423.7937        32     1.206     1.159  66.32   0
       202    440.4806    487.1952 300.1598192 +22.6596521     305.8228     72.28703      1.505     5.80     5.167742     20.41518     46.50025         9     1.213     0.781  42.54   0
       203    547.7891    481.5486 300.1950698 +22.6901758      371.422     72.36079      1.489     5.05     5.652703     20.41518     45.36401         9     1.154     0.671  20.59   0
       204    979.0120    476.4327 300.3311785 +22.8178098     681.8503     72.34235      1.474     4.43     5.400544     20.41518     84.74252        14     1.275     0.887  75.66   0
       205    119.1640    476.0869 300.0634555 +22.5601706     969.5225     72.34235      1.520     3.23     4.910111     20.41518     120.0523        16     1.188     0.822 -31.12   0
       206    918.3688    474.0791 300.3130197 +22.7989843     209.6503     72.36079      1.287     4.34     5.387506     20.41518     32.47269         6     0.916     0.584  -3.36   0
       207    780.2386    470.1619 300.2712086 +22.7565116      323.393     72.43448      1.356     3.79       5.2061     20.41518     42.17783         5     0.893     0.463  42.74   0
       208    975.1932    465.8137 300.3334339 +22.8136144     329.3485     72.25012      1.375     3.92     5.398955     20.41518     46.95074         8     1.197     0.526  16.16   0
       209    111.7941    465.9915 300.0644409 +22.5550647     445.7209     72.21319      2.269     5.19     4.913339     20.41518     36.87724         7     0.987     0.771  60.43   0
       210    719.2538    460.4711 300.2553413 +22.7354689     409.1093     72.37922      1.170     2.66     5.148667     20.41518       63.261         7     0.791     0.611 -83.54   0
       211    328.2705    458.8031 300.1341078 +22.6178811     313.6784     72.30547      1.241     3.31     5.169518     20.41518     44.31577         6     0.899     0.606  16.07   0
       212    608.3555    458.3275 300.2214759 +22.7016459     365.1477     72.34236      1.356     3.11     5.504622     20.41518     56.60405         5     0.753     0.442  15.10   0
       213    660.5878    456.3813 300.2383836 +22.7167280     697.1035     72.32392      1.280     2.81     5.478494     20.41518     92.63072        14     1.020     0.836 -81.72   0
       214    975.2294    449.0583 300.3388842 +22.8088086     512.2721     72.36079      1.419     3.57     5.396524     20.41518     70.57079        11     1.075     0.849  40.35   0
       215    721.4343    448.5962 300.2598756 +22.7327100     773.9767     72.36079      1.276     2.86     5.131945     20.41518     103.4603        13     0.936     0.851 -20.57   0
       216    878.4623    445.1028 300.3099761 +22.7787121     925.3776     72.45289      1.395     2.73     5.250915     20.41518     119.8422        14     0.946     0.875   3.37   0
       217    836.8265    442.9863 300.2976764 +22.7656418     278.1858     72.36079      1.406     4.56     5.170479     20.41518     32.32909         7     0.853     0.692  30.56   0
       218    862.7009    441.4130 300.3062574 +22.7729342     478.5745     72.26858      1.218     3.57     5.197601     20.41518     61.58432        10     1.023     0.726  71.82   0
       219    842.9218    441.2468 300.3001420 +22.7669663     363.8846     72.36079      1.773     4.48     5.168719     20.41518     44.62337         7     0.965     0.626  18.95   0
       220    607.1733    439.0859 300.2273529 +22.6957648     3357.103     72.36079      1.417     2.83     5.477124     20.41518     373.6969        28     1.192     1.043  88.11   0
       221    967.2627    438.3148 300.3398852 +22.8033361     346.2536     72.47129      1.322     3.43     5.392219     20.41518     50.46316         6     0.707     0.665 -84.64   0
       222    447.0757    426.2213 300.1816634 +22.6441199     312.1002     72.36079      1.390     4.33     5.264566     20.41518     37.27128         6     0.913     0.610 -16.69   0
       223   1018.4824    418.3665 300.3623453 +22.8129268     1350.722     72.32392      1.584     3.57      5.41361     20.41518     139.3851        23     1.287     1.078  85.64  16
       224    976.9196    417.2989 300.3497199 +22.8001839        829.2     72.48969      1.336     2.90     5.392966     20.41518     95.78866        13     0.971     0.839  83.60   0
       225    890.6573    418.0913 300.3225475 +22.7745980     562.9886     72.41606      1.552     3.61     5.211595     20.41518     56.26892        10     1.018     0.731   8.04   0
       226    805.8887    416.3298 300.2966797 +22.7487205     761.8593     72.52648      0.601     0.97     4.962565     20.41518     510.7522         5     0.471     0.380 -83.38   0
       227    626.8565    415.1478 300.2412550 +22.6947823     239.7173     72.41606      1.135     2.61     5.439563     20.41518      48.5304         6     0.868     0.447  53.82   0
       228    717.7074    413.1408 300.2702211 +22.7214069     1149.215     72.43448      1.375     2.63     5.161575     20.41518     150.2451        18     1.087     0.912  47.40   0
       229    513.7242    413.3905 300.2065819 +22.6603981      399.595     72.34235      1.242     3.01     5.413839     20.41518     56.28461         9     0.859     0.725 -84.42   0
       230    221.7091    410.8351 300.1165218 +22.5721803     664.0151     72.32392      1.494     3.79     4.967159     20.41518     78.35684        15     1.097     0.978  71.54   0
       231    283.9873    406.8318 300.1371952 +22.5896930     3829.193     72.34235      1.432     2.76     5.270841     20.41518     440.5261        28     1.178     1.093  63.38   0
       232   1017.2366    405.6275 300.3660909 +22.8088913      4292.06     72.36079      1.601     3.13     5.332556     20.41518     423.7054        34     1.265     1.236  73.29  16
       233    231.1980    401.4875 300.1225067 +22.5723407     7640.257     72.28703      1.558     2.87     5.053648     20.41518     915.3826        41     1.339     1.214  59.82   0
       234    997.1360    396.7252 300.3627062 +22.8003177      1863.84     72.39764      1.516     2.87     5.264655     20.41518     218.3086        23     1.143     1.069 -86.68   0
       235    371.9963    395.8402 300.1681499 +22.6129052     4980.922     72.37922      1.452     2.79     5.299712     20.41518     575.4442        34     1.230     1.123  63.22   0
       236    616.2509    392.6588 300.2452484 +22.6851459     18632.75     72.41606      1.413     2.54     5.445359     20.41518     2297.145        58     1.296     1.254  39.63   0
       237    463.7633    394.0284 300.1973065 +22.6398734     298.7978     72.37922      1.475     4.11      5.29133     20.41518      34.7582         5     0.836     0.578  -3.41   0
       238    633.8129    392.6518 300.2507230 +22.6904023     875.4537     72.39764      1.988     6.80     5.445359     20.41518     61.70345        15     1.408     0.921 -31.42   0
       239    813.7469    383.4550 300.3097989 +22.7416242      375.019     72.39764      1.266     4.36     4.953661     20.41518     45.89076         7     0.881     0.614  82.79   0
       240    236.7013    379.5957 300.1313220 +22.5677058     318.2631     72.25012      1.571     3.90     5.180866     20.41518     39.56677         7     0.896     0.613 -70.15   0
       241    949.8618    375.3401 300.3548929 +22.7800246     660.3859     72.39764      1.444     3.26     5.129546     20.41518      79.8035        13     1.028     0.831 -84.21   0
       242    170.8909    372.5721 300.1131319 +22.5459689     2016.321     72.34235      1.594     3.18     5.025534     20.41518     208.5076        24     1.216     1.128  45.43   0
       243    487.2720    374.6127 300.2109271 +22.6413382     356.4333     72.37922      1.152     2.62     5.316314     20.41518     41.03225         5     0.702     0.464 -16.38   0
       244    184.4219    368.2043 300.1187571 +22.5487701     225.3621     72.32392      1.421     4.33     5.082929     20.41518     26.67908         5     0.938     0.569 -41.27   0
       245    556.9643    362.0800 300.2367000 +22.6586088     6698.757     72.30547      1.386     2.56     5.380087     20.41518     815.1588        34     1.183     1.085  78.24   0
       246    970.5844    362.6268 300.3654848 +22.7825694     1309.608     72.37922      1.636     2.84     5.045265     20.41518      155.963        18     1.074     1.008  31.08   0
       247    271.6762    361.2878 300.1481426 +22.5729296      717.613     72.48969      1.469     3.50     5.297662     20.41518     86.61956        10     1.055     0.759  45.83   0
       248    129.5113    354.3264 300.1061843 +22.5283312     464.1082     72.52648      1.493     3.51     5.031461     20.41518     63.29513         8     1.054     0.669 -87.72   0
       249    670.3048    352.4240 300.2751482 +22.6897694     411.2249     72.25012      1.349     3.57     5.455633     20.41518     53.61637         8     1.009     0.726 -72.72   0
       250    761.0862    351.0553 300.3038910 +22.7165505      1095.67     72.41606      1.402     2.93     5.204089     20.41518     135.6902        17     1.123     0.976  63.25   0
       251    463.5681    348.3065 300.2120808 +22.6266834     6042.556     72.28703      1.367     2.50     5.336892     20.41518     792.0312        33     1.150     1.087  65.07   0
       252    855.6371    342.9238 300.3360150 +22.7425104      1442.86     72.32392      1.458     2.68     4.992039     20.41518     174.3896        20     1.090     0.963  85.68   0
       253    953.1468    343.3676 300.3662921 +22.7718147     512.1505     72.37922      1.332     4.22     4.986096     20.41518     65.29287         8     0.964     0.600 -10.14   0
       254    447.9720    337.3649 300.2107744 +22.6188699     460.4967     72.37922      1.475     5.00     5.352636     20.41518     57.24068         8     0.946     0.748 -82.21   0
       255    531.2950    335.0571 300.2374714 +22.6431595     480.7619     72.43448      1.432     3.22     5.335371     20.41518     59.26889         8     0.912     0.745 -88.79   0
       256    828.4638    330.6978 300.3315063 +22.7308642     617.5806     72.47129      1.308     2.60     4.943452     20.41518     76.69392         9     0.944     0.584  -8.60   0
       257    351.1676    327.4358 300.1838606 +22.5870237     2674.151     72.37922      1.435     2.57     5.363131     20.41518     318.5544        27     1.171     1.058  78.19   0
       258     69.8515    324.8188 300.0972090 +22.5019826     997.1606     72.34235      1.640     2.73     5.397344     20.41518     138.3797        18     1.222     0.969  36.77   0
       259    320.4168    316.8705 300.1777179 +22.5747783     30121.67     72.37922      1.472     2.67     5.347445     20.41518      3867.55        71     1.379     1.259  68.83   0
       260    855.1673    314.7042 300.3450236 +22.7342573     1481.351     72.34235      1.452     2.76     4.966748     20.41518     182.6557        20     1.165     0.924  47.58   0
       261     16.7639    304.5233 300.0872918 +22.4802470     4798.097     72.32392      1.699     3.43     5.636405     20.41518     493.2559        38     1.425     1.279  57.13   0
       262    894.4257    303.5373 300.3608925 +22.7427935     438.5999     72.36079      2.650     4.93     4.966836     20.41518     28.44485         5     1.159     0.593 -57.65   0
       263    770.3452    303.4609 300.3222184 +22.7056419     623.7706     72.41606      1.518     3.53     4.912881     20.41518     71.78899        12     1.112     0.788  52.24   0
       264    419.0407    302.5209 300.2130699 +22.6001974     511.1549     72.34235      1.249     2.45     5.401299     20.41518      68.2521         7     0.854     0.555 -52.98   0
       265    194.3540    302.9508 300.1430143 +22.5330148     417.7752     72.37922      1.715     2.80     5.425983     20.41518     63.33199         8     1.041     0.733  -5.61   0
       266    730.8707    296.8174 300.3120663 +22.6919182     2054.043     72.37922      1.436     2.81     4.916022     20.41518     254.5264        22     1.117     0.986 -88.09   0
       267    945.8775    290.1857 300.3812767 +22.7543477     683.7912     72.37922      1.357     2.72     4.938142     20.41518      91.9476        11     0.899     0.783 -17.85   0
       268    539.0538    291.4318 300.2540397 +22.6329496     308.8804     72.37922      1.430     4.55     5.338055     20.41518     41.23595         6     0.908     0.648  34.86   0
       269    392.7164    281.3820 300.2117314 +22.5862420     2192.619     72.32392      1.590     3.07     5.431386     20.41518     250.1756        25     1.300     1.049  66.91   0
       270    831.8649    274.3584 300.3508429 +22.7156854     786.9139     72.34235      1.531     3.07     5.023183     20.41518     98.09875        14     1.068     0.849 -77.25   0
       271    714.1136    272.2632 300.3148069 +22.6798454     287.5031     72.47129      1.137     3.18     5.136673     20.41518      52.5567         7     0.758     0.632  12.63   0
       272    682.2296    271.4213 300.3051416 +22.6700606     276.9508     72.36079      1.032     3.43     5.378764     20.41518     37.19762         5     0.807     0.680 -68.50   0
       273    468.4692    260.7610 300.2420044 +22.6030037     1083.378     72.32392      1.300     2.61     5.430241     20.41518     169.3414        16     1.051     0.933  11.19   0
       274    979.8898    256.8095 300.4027164 +22.7549237     394.1602     72.28703      1.945     4.37     4.946689     20.41518     40.20047         6     0.965     0.562  64.76   0
       275    208.8041    255.6748 300.1628415 +22.5237712      174.802     72.26858      1.186     4.22     5.497899     20.41518     39.98108         5     1.159     0.439  61.13   0
       276    851.8220    254.2079 300.3636030 +22.7158633      343.738     72.36079      1.127     3.01     5.131405     20.41518     37.38352         6     0.750     0.554 -47.71   0
       277    713.3625    252.7128 300.3209135 +22.6740012     2232.423     72.34236      1.397     2.58     5.271832     20.41518     290.7347        23     1.141     1.003  87.43   0
       278    974.7367    247.1583 300.4042383 +22.7506066     3024.365     72.34235      1.488     2.81     4.965916     20.41518     333.3889        27     1.226     1.068  58.69   0
       279    521.5513    245.7035 300.2634190 +22.6145710     276.4415     72.39764      1.274     3.46     5.421871     20.41518     37.49006         5     0.999     0.347 -67.62   0
       280    421.6935    236.1473 300.2354223 +22.5819264     495.9933     72.41606      1.243     2.88     5.438191     20.41518     94.62772        10     0.899     0.762 -72.34   0
       281    127.4980    230.4008 300.1457520 +22.4921558     590.9429     72.23166      1.420     4.41     5.501706     20.41518     81.22486        13     1.277     0.844  72.95   0
       282     96.7479    230.5976 300.1361276 +22.4829988     1256.236     72.36079      1.722     3.82     5.505604     20.41518     129.8067        22     1.440     1.012 -28.36   0
       283    990.7299    227.4113 300.4156337 +22.7497106     476.2729     72.37922      1.645     4.17     4.964585     20.41518     53.89154         8     1.147     0.772 -51.78   0
       284    845.0714    228.1528 300.3699472 +22.7063519     95.46455     72.34235      1.141     5.02     5.286354     20.41518     27.35128         6     1.336     0.534 -19.16   0
       285    834.0305    224.4297 300.3677109 +22.7019781     361.2091     72.34235      1.385     3.90     5.330198     20.41518     42.93539         6     0.995     0.438 -14.93   0
       286    181.0288    222.7404 300.1648823 +22.5059941     424.8292     72.36079      1.543     3.15     5.508324     20.41518     66.97017         7     0.845     0.686  58.64   0
       287    975.7881    220.5874 300.4131834 +22.7432789       353.52     72.26858      1.136     3.17     5.001445     20.41518     39.52428         5     0.740     0.440  21.86   0
       288    466.1494    220.4119 300.2543667 +22.5907171     198.0635     72.39764      1.842     4.62     5.443069     20.41518     27.72557         5     0.853     0.709 -48.95   0
       289     36.5878    219.2803 300.1210964 +22.4617234     278.2793     72.34236      1.234     3.44     5.674115     20.41518     38.57961         5     0.771     0.443 -70.09   0
       290    856.7819    216.5794 300.3773529 +22.7065275     304.7121     72.36079      1.194     3.10     5.298935     20.41518     60.24916         7     0.999     0.468  48.96   0
       291    785.0287    213.9766 300.3558190 +22.6843113     699.7343     72.36079      1.448     3.07     5.425663     20.41518     86.66251        12     1.039     0.806  78.02   0
       292    375.5851    213.4791 300.2284191 +22.5616076     425.8805     72.37922      1.568     3.58      5.45939     20.41518     55.42544         7     0.938     0.627  44.59   0
       293    883.2288    203.1839 300.3899464 +22.7105872      2022.09     72.36079      1.427     2.68     5.290879     20.41518     255.8913        24     1.234     0.976  65.98   0
       294    301.7915    200.3353 300.2097147 +22.5357329     2189.661     72.34235      1.427     2.88     5.595513     20.41518     251.4986        21     1.134     0.963  50.76   0
       295    379.6835    195.4381 300.2355443 +22.5576524     1024.185     72.32392      1.560     3.01     5.467121     20.41518     115.1239        16     1.062     0.987 -39.88   0
       296    130.5755    194.9693 300.1581968 +22.4829056     362.6611     72.36079      1.454     4.33     5.628686     20.41518     30.77818         5     1.542     0.347 -61.60   0
       297    781.4506    194.8917 300.3608916 +22.6777535     511.8854     72.39764      1.325     3.25     5.443194     20.41518     81.11306        11     1.053     0.749  62.83   0
       298    888.4522    192.0768 300.3951774 +22.7089555     461.8216     72.37922      1.472     3.30     5.326049     20.41518     52.63686         9     0.886     0.732  20.94   0
       299    196.5576    187.5201 300.1811312 +22.5005328     664.5653     72.34236      1.398     3.21     5.675419     20.41518     80.97527        14     1.091     0.839  58.12   0
       300    314.6020    187.0124 300.2180205 +22.5357428      288.745     72.17625      1.210     4.36     5.608187     20.41518     43.97577         7     0.910     0.674  19.24   0
       301    734.3237    184.6823 300.3495081 +22.6607173     1696.389     72.47129      1.390     2.66     5.459948     20.41518     209.1914        17     1.044     0.925  69.52   0
       302    799.1683    184.3870 300.3698225 +22.6800342     745.5951     72.34235      1.500     3.08     5.448311     20.41518     80.27834        11     1.034     0.709  80.10   0
       303    217.9335    181.0093 300.1898909 +22.5050661     591.7423     72.36079      1.354     2.53     5.720428     20.41518     92.56225        10     0.906     0.691  22.31   0
       304   1005.9129    177.5560 300.4365385 +22.7399106     874.9973     72.34235      1.501     2.97      4.93805     20.41518     106.2146        15     1.043     0.843  20.61   0
       305    507.3380    177.1733 300.2812130 +22.5906245     293.9561     72.36079      1.311     3.72     5.437987     20.41518     42.51062         5     0.728     0.720 -15.74   0
       306    738.3849    175.9664 300.3536001 +22.6594267     923.2777     72.34235      1.569     3.51       5.4599     20.41518     100.4394        12     1.070     0.772 -87.04   0
       307    658.8979    175.2332 300.3290610 +22.6354302     1207.839     72.34235      1.344     2.59     5.449338     20.41518      168.078        21     1.183     0.954 -88.95   0
       308    480.5836    171.5099 300.2747168 +22.5809878     366.5617     72.28703      1.219     2.82      5.45631     20.41518     56.53863         5     0.740     0.440 -23.45   0
       309    854.3715    166.9330 300.3926983 +22.6915297     1454.876     72.36079      1.532     2.98     5.439622     20.41518     153.2224        19     1.117     0.993  -6.87   0
       310    585.0458    167.0463 300.3087024 +22.6109744     881.0362     72.39764      1.343     3.45     5.404334     20.41518       121.59        13     1.098     0.882 -11.05   0
       311    866.4658    166.0440 300.3967591 +22.6948919     777.2906     72.34235      1.494     3.40     5.436726     20.41518     82.57912        13     1.018     0.950  -2.69   0
       312    983.1249    156.2543 300.4363324 +22.7269679     1105.059     72.39764      1.568     3.07     5.122213     20.41518      124.891        21     1.297     1.028 -79.36   0
       313      6.8274    152.6838 300.1334368 +22.4336895     555.4901     72.36079      1.666     3.62     6.015947     20.41518      64.4947        11     1.094     0.803  -1.19  16
       314    217.2472    149.1240 300.2000137 +22.4957036     730.2109     72.36079      1.407     3.49     5.856492     20.41518     83.05055        14     1.115     0.831  42.64   0
       315     79.0461    143.8009 300.1587633 +22.4527770     2256.791     72.36079      1.719     3.36     5.869459     20.41518     218.3818        30     1.286     1.268 -84.37   0
       316    902.3224    141.1295 300.4160219 +22.6984514     766.7897     72.47129      1.464     3.56     5.481745     20.41518     98.58853        15     1.157     0.879 -70.93   0
       317    236.4511    137.1097 300.2098818 +22.4980047     5634.033     72.37922      1.542     2.89     5.889417     20.41518     614.8915        36     1.337     1.149  57.24   0
       318     20.5680    131.4454 300.1445911 +22.4317097     1334.744     72.41606      1.844     3.79     6.018305     20.41518     132.2987        24     1.323     1.179  52.17   0
       319    782.5253    129.2288 300.3825142 +22.6591943     223.5297     72.37922      1.852     4.38     5.621469     20.41518     25.42942         5     1.168     0.468 -31.67   0
       320    219.8328    128.1221 300.2076253 +22.4904463     607.4119     72.34235      1.542     3.76     5.925522     20.41518      67.6451        12     1.041     0.904 -47.99   0
       321    880.6325    119.0008 300.4164284 +22.6855992     3693.882     72.32392      1.501     2.77     5.528853     20.41518     391.6739        28     1.222     1.089  83.99   0
       322    984.3455    117.7915 300.4491817 +22.7162678     2756.167     72.36079      1.599     3.09     5.358318     20.41518     282.8136        29     1.249     1.155  59.02   0
       323    429.6563    113.8845 300.2775384 +22.5491835     539.7979     72.45289      1.467     4.69     5.427387     20.41518     69.62948        10     0.983     0.867  31.58   0
       324    544.2746    112.4130 300.3137104 +22.5830691     211.3982     72.37922      1.111     2.85     5.370628     20.41518     40.39633         5     0.725     0.443  21.99   0
       325    354.4561    105.9941 300.2566860 +22.5244027     803.0676     72.34235      1.751     1.98     5.464604     20.41518     79.51888         7     0.703     0.609 -85.86   2
       326    120.4688    103.1559 300.1848150 +22.4535151     581.1694     72.32392      1.557     4.28     5.944899     20.41518     62.37868        13     1.145     0.782  -2.00   0
       327    481.3661    101.2885 300.2977224 +22.5610427     1717.722     72.32392      1.429     2.76     5.459344     20.41518     191.2933        19     1.096     0.979 -79.06   0
       328    409.8043    101.8580 300.2752556 +22.5397847     444.9598     72.32392      1.273     2.64     5.414878     20.41518     61.83776         8     0.809     0.708  -7.85   0
       329    543.1326    100.6144 300.3171787 +22.5793360     383.1204     72.36079      1.408     3.05     5.365561     20.41518     46.41082         7     0.789     0.645 -78.43   0
       330    224.8135     96.8223 300.2193189 +22.4829480     418.5512     72.34235      1.537     3.39     6.031347     20.41518     50.98486         7     0.907     0.648  82.56   0
       331    769.7241     91.0332 300.3909026 +22.6443809     289.4618     72.36079      1.125     4.10     5.735789     20.41518      55.4125         7     1.072     0.651  48.59   0
       332    255.4982     80.9967 300.2339933 +22.4875910     5899.027     72.26858      1.568     2.87     5.761917     20.41518     633.3941        40     1.366     1.207  75.04   0
       333    915.5743     85.6559 300.4381372 +22.6864576     305.3964     72.36079      1.241     3.89     5.600078     20.41518     42.50652         6     0.913     0.475   0.76   0
       334    106.6842     80.6045 300.1878372 +22.4429102     781.9586     72.28703      1.839     5.82     5.989812     20.41518     76.20449        15     1.438     0.959  69.97   0
       335    227.3194     75.2945 300.2270748 +22.4775148     301.8909     72.48969      1.574     4.67     5.756171     20.41518     34.43127         8     1.008     0.614 -15.52   0
       336    270.7311     73.0283 300.2413148 +22.4898632     249.1607     72.32392      1.241     3.78     5.643285     20.41518      29.1248         5     0.824     0.499 -34.88   0
       337     17.4441     71.3747 300.1630875 +22.4135276     238.9186     72.37922      1.186     3.47      6.10241     20.41518     49.62984         5     0.773     0.450  70.43   0
       338    501.5207     66.4412 300.3152923 +22.5570598     6317.882     72.34236      1.492     2.55      5.32842     20.41518     807.9857        39     1.308     1.131  79.66   0
       339    387.0026     65.9672 300.2797883 +22.5226455     789.8643     72.32392      1.515     3.40     5.335405     20.41518     76.71096        12     1.116     0.773  79.10   0
       340    558.6367     61.1055 300.3348122 +22.5726192      334.236     72.36079      1.298     2.04     5.341697     20.41518     57.89898         5     0.703     0.434 -67.95   0
       341    754.1407     56.2658 300.3973109 +22.6297208     778.5174     72.39764      1.470     3.62     5.689923     20.41518     85.22158        12     1.064     0.796 -29.36   0
       342    846.7570     55.3677 300.4264845 +22.6571642     324.1926     72.39764      1.385     4.45     5.813537     20.41518     49.43766         7     0.877     0.642  35.78   0
       343    914.2259     52.7743 300.4483725 +22.6765949     337.1683     72.32392      1.598     3.68     5.803773     20.41518     32.95203         5     1.283     0.303 -31.18   0
       344    629.9274     46.5883 300.3617287 +22.5897777     6245.947     72.37922      1.495     2.76     5.601937     20.41518     821.1526        35     1.292     1.106  85.08   0
       345    552.4684     49.2216 300.3367415 +22.5673572     498.4864     72.36079      1.368     3.85     5.290817     20.41518      55.5968        10     1.149     0.620  13.19   0
       346    404.7547     45.4119 300.2919752 +22.5220527     1356.733     72.36079      1.408     2.84     5.264448     20.41518     200.9491        17     1.174     0.866  85.74   0
       347    671.0464     44.1691 300.3753273 +22.6013844     919.6053     72.39764      1.343     2.95     5.602969     20.41518      114.069        13     1.007     0.763  43.71   0
       348    740.7964     41.6797 300.3978768 +22.6215343     375.5851     72.26858      1.201     3.38     5.652657     20.41518     39.98366         5     0.749     0.441  14.53   0
       349    687.0152     39.9654 300.3816667 +22.6049529      588.129     72.36079      1.440     4.14     5.611152     20.41518     76.46102        12     1.192     0.705 -82.01   0
       350    957.0315     38.0462 300.4665018 +22.6851568     508.0906     72.39764      1.399     3.35     6.008662     20.41518     68.66668        11     1.015     0.881   3.71   0
       351    153.8420     38.1040 300.2162718 +22.4448283     729.7211     72.37922      1.501     3.09     5.985116     20.41518     93.86076        12     0.954     0.945   2.27   0
       352    725.5146     35.6821 300.3950559 +22.6152382     499.2661     72.50809      1.516     3.82     5.634582     20.41518     53.31689         8     0.834     0.769  17.04   0
       353    674.1248     31.4639 300.3804035 +22.5986519     2968.548     72.39764      1.489     2.93     5.603342     20.41518     365.6497        31     1.288     1.136  69.14   0
       354    315.2348     32.4141 300.2683228 +22.4915194     463.9016     72.36079      1.580     3.18     5.236342     20.41518       53.488         9     0.884     0.730 -26.82   0
       355    689.1926     30.5039 300.3854111 +22.6028835     984.6348     72.25012      1.942     4.99     5.612353     20.41518     93.35145        19     1.505     0.946  50.07   0
       356    760.4692     23.2662 300.4099767 +22.6221230     1646.729     72.41606      1.519     2.91     5.707123     20.41518      185.536        25     1.298     1.048  69.61   0
       357    921.1134     21.7367 300.4605785 +22.6697247     347.5431     72.47129      1.525     5.48     5.994753     20.41518     39.07841         9     1.286     0.658 -36.04   0
       358    698.5945     16.2052 300.3929745 +22.6015841     633.6317     72.21319      1.394     3.10     5.618361     20.41518     84.98723        12     1.004     0.772  30.86   0
       359    257.2178   1016.6602 299.9307256 +22.7566021     1023.033     72.30547      2.687     9.26     50.92608     20.41518     39.73854        22     2.237     1.069  -8.05  19
       360     76.8892     15.5954 300.1996373 +22.4153169     652.0942     72.26858      1.740     4.48     6.087945     20.41518     61.01421        12     1.238     0.836 -11.14   0
       361    256.5492   1012.8761 299.9317487 +22.7553168     1226.777     72.36079      2.328     7.62     49.02129     20.41518     51.14767        13     1.846     0.879   9.33  19
       362    163.4082   1017.3110 299.9013398 +22.7286400     546.1738     72.26858      2.111     6.57     99.74184     20.41518     38.03995        10     1.475     0.820  69.23  16
       363    303.4512   1012.1012 299.9465915 +22.7691661     1611.715     72.45289      3.847     5.59     7.753222     20.41518     95.86628        25     1.508     1.311  16.54   0
       364    740.0202   1012.4885 300.0824223 +22.9001916     311.2232     72.28703      1.882     4.15     4.248573     20.41518     29.35491         5     0.761     0.645  86.36   0
       365    140.2559   1006.9873 299.8974998 +22.7187336     1726.446     72.36079      3.142    13.70     88.88423     20.41518     53.51742        50     2.785     1.875 -39.93  18
