#   1 NUMBER                 Running object number                                     
#   2 X_IMAGE                Object position along x                                    [pixel]
#   3 Y_IMAGE                Object position along y                                    [pixel]
#   4 ALPHA_J2000            Right ascension of barycenter (J2000)                      [deg]
#   5 DELTA_J2000            Declination of barycenter (J2000)                          [deg]
#   6 FLUX_APER              Flux vector within fixed circular aperture(s)              [count]
#   7 FLUXERR_APER           RMS error vector for aperture flux(es)                     [count]
#   8 FLUX_RADIUS            Fraction-of-light radii                                    [pixel]
#   9 FWHM_IMAGE             FWHM assuming a gaussian core                              [pixel]
#  10 BACKGROUND             Background at centroid position                            [count]
#  11 THRESHOLD              Detection threshold above background                       [count]
#  12 FLUX_MAX               Peak flux above background                                 [count]
#  13 ISOAREA_IMAGE          Isophotal area above Analysis threshold                    [pixel**2]
#  14 A_IMAGE                Profile RMS along major axis                               [pixel]
#  15 B_IMAGE                Profile RMS along minor axis                               [pixel]
#  16 THETA_IMAGE            Position angle (CCW/x)                                     [deg]
#  17 FLAGS                  Extraction flags                                          
         1    474.2055     17.6306 300.3326212 +22.5431885     1056.868     72.45796      1.666     3.17     6.309254     20.44259     125.7545        20     1.191     1.136  38.84   0
         2    378.0394     15.8257 300.3032523 +22.5139002     774.9352     72.49487      1.560     3.96     6.367951     20.44259     73.83719        14     1.213     0.851 -11.96   0
         3   1021.1187     12.7060 300.5048055 +22.7052789     2478.886     68.70658      1.888     3.91     5.797105     20.44259      189.389        34     1.542     1.304 -70.79  24
         4    760.2169     14.4922 300.4227981 +22.6278158     459.8199      72.3841      1.530     4.35     6.635953     20.44259     42.56028         7     1.166     0.461  48.85   0
         5    717.7273      6.6052 300.4121006 +22.6128423     566.0954     72.40257      1.614     4.03     6.635953     20.44259     59.10162        14     1.091     0.969  39.84  16
         6    149.3617      5.3363 300.2354723 +22.4424512     3951.453     72.29167      1.950     3.51     7.066489     20.44259     349.7933        44     1.609     1.422  45.98  24
         7    571.6246      3.0624 300.3676972 +22.5681347     349.7309     65.27304      1.381     4.17     6.023357     20.44259     33.63731         6     0.945     0.526  14.87  16
         8    139.3128    999.5115 299.9096406 +22.7249419     817.6239     72.62388      2.485    11.24     80.82907     20.44259     37.99316        20     2.127     1.654 -17.41   3
         9     66.4440   1012.3586 299.8828013 +22.7067678     4370.834     72.53175     14.421    73.26     81.09007     20.44259     152.1411      1733    15.955    10.765  44.06  27
        10     56.7571    952.8792 299.8991345 +22.6868028     5673.733     72.43951     24.094   114.02     33.64464     20.44259     1340.163      3840    23.153    15.580  -8.83  19
        11    711.5391    989.9005 300.0909699 +22.8937228     657.6111     72.55019      2.213     6.92     4.709798     20.44259     38.63307        12     1.325     1.014  55.47   0
        12    139.8833    968.9015 299.9197739 +22.7163324     824.0358     72.62388     28.563    12.40     53.41255     20.44259     41.93775        12     4.761     0.899  31.24   3
        13    145.0562    980.7844 299.9175181 +22.7212927     1788.461     72.43951     11.717    13.52      64.0254     20.44259     56.51536        42     3.399     1.497  51.64   3
        14    143.4307    974.0406 299.9192059 +22.7188706      1356.96     72.47642      5.418     8.89     57.83457     20.44259     53.75798        20     1.704     1.370 -89.59   3
        15     55.5977    918.2766 299.9100260 +22.6765298     3786.005     72.36562     16.107    54.16     14.19171     20.44259     81.60916       917    11.940     6.818 -30.55  19
        16    904.1680    972.2394 300.1568048 +22.9463483     832.7886     72.49487      2.210     6.63     4.774647     20.44259     42.90211        19     1.631     1.175  42.70   0
        17    629.4810    955.8198 300.0764731 +22.8593493     6722.898     72.43951      2.155     5.16     4.836424     20.44259     295.4713        55     1.710     1.575  16.88   0
        18    524.5638    993.2418 300.0316056 +22.8386538     2227.993     72.53175      2.146     5.77     4.544597     20.44259     99.44563        37     1.693     1.441  56.64   0
        19    611.6774    989.0069 300.0601293 +22.8635447     9372.003      72.3841      2.493    11.43     4.915267     20.44259     377.4562        58     2.095     1.736 -34.57   3
        20    141.0980    948.6425 299.9267402 +22.7108850     1058.897     72.45796      6.898    10.90     35.72448     20.44259      41.4496        18     2.604     1.272  89.59   2
        21    432.8244    943.8995 300.0190778 +22.7969918     666.1147     72.40257      1.422     4.85     4.317254     20.44259     68.88899        11     1.267     0.833 -82.74   3
        22    430.5974    942.1105 300.0189661 +22.7958108     566.7469     72.36562      1.729     4.85     4.338991     20.44259     54.64056         8     1.204     0.554 -54.68   3
        23    362.3069    940.8280 299.9981185 +22.7749719     6514.008      72.3841      2.164     4.93     4.594784     20.44259     359.3995        51     1.660     1.588 -19.12   0
        24    617.5962    986.7513 300.0627078 +22.8646706     6721.413     72.43951      1.874     4.67     4.910576     20.44259     425.8577        37     1.698     1.075  84.99   3
        25    615.0000    986.9660 300.0618287 +22.8639543     2721.415     72.40257      1.618     5.48     4.911312     20.44259     361.9064        11     1.802     0.511  86.99   3
        26    537.9358    946.5134 300.0509706 +22.8292451     1503.412     72.55019      2.102     6.06     4.631013     20.44259     74.56767        28     1.517     1.333   8.55   0
        27    395.7430    927.8812 300.0127395 +22.7812786     507.7088     72.49487      1.646     4.71       4.5497     20.44259     37.55142         6     1.343     0.468 -61.31   2
        28    908.6160    920.1405 300.1751379 +22.9327091     2236.207     72.42104      2.312     5.82      4.81068     20.44259     93.86659        37     1.648     1.509 -31.64   0
        29    154.5923   1001.8389 299.9136361 +22.7301925     2162.423     72.47642      4.829    13.55     82.59788     20.44259     56.19991        43     2.441     2.091  -4.61   3
        30    148.9742    999.4321 299.9126715 +22.7278170     2980.256     72.45796      6.168    27.14     79.94466     20.44259     82.89736       152     5.933     3.857 -87.13  19
        31    697.4745    908.4355 300.1130801 +22.8661101      789.095     72.40257      2.434     6.40     4.668943     20.44259     45.78151        13     1.531     1.013  30.25   0
        32    732.1261    903.1599 300.1256008 +22.8749743     962.5856     72.43951      1.989     7.23     4.689179     20.44259     52.56453        22     1.326     1.248 -41.43   0
        33    507.2568    903.0146 300.0555578 +22.8075615     457.0536     72.43951      2.966     4.32     4.474011     20.44259     29.89889         5     0.844     0.631  -1.40   2
        34    209.8477   1001.8716 299.9308146 +22.7467744     1780.817     72.43951      4.258    15.04     63.08816     20.44259     66.22597        52     3.516     1.789  -2.66   3
        35    754.6699    896.5668 300.1347753 +22.8798326     11322.78     72.45796      2.080     4.82     4.740544     20.44259     532.7827        65     1.660     1.622 -66.35   0
        36    945.5012    896.5276 300.1943291 +22.9369668     404.6308     72.58704      1.737     5.94      4.85734     20.44259     40.46108         6     1.238     0.801 -28.22   0
        37    799.2952    896.5590 300.1486968 +22.8931957     554.7595     72.47642      2.097     5.85     4.841418     20.44259     32.32692         9     1.345     0.716 -20.22   0
        38    333.3362    999.9226 299.9698793 +22.7832460     671.0861     72.55019      2.422     6.06     4.570752     20.44259     40.71686        11     1.744     0.592  52.33   0
        39    185.7522    895.6082 299.9578756 +22.7090601     798.2742     72.47642      3.482     4.15     10.69688     20.44259     29.62854         5     1.221     0.402 -13.91   0
        40    115.6475    890.7020 299.9376646 +22.6866296     819.7397     72.49487      5.239     5.25     12.99849     20.44259     30.38142         8     1.255     0.621  72.05   0
        41     65.9333    887.2549 299.9233257 +22.6707310     885.3037     72.51331      4.730     7.42     11.03997     20.44259     43.16173        12     1.460     1.063  44.62   0
        42    763.1702    878.7025 300.1432351 +22.8772460     1265.529     72.40257      1.986     6.35      4.81492     20.44259     80.83421        23     1.374     1.309  46.53   0
        43    802.1674    872.0644 300.1575573 +22.8870176     790.1693     72.45796      2.381     5.07     4.991829     20.44259     58.21416        11     1.449     0.528  80.98   2
        44    800.0000    872.5525 300.1567226 +22.8865088     708.7924     72.43951      2.514     5.71     4.981802     20.44259     40.07129         9     1.182     0.778 -88.22   3
        45    849.4436    864.0601 300.1749089 +22.8988745     432.1649     72.45796      1.913     5.77     5.033841     20.44259     33.95605         9     1.252     0.750  30.91   0
        46    701.2493    862.4592 300.1292064 +22.8540332     690.8403     72.51331      1.876     5.64      4.70294     20.44259     45.40221        15     1.166     1.047 -73.84   0
        47    413.6947    858.4874 300.0408926 +22.7667375     4363.462     72.64229      2.030     4.35     4.984451     20.44259     261.9044        44     1.550     1.506  43.50   0
        48    712.4022    859.6469 300.1335984 +22.8565657     660.7336     72.45796      2.120     6.22     4.721484     20.44259     42.58485        12     1.316     1.089  32.84   0
        49    456.8080    847.3246 300.0579489 +22.7764526      363.817     72.43951      1.922     4.95     4.878218     20.44259     31.30592         6     1.114     0.622 -22.36   0
        50    138.7382    844.1125 299.9599919 +22.6801863      853.064     72.55019      2.168     6.66     7.923151     20.44259     57.88235        15     1.506     1.153   2.29   0
        51    116.2872    841.0080 299.9540183 +22.6725633     1330.954     72.36562      2.048     4.73     8.089613     20.44259     106.2295        26     1.479     1.290  32.10   0
        52    987.7049    830.8154 300.2288693 +22.9307119     2064.941      72.3841      2.081     5.11     4.851533     20.44259     100.4106        33     1.538     1.390 -50.59   0
        53    942.0120    829.1652 300.2151418 +22.9165596     2024.573     72.45796      2.204     5.47     5.078528     20.44259     113.1303        32     1.575     1.364   0.84   0
        54    647.5488    829.7127 300.1231099 +22.8285407     450.4151     72.49487      1.712     2.71     4.849879     20.44259      51.7577         5     0.859     0.489  82.43   0
        55    725.5700    822.9069 300.1496484 +22.8499536     588.9052      72.3841      1.812     6.66     4.826728     20.44259     36.77607        11     1.160     1.072  24.19   0
        56    148.9650    822.7546 299.9701152 +22.6771239     480.1494     72.49487      1.759     4.34     6.732401     20.44259     42.74335         5     1.167     0.459  68.29   0
        57    593.7150    816.7883 300.1105311 +22.8087020     4525.581     72.40257      1.833     3.93     5.122319     20.44259     289.0791        37     1.438     1.321   4.38   0
        58     84.4457    817.3124 299.9518180 +22.6562161     514.9729     72.43951      2.328     3.44     6.536702     20.44259     39.21628         5     0.763     0.447  69.51   0
        59    396.0981    813.9499 300.0498905 +22.7486764      521.491     72.53175      1.869     5.24     5.274091     20.44259     44.47535        11     1.185     0.843 -16.16   0
        60    144.7390    810.6832 299.9727242 +22.6723926     1412.359     72.56862      2.453     6.08     6.153701     20.44259      92.1972        25     1.897     1.098  63.36   2
        61    613.9161    809.8430 300.1190849 +22.8127582     608.3739     72.42104      1.799     5.59      5.11081     20.44259     53.08207        11     1.342     0.656  -4.75   0
        62    163.5982    807.5001 299.9796251 +22.6771336     293.2499     72.32866      1.376     3.44     5.934144     20.44259     39.72379         5     1.184     0.289  69.83   0
        63    531.7756    800.8343 300.0964152 +22.7855638     288.4357     72.47642      1.302     4.45     5.496013     20.44259     32.09069         6     1.010     0.557  23.68   0
        64    769.6717    796.6548 300.1719358 +22.8556169      4161.66     72.45796      1.932     4.36     5.028978     20.44259     227.9529        41     1.554     1.387  51.42   0
        65    986.7831    797.1803 300.2395153 +22.9207659     1158.724     72.43951      2.124     6.82     4.865444     20.44259     64.27052        25     1.484     1.311 -20.20   0
        66    486.8470    789.0223 300.0862568 +22.7687106     639.6031     72.47642      1.893     6.84     5.510127     20.44259     45.26881        14     1.328     0.988 -24.90   0
        67    133.5109    786.5825 299.9770645 +22.6621098     960.1208      72.3841      1.887     4.93     5.643814     20.44259     74.03585        16     1.413     0.906  63.06   2
        68    547.9932    782.5221 300.1074201 +22.7851624     423.5652      72.3841      1.660     5.46     5.506053     20.44259     32.56714         9     1.106     0.761 -19.50   0
        69    282.6757    778.8619 300.0259842 +22.7046094     53299.66     72.51331      1.962     4.13     5.394818     20.44259     3657.356       103     1.690     1.604  27.18   0
        70    954.3645    777.7162 300.2357213 +22.9054666     792.9688     72.43951      1.866     5.34     5.084132     20.44259     53.86158        14     1.400     0.882  76.81   2
        71    952.0000    777.0313 300.2352058 +22.9045619     450.6287     72.40257      1.279     3.64      5.09782     20.44259     47.08028         5     1.080     0.354 -82.22   3
        72    540.6283    778.1929 300.1065322 +22.7817125     1608.542     72.45796      1.753     3.82     5.527039     20.44259     115.6746        24     1.234     1.165  -8.09   0
        73    255.6041    776.5254 300.0183183 +22.6958243     280.4673     72.36562      1.283     3.44      5.43001     20.44259     28.60054         5     1.074     0.319 -68.80   0
        74    210.7953    776.5482 300.0043676 +22.6823992     438.1314     72.45796      1.681     6.31     5.504601     20.44259     42.90861         8     1.427     0.784  59.35   0
        75    569.7138    774.2885 300.1168646 +22.7893039     808.3363     72.62388      1.719     4.57     5.407524     20.44259     69.63081        15     1.115     1.038  34.56   0
        76    580.7164    772.4022 300.1209065 +22.7920578     431.0314     72.36562      1.552     5.56     5.353643     20.44259     41.28474        10     1.197     0.729 -31.67   0
        77    899.8658    770.3274 300.2211126 +22.8870292     285.5231     72.49487      1.465     4.63     5.230717     20.44259     34.46003         6     0.835     0.730  -8.60   0
        78    686.2589    768.9467 300.1549292 +22.8226760     500.8367     72.51331      1.889     5.22     5.035646     20.44259     42.12881         8     1.216     0.633 -41.64   0
        79    332.4236    756.1438 300.0488521 +22.7129966     31575.07     72.47642      1.905     3.89     5.370081     20.44259     2320.261        83     1.613     1.532  26.25   0
        80    723.7207    759.0826 300.1698162 +22.8310599     750.5049     72.58704      1.873     4.65     5.049894     20.44259       61.003        16     1.164     1.083 -72.76   0
        81    346.7690    756.7031 300.0531363 +22.7174562     1955.631     72.40257      1.957     4.07     5.348863     20.44259     137.1013        29     1.395     1.259  -4.35   2
        82    343.5906    751.0733 300.0539762 +22.7148872     710.9564     72.45796      2.367     5.77     5.353958     20.44259     39.07807        12     1.401     0.669  -8.28   2
        83    855.7201    752.4926 300.2131329 +22.8686871     2855.095     72.56862      1.923     4.30     5.286419     20.44259     172.4667        36     1.446     1.362  10.64   0
        84    613.3684    748.0364 300.1390014 +22.7948378     901.4766     72.49487      1.838     4.76     5.209283     20.44259     67.39164        19     1.276     1.179  69.39   0
        85    450.5731    748.4175 300.0881533 +22.7461807     377.8025     72.47642      1.627     4.06     5.455219     20.44259     47.53965         9     1.114     0.775 -34.52   0
        86    214.9247    747.8553 300.0149763 +22.6754008     968.0114     72.49487      2.045     5.24     5.493714     20.44259      75.4906        21     1.407     1.198 -11.80   0
        87    460.5380    743.1967 300.0929537 +22.7476667     892.8757     72.45796      1.970     5.04     5.493043     20.44259     60.72752        15     1.284     0.878 -17.87   0
        88     20.1899    743.1901 299.9559265 +22.6156798     602.8335     72.34715      2.565     4.89     5.399889     20.44259     32.11704         7     1.254     0.540  71.89   0
        89    861.4661    739.9144 300.2190134 +22.8667915     577.9104     72.55019      1.881     6.02     5.297596     20.44259     42.28468        11     1.144     0.891  -9.17   0
        90    319.1469    738.6873 300.0503914 +22.7040055     298.5886     72.49487      1.499     4.49     5.404445     20.44259       49.388         6     0.866     0.663 -20.20   0
        91    406.6590    738.1707 300.0778063 +22.7300805     313.6526     72.45796      1.448     4.62     5.338266     20.44259     37.57646         6     0.998     0.607  14.79   0
        92    615.3343    737.1469 300.1431527 +22.7922979     362.1067     72.49487      2.064     4.54     5.213072     20.44259     36.64279         6     1.135     0.517 -21.84   0
        93     49.1109    737.3262 299.9668234 +22.6226691     431.7956     72.62388      1.573     2.61      5.48011     20.44259      47.8479         6     0.725     0.617 -72.41   0
        94    839.3901    735.4335 300.2135814 +22.8588948     455.5767     72.43951      1.667     3.94     5.451691     20.44259     30.85341         5     1.055     0.422  15.60   0
        95    212.4543    732.4772 300.0192043 +22.6702459     409.2832     72.49487      1.552     5.01     5.536235     20.44259     42.32346        10     1.098     0.739  14.20   0
        96    645.9428    725.9420 300.1563349 +22.7982453      758.822     72.53175      0.434     2.35     5.232096     20.44259     699.6602         5     0.461     0.361  73.15   0
        97    536.1311    723.0231 300.1230588 +22.7645173     446.3044     72.47642      1.396     3.53     5.603172     20.44259     52.92067         9     1.001     0.722  82.23   0
        98    505.7496    721.5289 300.1140784 +22.7549873     626.5903     72.45796      1.662     4.77     5.641633     20.44259     49.81072        12     1.159     0.919 -75.24   0
        99    922.0785    717.6867 300.2451518 +22.8785439     4542.445     72.60546      1.970     4.34     5.493239     20.44259     266.1728        42     1.490     1.459 -37.27   0
       100    527.5728    718.4147 300.1218895 +22.7606298     1506.565     72.47642      1.910     4.26     5.623876     20.44259     111.8878        24     1.359     1.176  60.20   0
       101    414.4277    720.3646 300.0860112 +22.7272943     183.1481     72.47642      1.227     4.59     5.523565     20.44259     27.63437         6     1.243     0.481  28.97   0
       102    447.3515    718.0254 300.0970252 +22.7364864     403.3383     72.47642      1.773     5.21     5.618406     20.44259     38.68242         7     1.015     0.757  -5.92   0
       103    910.5358    709.0301 300.2443620 +22.8726002     1737.031     72.47642      1.987     4.48     5.593219     20.44259     122.1448        30     1.465     1.311 -75.81   0
       104    273.4152    702.5284 300.0479049 +22.6799183     817.8102     72.45796      1.809     4.92     5.740275     20.44259     83.38007        18     1.245     1.134 -49.22   0
       105    736.8326    700.3225 300.1929987 +22.8180987     2733.018     72.43951      1.922     4.23      5.17447     20.44259     181.9191        35     1.507     1.295  -3.39   0
       106    941.7813    699.5449 300.2571964 +22.8792243     1639.728     72.43951      1.934     4.34     5.639424     20.44259     99.69341        24     1.320     1.202 -14.02   0
       107    819.6572    686.5799 300.2232985 +22.8389438     449.1969     72.45796      1.505     4.51     5.751522     20.44259     41.92439         8     1.121     0.517  39.80   0
       108    122.4592    686.0895 300.0062784 +22.6299539     430.4748     72.55019      1.598     5.52     5.864895     20.44259     40.49912         7     1.088     0.789  56.99   0
       109    855.3629    677.3457 300.2374388 +22.8469768     147337.9     72.47642      1.866     3.87     5.913781     20.44259     10030.39       165     1.674     1.635 -36.53   0
       110   1002.3459    679.4465 300.2826338 +22.8915686      1248.18     72.49487      1.990     4.26     5.747551     20.44259     94.81113        23     1.386     1.128  -4.81   0
       111    617.7827    680.5790 300.1622951 +22.7767771     420.8374     72.43951      1.579     6.49     5.425852     20.44259     41.32078        10     1.361     0.868  68.86   0
       112    707.7568    677.7344 300.1912701 +22.8029010     850.5125     72.43951      2.034     4.33     5.209349     20.44259     57.07031        17     1.270     0.936  14.41   0
       113    541.5756    666.0175 300.1432754 +22.7497704     1678.819     72.45796      1.717     3.86     5.693546     20.44259     134.5002        22     1.238     1.104   9.95   0
       114    722.8372    663.3752 300.2006375 +22.8032889     9196.252     72.47642      1.729     3.54     5.285608     20.44259     733.9059        48     1.401     1.357 -33.72   0
       115    224.2330    658.1161 300.0470265 +22.6524273     4726.712     72.42104      1.857     3.86     5.945419     20.44259     381.6427        44     1.547     1.357  46.71   0
       116    306.4474    656.2342 300.0732249 +22.6765233     1178.921     72.49487      1.843     4.16     5.962942     20.44259     107.9606        25     1.330     1.302  51.81   0
       117    182.2809    653.7514 300.0353913 +22.6386012     505.6361     72.49487      1.754     5.36     5.946226     20.44259     49.16972         8     1.109     0.799 -40.23   0
       118    514.6588    651.8197 300.1395005 +22.7376295     795.3772     72.42104      1.623     3.63     5.896566     20.44259     84.52618        17     1.206     0.931  35.55   0
       119    506.3128    643.9918 300.1394429 +22.7328807     3301.693     72.36562      1.709     3.33     5.960395     20.44259     660.7271        35     1.394     1.254  15.49   0
       120    496.4489    637.5776 300.1384532 +22.7280836     1370.676     72.45796      1.689     4.03     6.008244     20.44259     131.7751        22     1.303     1.073  33.71   0
       121    890.3739    636.0324 300.2617846 +22.8455764     568.5947     72.45796      1.833     6.20     6.110982     20.44259      43.4698        11     1.073     1.006 -29.09   0
       122    160.3038    634.1898 300.0349077 +22.6263984     619.3003      72.3841      1.731     3.06     5.968402     20.44259     64.31195         9     0.863     0.733  11.22   0
       123    174.6974    632.4631 300.0399462 +22.6302165     619.8609     72.55019      1.492     2.84     5.964444     20.44259     56.09456         7     0.876     0.540 -59.40   0
       124    943.6857    629.8832 300.2804214 +22.8597616     443.1425     72.58704      1.982     5.46     6.068449     20.44259     31.61035         7     1.042     0.806  -9.02   0
       125    199.6562    628.9188 300.0488625 +22.6366787     479.9527     72.49487      1.672     5.33      5.95619     20.44259     42.09838        13     1.227     0.950 -56.46   0
       126    421.2965    627.3620 300.1183619 +22.7026384     1691.336     72.43951      1.690     3.60     6.032722     20.44259      152.003        26     1.251     1.211 -29.76   0
       127    520.9187    628.2538 300.1491053 +22.7327334     341.7076     72.49487      1.456     5.11     5.990147     20.44259     38.62252         7     1.082     0.683 -38.67   0
       128    997.1331    625.5224 300.2985234 +22.8744995     844.5587     72.55019      1.969     6.78     5.849847     20.44259     53.56326        17     1.423     0.991 -13.23   0
       129     75.1691    622.1358 300.0123435 +22.5974206     19756.82     72.47642      2.050     4.15     6.218091     20.44259     1533.325        75     1.666     1.617  30.69   0
       130    506.3440    623.0741 300.1462466 +22.7268801     954.9373     72.49487      1.589     3.20     6.034027     20.44259     104.2831        16     1.060     0.955   9.99   0
       131    541.2458    622.5570 300.1572892 +22.7371840     265.6364     72.49487      1.674     4.60     5.988726     20.44259     39.81625         5     1.220     0.571 -29.49   0
       132    924.3350    609.4911 300.2810047 +22.8481066     1009.196     72.58704      1.764     4.21     6.196979     20.44259     77.56339        17     1.108     1.063 -89.46   0
       133     21.1920    606.4725 300.0006470 +22.5767443     1383.347     72.43951      2.222     5.74     6.737755     20.44259     96.85896        31     1.744     1.323 -55.07   0
       134    791.1534    607.2995 300.2401592 +22.8076190      419.042     72.47642      1.548     4.76     5.979864     20.44259     39.87989         8     1.000     0.642   7.23   0
       135     88.1824    606.9313 300.0213279 +22.5969566     441.1299     72.45796      1.525     4.11     6.151476     20.44259     37.70282         6     1.138     0.425  62.22   0
       136    469.6847    603.4973 300.1411840 +22.7102758      428.412     72.62388      1.485     4.47     6.102281     20.44259      47.2147        10     1.256     0.566  13.23   0
       137    262.5060    602.4561 300.0770140 +22.6479130      337.324     72.51331      1.398     4.09     5.950196     20.44259     39.65813         5     0.956     0.499  87.78   0
       138    864.0726    601.9394 300.2646503 +22.8279015     998.2556     72.49487      2.260     4.94      6.16292     20.44259     54.50504        15     1.302     0.962   5.89   0
       139    426.3147    595.6523 300.1302229 +22.6950319     736.5568     72.47642      1.698     3.37     6.047754     20.44259     76.17644        14     1.003     0.942   6.34   0
       140    574.2607    594.4368 300.1767100 +22.7389897     446.4823     72.47642      1.420     4.36     6.162599     20.44259     42.34252         9     1.016     0.716  20.40   0
       141    622.1783    593.0876 300.1920832 +22.7529494     516.5335      72.3841      1.562     4.93      5.99389     20.44259     38.44046        12     1.153     0.728   8.09   0
       142    591.9009    591.5753 300.1831370 +22.7434493     1221.149      72.3841      0.889     4.81     6.129705     20.44259     683.3805        14     0.943     0.694 -73.69   0
       143    470.5785    591.9741 300.1452046 +22.7072327     898.1433     72.43951      1.854     4.11     6.157471     20.44259     76.74199        16     1.265     0.877   9.93   0
       144    904.4763    587.4675 300.2819592 +22.8358303     3255.189     72.55019      1.808     3.65     6.097299     20.44259      239.064        35     1.351     1.342  68.97   0
       145    436.0840    586.9949 300.1360770 +22.6954708     1848.343      72.3841      1.729     3.56     6.084526     20.44259     147.2065        28     1.318     1.187  28.04   0
       146   1001.9082    585.6607 300.3129608 +22.8644621     722.3486     72.53175      1.974     4.93     5.835344     20.44259      41.6773        12     1.017     0.876 -61.21   0
       147    943.7255    577.6657 300.2973930 +22.8447551       304.73     72.51331      1.471     3.50     6.012121     20.44259     44.82578         5     0.781     0.453  11.93   0
       148    299.5019    573.6375 300.0978869 +22.6507204     9014.368     72.45796      1.776     3.45     5.953826     20.44259     864.3389        51     1.459     1.370  41.57   0
       149    421.9500    570.7354 300.1369547 +22.6865660     9099.749     72.51331      1.656     3.31     6.055927     20.44259      807.972        43     1.338     1.310  60.85   0
       150    833.6669    565.1690 300.2671041 +22.8082284     1790.386     72.45796      1.719     3.59     5.972141     20.44259      135.787        26     1.260     1.197  65.34   0
       151    669.0866    566.9789 300.2151851 +22.7594883     350.7025      72.3841      1.633     4.61     5.956495     20.44259     34.52213         6     1.413     0.427 -46.15   0
       152    918.4366    562.4790 300.2944311 +22.8328206     12495.32     72.40257      1.821     3.71     5.984027     20.44259     925.6556        58     1.484     1.460 -38.14   0
       153    482.5503    560.4075 300.1591842 +22.7017478     11525.41     72.45796      1.664     3.16     6.371861     20.44259      1146.34        50     1.356     1.316  37.57   0
       154    652.1631    556.6663 300.2132575 +22.7514576     520.5214     72.45796      1.527     3.90     6.113186     20.44259     72.78436        10     1.050     0.776  29.52   0
       155    210.0011    555.6719 300.0758662 +22.6187454     1397.412     72.34715      1.742     4.03     5.987588     20.44259     115.7242        23     1.326     1.094 -12.80   0
       156    457.0405    553.7808 300.1533893 +22.6922041     311.3846     72.47642      1.511     3.85     6.264338     20.44259     40.80709         6     0.924     0.461  39.78   0
       157    757.1150    548.8615 300.2485187 +22.7806290     787.2466     72.58704      1.633     3.72     5.945987     20.44259     72.02531        18     1.171     1.016  14.70   0
       158    414.1560    548.4855 300.1417517 +22.6778390      4460.46     72.43951      1.708     3.29     6.035318     20.44259      461.711        41     1.470     1.246  26.60   0
       159    392.4314    547.1353 300.1354246 +22.6709444     1361.059     72.45796      1.716     4.19     6.001714     20.44259     123.2072        25     1.381     1.171  -1.92   0
       160    146.8097    545.9550 300.0593613 +22.5970200     780.0626     72.47642      1.985     4.75     6.011198     20.44259     65.53181        15     1.397     1.126   4.77   0
       161    834.2104    544.3516 300.2740333 +22.8024045     1734.517     72.47642      1.777     3.85     5.910392     20.44259     130.0958        28     1.346     1.265  44.39   0
       162    530.9087    536.1622 300.1821228 +22.7092611     205024.5     72.43951      1.622     3.15     6.693826     20.44259     17779.01       211     1.626     1.557 -17.35   0
       163    354.6687    542.4850 300.1251759 +22.6582975       356.19     72.55019      1.415     3.32     5.945477     20.44259     40.65016         5     1.013     0.316  68.76   0
       164    714.5897    541.1833 300.2377493 +22.7656932      974.591     72.40257      1.922     4.60     6.061684     20.44259     75.69528        18     1.297     1.041  64.62   0
       165    808.6523    540.0323 300.2674618 +22.7935141     213.8951     72.47642      1.477     4.56     5.923952     20.44259      27.4218         5     1.043     0.567  18.00   0
       166    918.2119    538.6075 300.3021121 +22.8258871     331.6205     72.34715      1.258     3.44     5.917871     20.44259     28.41453         5     0.793     0.430 -20.24   0
       167    216.9490    535.8431 300.0844657 +22.6151325     3574.891     72.49487      1.770     3.65     5.979197     20.44259     294.8747        35     1.390     1.335  47.83   0
       168    782.8719    532.9300 300.2617255 +22.7837565     501.1502     72.53175      1.914     2.54     5.972594     20.44259     45.85853         5     0.612     0.585 -17.11   0
       169    421.4722    516.6698 300.1543593 +22.6708886      2711.03     72.53175      1.728     3.05     6.137863     20.44259     271.5176        36     1.653     1.173  86.45   0
       170    266.0574    519.0537 300.1051987 +22.6250227     366.5444     72.51331      1.362     4.83     5.942323     20.44259     41.30502         7     1.048     0.629  22.18   0
       171    832.4555    513.7522 300.2834205 +22.7930792     318.4478     72.49487      1.853     5.03      6.01209     20.44259     33.72631         5     1.071     0.668 -21.16   0
       172    738.9134    505.5867 300.2568917 +22.7627382      334.975     72.40257      1.349     4.26     6.168457     20.44259     40.40354         7     0.940     0.628  56.50   0
       173    818.5961    502.9692 300.2825971 +22.7858309     1599.755     72.42104      1.602     3.37     6.049379     20.44259     141.2757        23     1.213     1.069  -6.37   0
       174    689.8094    500.4568 300.2432442 +22.7465667     2429.253     72.43951      1.594     3.05     6.247465     20.44259     242.7186        24     1.171     1.088  83.30   0
       175    328.2304    499.2258 300.1309881 +22.6379506     275.3411     72.45796      1.484     3.82     5.899282     20.44259     27.81535         5     0.954     0.439  44.90   0
       176    934.2333    498.1954 300.3202332 +22.8190555     520.9001     72.43951      2.084     5.16     5.963575     20.44259     35.03046         9     1.023     0.736 -87.02   3
       177    933.0506    493.8786 300.3212654 +22.8174598     878.1993     72.47642      2.240     3.44     5.971461     20.44259     65.11047        14     1.127     0.891   2.54   2
       178    899.3334    497.9330 300.3094254 +22.8085392     405.0423     72.51331      2.049     5.50     6.018739     20.44259     30.25532         6     1.150     0.741  25.25   0
       179    594.4092    496.8939 300.2146600 +22.7169859     443.9815      72.3841      1.537     5.07     6.525791     20.44259     42.58849         9     1.020     0.712   3.45   0
       180    476.7720    496.4132 300.1781601 +22.6816274     742.9122     72.45796      1.721     3.61     6.634224     20.44259     61.67584        13     0.990     0.883 -30.08   0
       181    947.1202    494.7120 300.3253867 +22.8219085     1304.521     72.60546      1.705     3.92     5.931469     20.44259     103.6059        23     1.246     1.142  47.00   0
       182    818.8755    493.0386 300.2859080 +22.7830584     2192.786     72.42104      1.818     3.64     6.083278     20.44259      214.085        30     1.523     1.196  84.31   0
       183    571.9457    491.1062 300.2095376 +22.7085973      803.515     72.51331      2.367     5.39     6.678475     20.44259     56.63477        10     1.226     0.700  43.87   0
       184    857.1149    488.0465 300.2994597 +22.7930642     4274.313     72.43951      1.696     3.26     6.100228     20.44259     364.8874        34     1.327     1.254 -27.88   0
       185    410.7852    489.3810 300.1598893 +22.6598468     336.4868     72.43951      1.397     4.68     6.149445     20.44259     34.55188         8     1.114     0.557 -22.94   0
       186    358.1342    491.0738 300.1429445 +22.6445650     292.3706     72.49487      1.230     3.46     5.908475     20.44259     37.82474         5     0.782     0.513 -29.60   0
       187    517.7562    483.6530 300.1950707 +22.6902314     255.9837     72.49487      1.625     4.65     6.801122     20.44259     46.23897         7     1.105     0.608 -35.76   0
       188    948.5032    478.6611 300.3310289 +22.8177045     871.4455     72.55019      1.719     4.17     5.936549     20.44259     86.65623        16     1.194     1.007  61.28   0
       189     88.6629    478.0304 300.0633247 +22.5600912     941.4946     72.47642      1.871     5.67     6.166855     20.44259     72.96048        19     1.553     0.988 -29.19   0
       190    355.2403    471.2415 300.1484806 +22.6380000     249.0751     72.55019      1.623     3.93     5.913565     20.44259     29.73584         5     0.904     0.490  45.03   0
       191    689.5251    462.5381 300.2554639 +22.7355788     460.0226     72.51331      1.708     2.99     6.325058     20.44259     50.89021         8     0.922     0.799  83.60   0
       192    578.1427    460.3806 300.2214421 +22.7016199     354.6211     72.45796      1.504     3.44     6.636726     20.44259      36.6395         5     0.829     0.414  20.72   0
       193    630.5640    458.3618 300.2384369 +22.7167309     808.9102     72.53175      1.455     3.21     6.430581     20.44259     86.64385        15     1.062     0.910 -22.91   0
       194    609.1942    457.0231 300.2322100 +22.7099496     226.1165     72.43951      1.449     5.32     6.475702     20.44259     34.93284         7     1.123     0.710  13.21   0
       195    945.1041    451.3485 300.3388332 +22.8088298     608.4371     72.53175      1.548     3.85     5.960986     20.44259      64.2756        11     1.110     0.795   3.13   0
       196    691.2196    450.7162 300.2598293 +22.7326865     866.9601     72.40257      1.602     3.48     6.341572     20.44259     84.41899        14     1.067     0.892  -1.11   0
       197    848.2791    446.9846 300.3100309 +22.7786094     1044.096     72.47642      1.659     3.72     6.006653     20.44259     87.01375        16     1.155     0.955  73.69   0
       198    832.9055    443.5806 300.3063389 +22.7730308     573.6941      72.3841      1.490     4.55     6.001462     20.44259     67.22986         9     1.035     0.733 -15.21   0
       199    576.9921    441.1263 300.2273325 +22.6957402     3281.046     72.42104      1.553     3.07     6.614874     20.44259     292.1891        31     1.288     1.171  54.82   0
       200    937.9658    440.6979 300.3400617 +22.8036303     581.9834     72.43951      1.859     6.37     5.955349     20.44259       48.973        12     1.387     0.821   0.19   0
       201    417.2028    428.1535 300.1817597 +22.6441733     293.5874     72.43951      1.211     3.79     6.228507     20.44259     51.95729         5     0.805     0.523 -41.78   0
       202    963.3503    426.3542 300.3526412 +22.8070957     260.8086     72.47642      1.289     4.05     6.029356     20.44259     29.02824         5     1.223     0.383  37.94   0
       203    988.4799    420.4962 300.3623879 +22.8129259     1319.028     72.56862      1.764     4.04     6.142869     20.44259     125.7203        23     1.271     1.173 -85.57   0
       204    860.1639    420.7588 300.3222508 +22.7746207     525.3389     72.53175      1.771     5.29     5.910257     20.44259     48.95874         9     1.064     0.793 -35.52   0
       205    946.7308    419.3210 300.3497355 +22.8001012     844.3713     72.56862      1.656     3.56     5.982721     20.44259     75.11829        18     1.159     1.056  27.43   0
       206    687.6048    415.1378 300.2702485 +22.7213737     1066.821     72.43951      1.573     3.23     6.392354     20.44259     102.1269        15     1.038     0.909  53.59   0
       207    483.8915    415.4008 300.2066708 +22.6604746     516.3222     72.34715      1.617     2.70      6.21986     20.44259     57.33593         9     0.883     0.668  72.67   0
       208    192.0841    412.7077 300.1166941 +22.5723149     671.7971     72.64229      1.663     5.21     5.991779     20.44259     62.58828        11     1.244     0.695 -74.38   0
       209    253.9308    408.7327 300.1372294 +22.5896979     3796.924     72.51331      1.682     3.43     6.006409     20.44259     345.4672        34     1.366     1.257  55.64   0
       210    987.1284    407.7379 300.3661062 +22.8088504      4293.93     72.49487      1.730     3.49     6.156525     20.44259     352.2105        38     1.412     1.308 -63.88   0
       211    201.0930    403.3864 300.1225217 +22.5723357     7439.169      72.3841      1.765     3.38     6.006668     20.44259     730.7751        44     1.424     1.364  73.87   0
       212    967.0369    398.8900 300.3627047 +22.8002955     1884.611     72.43951      1.665     3.48     6.080513     20.44259      156.127        30     1.355     1.273  58.32   0
       213    341.9059    397.7659 300.1681731 +22.6128936     4810.144     72.42104      1.626     3.27     6.113914     20.44259      444.927        38     1.325     1.265  72.01   0
       214    586.1758    394.6493 300.2452769 +22.6851267     18566.21     72.45796      1.585     2.95     6.475345     20.44259     1828.845        63     1.402     1.331  38.96   0
       215    433.4203    396.1086 300.1972089 +22.6398189     289.9419      72.3841      1.354     5.12     6.258083     20.44259     37.27936         8     0.961     0.772 -47.36   0
       216    603.9335    394.3229 300.2509177 +22.6903477     922.8101     72.55019      2.048     6.24     6.443586     20.44259     53.38829        19     1.554     1.085 -43.72   0
       217    782.6061    385.1083 300.3096217 +22.7411626     413.5948     72.36562      1.568     3.67     6.090687     20.44259     41.41195         6     0.802     0.484  83.99   0
       218    205.9360    381.5197 300.1311233 +22.5675044     455.4982     72.56862      2.095     5.71     6.036486     20.44259     30.16219         8     1.340     0.686 -28.87   0
       219    920.0308    377.6766 300.3549146 +22.7801327     808.3513     72.43951      1.594     4.11     5.964109     20.44259     70.82391        14     1.205     0.822 -31.25   0
       220    456.0837    376.3448 300.2106808 +22.6409230     352.4361     72.55019      1.506     3.85     6.256599     20.44259     40.87091         5     0.863     0.493  48.22   0
       221    140.8534    374.3838 300.1131901 +22.5459597     2142.483     72.43951      1.782     3.62     6.157397     20.44259     200.9843        30     1.375     1.247  47.08   0
       222    940.4709    364.9844 300.3654130 +22.7825936     1127.679     72.45796      1.543     3.21     6.017991     20.44259     111.3658        17     1.102     0.952  35.74   0
       223    526.8096    364.0352 300.2367090 +22.6585557     6711.498     72.45796      1.562     2.93     6.309798     20.44259     653.8391        41     1.333     1.220  57.27   0
       224    241.6054    363.4941 300.1480710 +22.5730086     656.8581     72.34715      1.798     4.82     6.096076     20.44259     52.91294        13     1.247     1.142  13.80   0
       225     99.7092    356.1496 300.1063078 +22.5283967     590.4918     72.45796      1.736     3.42     6.410766     20.44259     46.25778        11     0.919     0.839 -57.31   0
       226    640.9412    354.3761 300.2754147 +22.6899358     657.9382     72.45796      1.806     4.00     6.337209     20.44259     61.81836        11     1.143     0.709 -67.22   0
       227    731.0518    353.1480 300.3039109 +22.7165452     1101.651     72.49487      1.579     3.14     6.214898     20.44259     110.5823        19     1.218     1.015  60.03   0
       228    433.4731    350.2291 300.2121105 +22.6266470     6053.092     72.47642      1.582     2.96     6.322289     20.44259     617.3064        39     1.303     1.227  71.43   0
       229    922.6232    345.5497 300.3661473 +22.7716633      775.773     72.45796      2.052     3.89     6.018773     20.44259     59.18792        12     1.095     0.806   6.39   0
       230    825.5040    345.0378 300.3360054 +22.7424681     1378.614     72.43951      1.601     3.36     6.083261     20.44259      121.725        21     1.249     0.993  48.36   0
       231    417.8214    338.9029 300.2109098 +22.6187056     579.0841      72.3841      1.525     4.05     6.334787     20.44259     56.23149        10     1.116     0.698  39.17   0
       232    500.8788    337.1820 300.2373411 +22.6430736     554.1161     72.45796      1.515     3.29     6.252135     20.44259     48.52951         8     0.785     0.696  31.31   0
       233    798.1689    332.5655 300.3315234 +22.7307030      599.912     72.47642      1.963     4.84     6.173536     20.44259     48.53664         8     1.032     0.670 -37.91   0
       234    321.0814    329.4484 300.1838533 +22.5870247     2560.759     72.49487      1.621     2.99     6.269441     20.44259     255.4991        26     1.237     1.103  26.48   0
       235     39.4863    326.5370 300.0971855 +22.5018496     1109.248     72.56862      2.098     5.03     6.567374     20.44259     102.5172        20     1.355     1.164  64.09   0
       236    667.9400    324.7166 300.2934538 +22.6894844     290.0974     72.55019      1.847     3.81     6.328567     20.44259     37.58666         5     1.173     0.355 -14.36   0
       237    290.3339    318.7824 300.1777413 +22.5747527     29968.54     72.43951      1.681     3.24     6.269441     20.44259     2991.064        79     1.511     1.403  70.07   0
       238    824.9100    316.6458 300.3450305 +22.7341216     1426.737     72.43951      1.637     4.26     6.111633     20.44259      133.651        24     1.430     1.101  60.86   0
       239    740.1921    305.4142 300.3222462 +22.7055485     545.5456     72.36562      1.625     3.60     6.256061     20.44259     55.89252         7     0.965     0.654 -17.74   0
       240    389.0693    304.4197 300.2131407 +22.6001857      478.457     72.43951      1.555     4.60     6.281009     20.44259      57.7797        10     1.079     0.743   2.04   0
       241    164.5094    305.5194 300.1428873 +22.5332615     489.1686     72.56862      1.665     4.43     6.358413     20.44259     36.65923         8     1.116     0.500  -0.24   0
       242    700.7847    298.8102 300.3120985 +22.6918595      1933.71      72.3841      1.639     3.28     6.306504     20.44259     177.3348        26     1.211     1.188 -11.28   0
       243    508.9051    293.6029 300.2539773 +22.6329458     425.5477     72.36562      1.744     4.23      6.26865     20.44259     45.77231         8     0.853     0.793  32.67   0
       244    915.8193    291.8262 300.3814508 +22.7541679       622.95     72.47642      1.526     4.61     6.120106     20.44259     57.16055        12     1.144     0.878  56.32   0
       245    362.4676    283.1747 300.2117474 +22.5861151     2316.583     72.43951      1.843     3.72     6.280031     20.44259     227.3387        31     1.484     1.179  54.68   0
       246    802.0283    276.3811 300.3509516 +22.7156922     531.6075     72.45796      1.457     3.17     6.306652     20.44259     72.76196        12     1.049     0.839  79.25   0
       247    701.2099    274.3400 300.3201676 +22.6849474     391.0611     72.42104      2.044     3.01     6.322089     20.44259     37.19269         5     0.751     0.432  18.48   0
       248    684.2911    273.8993 300.3150348 +22.6797592     459.6358     72.62388      1.731     4.47     6.336731     20.44259     42.49235         6     0.919     0.618  29.81   0
       249    438.4109    262.5405 300.2420901 +22.6029157     1217.273     72.42104      1.613     3.21     6.365398     20.44259     142.8489        20     1.190     1.088  39.58   0
       250    683.4278    254.6898 300.3209953 +22.6739749     2181.974     72.43951      1.596     2.98     6.340932     20.44259     226.5391        25     1.206     1.148  15.36   0
       251    944.7211    249.2506 300.4042807 +22.7505558     3105.767     72.45796      1.664     3.08     6.449719     20.44259     308.1704        31     1.292     1.219 -82.45   0
       252   1005.8218    244.0998 300.4250273 +22.7673404     470.7117     72.40257      1.734     4.63     6.748783     20.44259     40.32957         7     1.102     0.553 -27.88   0
       253    391.6393    238.4271 300.2353423 +22.5819835     717.2589     72.47642      1.646     4.08     6.429501     20.44259     63.89662        13     1.164     0.790 -21.06   0
       254   1014.2341    237.2771 300.4298666 +22.7678911     1500.262     72.45796      1.735     3.74     6.813687     20.44259     134.5779        24     1.294     1.150  70.55   0
       255     97.1690    232.1399 300.1457356 +22.4920101     670.0559     72.49487      1.764     4.69     6.702091     20.44259     65.33929        13     1.219     0.982 -87.00   0
       256     66.3633    232.7450 300.1359588 +22.4829576     1758.382     72.47642      1.900     7.59     6.815226     20.44259     385.6975        23     1.589     1.015 -40.13   0
       257    960.4283    229.8120 300.4154877 +22.7496565       360.03     72.45796      1.268     4.12     6.605707     20.44259     46.59322         6     0.917     0.663  68.71   0
       258    150.2203    224.5993 300.1646824 +22.5057308     507.8802      72.3841      1.756     6.24     6.717715     20.44259     64.59785        12     1.224     1.068  18.23   0
       259    945.8041    222.6337 300.4132499 +22.7432178     317.9861     72.45796      1.406     3.45     6.569511     20.44259     32.81734         6     0.718     0.649 -74.72   0
       260    826.5557    218.6004 300.3773414 +22.7064005      368.469     72.45796      1.829     4.19     6.397967     20.44259      38.3741         7     1.033     0.486 -83.45   0
       261    755.0422    215.8335 300.3559290 +22.6842170     656.1099     72.51331      1.687     5.12     6.389877     20.44259     61.45267        14     1.158     1.085 -15.98   0
       262    345.2227    215.8564 300.2282069 +22.5616007     340.1701     72.47642      1.438     4.58      6.38461     20.44259      46.0848         7     1.036     0.575 -17.04   0
       263    846.2218    209.5437 300.3864142 +22.7096748     366.1479     72.47642      1.625     4.10     6.371246     20.44259     39.65723         7     0.870     0.665  76.93   0
       264    853.1265    205.3166 300.3899393 +22.7105229     2070.616     72.58704      1.701     3.30     6.368975     20.44259      199.257        27     1.323     1.168  29.26   0
       265    271.8688    202.3938 300.2097358 +22.5357719     2096.344     72.42104      1.636     3.33     6.584372     20.44259     199.1598        26     1.297     1.103 -54.54   0
       266    349.4179    197.1578 300.2355753 +22.5574807     970.2912     72.47642      1.692     4.75     6.425022     20.44259     106.2916        19     1.354     1.033  59.47   0
       267    751.4019    196.9148 300.3609275 +22.6776843     524.5352      72.3841      1.457     3.68     6.410795     20.44259     76.27483        11     1.071     0.935  -9.22   0
       268    101.2091    197.3310 300.1582774 +22.4832183     371.5962     72.43951      1.620     4.51     6.844761     20.44259     47.03214         8     1.190     0.739  18.12   0
       269    858.8345    193.6315 300.3955091 +22.7088665     355.2895     72.47642      1.508     5.45     6.386981     20.44259     43.42939         7     1.115     0.752  36.03   0
       270    166.9102    189.3398 300.1813058 +22.5005957     628.1461     72.55019      1.540     3.46     6.878219     20.44259      86.1412        11     1.113     0.907 -27.76   0
       271     19.9442    188.0922 300.1360011 +22.4562259     236.3749     72.51331      1.417     4.65     7.139321     20.44259     29.10246         5     1.227     0.501  68.83   0
       272    769.2762    186.4381 300.3698995 +22.6800152     540.0176     72.43951      1.407     3.50     6.441408     20.44259     62.43774        11     0.992     0.867  -2.38   0
       273    704.3172    186.6081 300.3495843 +22.6606361     1694.717     72.40257      1.623     2.94     6.398493     20.44259     178.9005        21     1.179     1.060  18.27   0
       274    187.8932    183.1938 300.1898266 +22.5051119     490.3417     72.34715      1.591     5.55      6.80648     20.44259     39.76782        11     1.207     0.719  -5.94   0
       275    975.7839    179.4716 300.4366038 +22.7397546     893.3146     72.45796      1.682     3.74     6.793318     20.44259     78.80534        17     1.197     0.980  63.07   0
       276    708.2674    177.9240 300.3536315 +22.6593188     882.7253     72.55019      2.072     4.21     6.413069     20.44259     70.02013        17     1.178     1.050  87.40   0
       277    628.8851    177.3642 300.3290616 +22.6354132     1419.021     72.43951      1.552     3.12     6.377677     20.44259     151.3629        20     1.170     0.997  56.06   0
       278    477.9521    178.6117 300.2816200 +22.5906150     279.1671     72.47642      1.382     5.48     6.481346     20.44259     39.64747         7     1.229     0.689  -2.98   0
       279    824.4954    168.9159 300.3928068 +22.6914849      1424.98     72.64229      1.582     3.09     6.464272     20.44259     135.3808        19     1.121     1.014 -89.67   0
       280    836.4550    168.1724 300.3967795 +22.6948470     859.8168     72.45796      1.700     3.49     6.461982     20.44259     73.78096        14     1.093     0.920  -9.87   0
       281    555.2878    169.0579 300.3088144 +22.6110064     938.1475     72.53175      1.441     3.50      6.35051     20.44259     90.61395        13     1.050     0.878 -10.00   0
       282    997.3148    158.9032 300.4499943 +22.7402684     1594.976     72.62388      1.739     3.90     6.979909     20.44259     119.4806        27     1.372     1.206  29.16   0
       283    953.0781    158.4576 300.4363274 +22.7269171     1189.409     72.49487      1.715     3.61     6.679394     20.44259     97.49372        21     1.211     1.094 -37.00   0
       284    187.1423    150.8529 300.2000761 +22.4955917     804.5721     72.51331      1.671     5.05     6.918613     20.44259     74.75776        15     1.288     0.934  37.94   0
       285     48.9979    145.5388 300.1588281 +22.4527005     2199.335     72.43951      1.939     3.73     7.130482     20.44259     204.9025        32     1.476     1.387 -80.93   0
       286    871.9511    143.3464 300.4159037 +22.6983139     602.2258     72.49487      1.337     3.18     6.495203     20.44259     73.99866        12     1.017     0.773 -15.27   0
       287    206.4104    138.9198 300.2099393 +22.4979301     5687.561     72.43951      1.781     3.40     6.818851     20.44259      492.428        45     1.514     1.346  63.66   0
       288    188.6347    140.7484 300.2038155 +22.4931342     311.9716     72.47642      1.464     4.23     6.909125     20.44259      41.1948         6     0.734     0.696  -5.52   0
       289   1005.4536    126.9994 300.4628772 +22.7335144     18154.41     72.42104      1.856     3.60      6.99243     20.44259     1599.785        65     1.613     1.475 -83.53   0
       290    189.9626    130.1431 300.2076659 +22.4904833     520.9186     72.45796      1.520     4.50     6.904969     20.44259     44.51064        11     1.169     0.676 -14.21   0
       291    850.6187    120.9351 300.4165108 +22.6854846      3552.61     72.42104      1.671     3.30     6.505931     20.44259     341.3925        39     1.460     1.267  83.76   0
       292    954.2760    119.7115 300.4492606 +22.7161193     2733.031     72.58704      1.736     3.81     6.851899     20.44259      218.297        36     1.420     1.337  69.46   0
       293    400.0327    116.1428 300.2775971 +22.5493332     491.4934     72.47642      1.416     4.08     6.615382     20.44259     60.87637        12     1.139     0.704  10.93   0
       294    324.3896    107.7300 300.2567692 +22.5242771     750.5087     72.43951      1.858     4.16     6.706839     20.44259     57.33259        13     1.020     0.932 -27.23   0
       295     89.9346    104.7972 300.1847626 +22.4532506     552.3697     72.47642      1.601     5.35      7.06883     20.44259     58.11326         9     1.138     0.710 -30.76   0
       296    451.2319    103.1866 300.2977431 +22.5609268     1679.772     72.43951      1.628     3.44     6.474162     20.44259     160.3244        24     1.364     1.018  57.90   0
       297    379.6815    103.9296 300.2752172 +22.5397310     455.8728     72.56862      1.669     2.55     6.531315     20.44259     58.86613         6     0.849     0.567 -21.01   0
       298    513.1208    102.5795 300.3172213 +22.5792681     458.0781     72.45796      1.691     3.75     6.324844     20.44259     47.30989         6     0.821     0.493   2.68   0
       299    195.3208     98.2334 300.2196742 +22.4829147     401.9225     72.42104      1.486     3.42     6.881112     20.44259     43.83084         5     0.762     0.445  76.77   0
       300    739.7071     92.9686 300.3909731 +22.6442727     294.1081      72.3841      1.380     4.22     6.635953     20.44259     36.85933         5     0.843     0.602   3.66   0
       301    885.8472     88.0306 300.4381687 +22.6865433      281.493     72.47642      1.355     3.51     6.693923     20.44259     36.27752         5     0.794     0.498  26.07   0
       302   1015.9374     84.3831 300.4799628 +22.7243751     3540.704     72.43951      1.895     3.47     6.783618     20.44259     300.1476        43     1.601     1.427 -40.10  16
       303    225.3572     82.8396 300.2340092 +22.4874802     6132.663     72.55019      1.826     3.53      6.65849     20.44259     547.7424        40     1.457     1.329  56.85   0
       304     76.5914     82.5127 300.1878338 +22.4428509     792.1805      72.3841      1.960     3.68     7.091686     20.44259     63.93861        12     1.064     0.797 -43.44   0
       305    240.8378     74.4173 300.2415561 +22.4896923     479.7061     72.45796      1.864     4.91     6.662149     20.44259     41.67202         7     1.122     0.609  38.89   0
       306    471.4900     68.3764 300.3153341 +22.5569747     6407.574      72.3841      1.690     3.06     6.358883     20.44259     662.7968        42     1.396     1.275  68.12   0
       307    356.7400     68.2813 300.2796250 +22.5226141     569.7293     72.53175      1.487     3.68     6.465274     20.44259     58.39428        14     1.070     0.969 -52.35   0
       308    724.2090     58.4768 300.3973164 +22.6297111      946.417     72.42104      1.992     4.24     6.635953     20.44259     74.42437        14     1.252     0.865  -6.02   0
       309    816.9962     57.3528 300.4266247 +22.6571290     353.6209     72.43951      1.433     4.41     6.678907     20.44259     43.26094         6     0.818     0.676 -16.12   0
       310    164.1525     52.7572 300.2247117 +22.4605115     418.7784     72.49487      1.492     4.31     7.041415     20.44259     44.83634         5     0.887     0.595 -29.81   0
       311    523.3029     51.4320 300.3369678 +22.5675996     404.3931     72.42104      1.478     2.68     6.218554     20.44259     43.02937         5     0.704     0.455  21.33   0
       312    599.9556     48.5441 300.3617931 +22.5896956     6523.333     72.45796      1.690     3.07     6.172078     20.44259     645.7105        47     1.411     1.363  76.05   0
       313    375.1149     47.7787 300.2919898 +22.5222157     1351.917     72.40257      1.548     3.32     6.428817     20.44259     140.6052        20     1.144     1.073 -63.58   0
       314    640.9040     46.3303 300.3752755 +22.6013047     842.6326     72.58704      1.450     4.08     6.399804     20.44259     90.93343         8     0.977     0.562  14.65   0
       315    656.8862     41.9037 300.3816927 +22.6048101     701.4982     72.64229      1.914     4.56     6.514087     20.44259     67.78288        13     1.224     0.894  21.59   0
       316    123.8238     39.9465 300.2163160 +22.4447565     808.0833     72.47642      2.083     5.55     7.066489     20.44259     73.53604        16     1.590     0.928  30.34   0
       317    926.6917     39.8486 300.4665300 +22.6848782     506.0777     72.49487      1.668     3.95     6.989532     20.44259     61.84135         9     1.058     0.680  38.23   0
       318    695.7578     37.8978 300.3951113 +22.6152808     384.8533     72.45796      1.388     4.39     6.635953     20.44259     52.34385        10     1.123     0.765  53.17   0
       319    644.0904     33.4881 300.3804298 +22.5985617      2796.69     72.62388      1.704     3.08     6.399605     20.44259     257.2472        28     1.290     1.123  67.02   0
       320    659.3370     32.4801 300.3855099 +22.6028309     862.6026     72.56862      1.932     4.64     6.521025     20.44259     65.13065        13     1.238     0.840  55.71   0
       321    284.9039     34.3443 300.2682553 +22.4913579     408.0478     72.55019      1.527     4.52     6.455019     20.44259     42.28124         8     0.999     0.634  -5.58   0
       322    730.4277     25.4096 300.4099696 +22.6220524     1315.546     72.45796      1.576     3.00     6.635953     20.44259       145.79        19     1.104     0.990   4.67   0
       323    890.1541     24.3823 300.4601365 +22.6695042     286.6239     72.49487      1.186     3.14     7.041262     20.44259     33.70277         5     0.734     0.451  18.11   0
       324    668.7286     18.2590 300.3930455 +22.6015462     674.3766     72.49487      1.531     4.23     6.599798     20.44259     68.20503        14     1.067     0.966 -73.03   0
       325    274.0484   1014.2781 299.9467561 +22.7695873     232.6904     72.45796      1.420     3.74      18.6596     20.44259     56.67466        10     1.067     0.697 -85.80   0
       326    108.7989   1008.4847 299.8972319 +22.7183627     1412.837     72.34715      3.240    10.45      87.9043     20.44259     63.22057        24     2.887     1.054 -38.14  18
       327     46.6956     16.9882 300.1997653 +22.4150676     549.4569      72.3841      1.922     5.84     7.129483     20.44259     41.69229         9     1.012     0.950  66.87   0
       328    177.9766    987.7194 299.9255027 +22.7331558     4151.555     72.42104      8.843    25.82     64.26192     20.44259     80.60457       319     5.821     5.011 -82.19   3
       329    196.3180    986.8374 299.9314955 +22.7384036     5276.254     72.42104     11.549    46.87     57.19273     20.44259     99.98836       627    11.912     5.118 -49.63  19
       330    215.8387    975.6537 299.9412062 +22.7410493     7515.386     72.45796      8.310    32.41     42.59781     20.44259     159.2709       754    10.831     5.009  63.49  18
       331    126.0441   1010.0877 299.9020737 +22.7239955     266.5744     72.43951      1.505     5.71     89.67311     20.44259     38.92219         8     1.066     0.862 -73.81   0
