#   1 NUMBER                 Running object number                                     
#   2 X_IMAGE                Object position along x                                    [pixel]
#   3 Y_IMAGE                Object position along y                                    [pixel]
#   4 ALPHA_J2000            Right ascension of barycenter (J2000)                      [deg]
#   5 DELTA_J2000            Declination of barycenter (J2000)                          [deg]
#   6 FLUX_APER              Flux vector within fixed circular aperture(s)              [count]
#   7 FLUXERR_APER           RMS error vector for aperture flux(es)                     [count]
#   8 FLUX_RADIUS            Fraction-of-light radii                                    [pixel]
#   9 FWHM_IMAGE             FWHM assuming a gaussian core                              [pixel]
#  10 BACKGROUND             Background at centroid position                            [count]
#  11 THRESHOLD              Detection threshold above background                       [count]
#  12 FLUX_MAX               Peak flux above background                                 [count]
#  13 ISOAREA_IMAGE          Isophotal area above Analysis threshold                    [pixel**2]
#  14 A_IMAGE                Profile RMS along major axis                               [pixel]
#  15 B_IMAGE                Profile RMS along minor axis                               [pixel]
#  16 THETA_IMAGE            Position angle (CCW/x)                                     [deg]
#  17 FLAGS                  Extraction flags                                          
         1    704.5260     16.7504 300.3930081 +22.6014784     777.5081     72.28439      1.506     4.00     5.438498     20.39362     84.71769        16     1.117     1.046  15.93   0
         2    510.2347     16.1569 300.3326703 +22.5431808     1142.916     72.33961      1.406     2.83     5.252359     20.39362     130.0106        16     1.070     0.942 -63.68   0
         3    413.9098     14.6108 300.3031808 +22.5139100     805.9893     72.22914      1.352     2.94     5.413232     20.39362     85.46681        12     0.956     0.767 -32.90   0
         4    753.3230      5.2993 300.4119285 +22.6127780     568.5273     72.24757      1.410     2.73     5.429968     20.39362     75.23599        11     0.953     0.745 -19.58  16
         5    185.3772      4.1097 300.2354802 +22.4424790     3885.525      69.1028      1.595     3.05     5.837829     20.39362      418.401        36     1.350     1.236  43.47  24
         6    511.4619      1.9937 300.3376411 +22.5394741     326.8415     59.90035      1.231     4.30     5.229887     20.39362     40.84482         6     0.943     0.558  20.83  24
         7    147.0165   1005.5823 299.8984349 +22.7185067     1067.361     72.26598      2.457     8.39     88.90369     20.39362     52.43674        16     1.929     1.018  66.36   2
         8    100.1484   1009.8531 299.8824778 +22.7056669      4277.57     72.32121     16.699    95.91      87.3152     20.39362      150.752      2074    20.794    12.274  50.53  27
         9     91.6977    951.3088 299.8988946 +22.6863437     5744.504     72.46828     25.181   105.25     30.32911     20.39362     1281.801      3567    20.155    15.251 -22.69  19
        10    179.9927    975.7796 299.9183812 +22.7198544     1468.506     72.24757      3.399    11.99     62.13042     20.39362     54.30585        34     3.044     1.314 -59.53   3
        11    652.7827    985.1158 300.0624897 +22.8643200     9426.581     72.24757      2.002     4.69      4.32439     20.39362     530.8296        52     1.617     1.482  12.60   3
        12    511.4320    976.6917 300.0212057 +22.8195258       413.22     72.22914      1.559     3.75     4.266998     20.39362     47.29039         6     1.063     0.457   3.94   0
        13    939.8448    971.7975 300.1563138 +22.9465166     832.3003     72.28439      2.377     8.50     4.222964     20.39362     38.81428        18     1.656     1.220  54.15   0
        14    157.3589    956.0030 299.9177772 +22.7073915     1916.682      72.3028      7.419    14.11     47.21515     20.39362     55.97791        49     3.353     1.651  29.91   3
        15    665.6325    954.4320 300.0764748 +22.8593621     6902.069     72.33961      1.945     4.35     4.145578     20.39362     387.1075        46     1.549     1.399  19.09   0
        16    186.6710    999.1620 299.9128514 +22.7285641      2697.24     72.26598      5.917    24.88     81.38263     20.39362     79.83578       124     6.098     2.820 -86.38  18
        17    233.2469    984.8720 299.9319825 +22.7384395     5696.586     72.26598      9.905    43.14     56.69062     20.39362     101.0416       529     8.614     5.995 -85.80  19
        18    545.3940    948.5693 300.0409287 +22.8216361     483.3165     72.28439      1.865     6.51     4.117531     20.39362     40.63594         8     1.357     0.876 -45.48   0
        19    560.7013    992.0879 300.0315392 +22.8387169     2317.198     72.44991      1.946     4.79     4.363991     20.39362      141.409        32     1.434     1.361  11.36   0
        20    816.5203    947.6017 300.1257245 +22.9026185     388.6364     72.19228      1.553     4.23     4.145546     20.39362     35.86249         6     1.123     0.455  78.41   0
        21    747.7062    988.2205 300.0910595 +22.8936624     708.7758     72.21071      2.264     7.03     3.952772     20.39362     50.46914        13     1.255     1.103  59.48   0
        22    574.0682    945.0899 300.0509904 +22.8292335     1505.693     72.43154      1.837     4.71     4.088368     20.39362      106.065        26     1.416     1.225 -32.62   0
        23    467.8001    941.6732 300.0190126 +22.7963928     1026.841      72.1554      1.934     5.70     4.246322     20.39362     71.49809        19     1.407     1.062 -55.83   0
        24    398.4567    939.5379 299.9981236 +22.7749868     6753.273     72.33961      1.936     4.24      4.37441     20.39362     453.9301        49     1.550     1.436 -13.39   0
        25     90.4070    916.8940 299.9096856 +22.6760871     4418.619     72.17384     18.330    50.61     10.36172     20.39362     90.63974       901    11.410     6.591 -38.90   3
        26    121.8408    985.2314 299.8972294 +22.7051164     961.3961     72.33961      4.467     5.12     67.25782     20.39362     47.45076         9     0.925     0.853  71.85   3
        27    431.1234    926.4229 300.0125560 +22.7810187     392.0631     72.28439      1.445     4.70     4.267123     20.39362     47.07013        11     1.204     0.974 -24.79   0
        28    252.0210    974.7073 299.9411275 +22.7411560     8700.629     72.21071     12.593    41.22     34.31331     20.39362     199.7191      1119    13.904     5.842  71.25  19
        29    944.8160    918.3988 300.1752345 +22.9326643      2158.13      72.1554      2.062     4.96     4.337159     20.39362     109.4171        32     1.539     1.343 -68.02   0
        30    141.3007    918.0532 299.9251275 +22.6916893     859.1701      72.3764      6.068     5.39     18.59394     20.39362     31.34595         5     1.574     0.520 -61.15   2
        31    176.7287    967.1116 299.9201859 +22.7163891     900.6025     72.44991     13.672    12.53     54.74029     20.39362     47.70398        19     3.010     1.451  52.54   3
        32    595.4936    914.9694 300.0674601 +22.8270088     356.1317     72.21071      1.798     4.20     3.986808     20.39362      31.9578         5     1.137     0.443  28.18   0
        33    627.6986    912.5121 300.0782912 +22.8359562     436.2177     72.44991      2.325     3.45      4.02699     20.39362      44.6614         5     0.942     0.498  -2.94   0
        34    734.1560    907.0353 300.1132440 +22.8662876     789.1182     72.33961      2.031     5.66     4.048123     20.39362      44.3604        13     1.195     0.879  45.22   0
        35    647.2917    987.4769 300.0600109 +22.8633519     8698.138     72.43154      2.022     4.85     4.335911     20.39362     466.4977        46     1.633     1.394  34.09   3
        36    768.3923    901.5743 300.1256912 +22.8749779     1173.639     72.28439      2.004     5.00     4.138183     20.39362     73.82623        23     1.396     1.192   4.72   0
        37    545.5950    902.1932 300.0560745 +22.8083835     489.9782     72.13695      2.103     4.69     3.994843     20.39362     30.34183         6     0.953     0.656  -8.52   0
        38      8.0275   1007.4469 299.8546360 +22.6773291     2819.847     72.32121     13.933    51.37    -23.08385     20.39362      69.2924       725    12.507     5.856  84.13  26
        39    790.7589    895.1368 300.1347571 +22.8798304     11497.77     72.26598      1.865     4.20     4.198737     20.39362     677.6791        52     1.470     1.459  38.87   0
        40    836.1290    895.1495 300.1488984 +22.8934269     546.8924     72.28439      1.933     4.96     4.108624     20.39362     38.87749         8     1.041     0.887  54.78   0
        41    979.5814    893.8145 300.1940762 +22.9360130     408.1797     72.24756      1.571     4.17     4.592743     20.39362     24.94383         5     1.172     0.424 -76.69   0
        42      6.9930    975.2834 299.8647769 +22.6677979     1618.397     72.21071     13.349    23.16    -12.68682     20.39362     45.22219        83     4.149     3.591  24.23  27
        43    213.8077    986.6847 299.9253479 +22.7331274     4071.631     72.21071      8.592    37.75     67.16927     20.39362     91.25823       380     8.323     4.751  88.00  19
        44    101.7069    887.5460 299.9227407 +22.6710605     1337.265     72.33961      5.843    10.36     8.798707     20.39362     65.49413        28     2.382     1.256 -61.43   1
        45    842.6769    882.8247 300.1549482 +22.8918479       416.56      72.3028      1.772     6.08     4.058657     20.39362     40.91644         9     1.192     0.872 -26.59   0
        46    496.0240    883.1439 300.0468338 +22.7880548     544.6384      72.3028      1.795     4.59     4.014407     20.39362     45.49126         8     0.860     0.751  12.15   0
        47    799.1211    877.2495 300.1431810 +22.8771976      1447.71     72.28439      1.859     4.36     4.216883     20.39362     94.26723        26     1.346     1.250  33.32   0
        48    182.0170    979.9531 299.9176531 +22.7216587     1292.374     72.32121      3.753    11.60     65.34003     20.39362     50.97591        28     2.603     1.440 -57.49   3
        49    981.5284    877.0075 300.2001495 +22.9317664     344.0192     72.26598      1.657     4.44     4.604543     20.39362     33.54326         6     1.025     0.548  13.45   0
        50    651.4215    873.7317 300.0982931 +22.8319305     598.4553     72.28439      2.075     4.46     4.282909     20.39362      36.2222         7     0.993     0.874  -3.07   0
        51    837.4782    870.6995 300.1572701 +22.8868072     713.2733     72.41316      1.606     4.75     4.057486     20.39362     53.93166        17     1.144     1.040 -86.74   0
        52    946.3485    868.2648 300.1920169 +22.9187180     415.9992     72.32121      1.848     5.44     4.290271     20.39362     40.72715         8     1.340     0.623   1.14   0
        53    885.3107    861.7032 300.1751118 +22.8985508     606.8254     72.46828      1.780     6.00     4.000735     20.39362     47.38521        14     1.151     1.128 -86.25   0
        54    736.9152    861.3112 300.1289730 +22.8539820     623.5129     72.41316      1.777     5.58     4.245669     20.39362     48.36516        10     1.230     0.861  43.02   0
        55    449.6529    857.2889 300.0408048 +22.7667313     4212.377      72.3028      1.801     3.80       4.2709     20.39362     304.1217        37     1.423     1.280   2.84   0
        56    748.7073    858.0944 300.1336944 +22.8565912     482.7866     72.44991      1.696     5.69      4.26694     20.39362     40.21048        10     1.132     0.806 -23.31   0
        57    111.5900    844.6093 299.9397723 +22.6617100     297.8779     72.17384      1.651     4.46     6.286803     20.39362     33.30328         5     1.344     0.421  45.61   0
        58    328.2178    842.1450 300.0079379 +22.7259750     2263.447     72.26598      0.662     1.09     4.564555     20.39362     1047.222         9     0.670     0.435 -58.88   0
        59    175.3927    842.7391 299.9602143 +22.6803124     738.7991     72.26598      1.998     5.26     6.854035     20.39362     66.56294        14     1.111     1.020  37.47   0
        60    152.0573    839.6293 299.9539704 +22.6724206     1608.898     72.28439      1.924     4.33     6.922664     20.39362      146.646        30     1.482     1.286  57.35   0
        61   1022.9358    829.1235 300.2286403 +22.9304043     1259.272     60.38717      1.468     4.18     4.847951     20.39362     122.5363        18     1.284     0.869 -89.77  24
        62    978.2736    827.7694 300.2151443 +22.9166414     2113.325      72.3028      1.860     4.53     4.672303     20.39362     124.0427        30     1.370     1.325  56.36   0
        63     27.6581    829.2150 299.9186938 +22.6321141     406.1941     72.26598      1.613     3.18     4.153105     20.39362     43.39835         6     0.740     0.606  44.83   0
        64    683.2712    828.0126 300.1230820 +22.8283445     414.5893      72.3028      1.973     4.69     4.540603     20.39362     34.40363         8     1.026     0.609 -21.81   0
        65    761.4197    821.6658 300.1495010 +22.8499356     601.6548     72.24757      1.602     4.16     4.521572     20.39362     55.43356        13     1.149     0.912 -32.84   0
        66    629.7609    815.3911 300.1105132 +22.8086852     4900.122      72.3028      1.687     3.51     4.363338     20.39362     382.3361        38     1.330     1.283  55.58   0
        67    119.5214    816.2210 299.9514659 +22.6559458     325.8081     72.28439      1.448     3.32     5.656517     20.39362     45.06507         5     0.859     0.554 -39.08   0
        68    432.0898    812.3396 300.0499512 +22.7485630     589.1323      72.3764      1.593     4.68     4.490573     20.39362     55.22889        15     1.328     0.790  58.23   0
        69    179.7948    809.0941 299.9725201 +22.6719800     1368.545     72.17384      1.813     4.49     5.344043     20.39362      124.123        22     1.328     1.163  -2.89   0
        70    650.3862    807.9076 300.1193717 +22.8127164     714.5922     72.21071      1.481     3.80     4.477811     20.39362     79.95408        15     1.077     0.997 -47.80   0
        71    199.2759    806.6435 299.9793739 +22.6771196     439.8396     72.26598      1.719     5.20     4.999379     20.39362     34.68265         8     0.984     0.775  22.76   0
        72    567.0185    798.7225 300.0963882 +22.7850961     349.7699     72.28439      1.757     4.20     4.357047     20.39362     35.00431         7     1.140     0.442  55.89   0
        73   1022.5649    795.5893 300.2394269 +22.9206542      1042.39     62.18952      1.719     4.86     4.807434     20.39362     85.96409        22     1.407     1.137  68.92  24
        74    805.8292    795.1424 300.1719678 +22.8556191     4224.229     72.28439      1.743     3.75     4.679334     20.39362     296.7153        34     1.313     1.297 -82.33   0
        75    214.2807    789.1933 299.9897117 +22.6766125     383.0459     72.21071      1.520     3.25     4.667417     20.39362     38.36121         6     0.753     0.566  41.82   0
        76    523.0320    787.5895 300.0863090 +22.7687164     601.8686     72.28439      1.395     3.54     4.411781     20.39362     75.24359        10     1.019     0.819  67.90   0
        77    169.3299    785.5493 299.9769193 +22.6620859     968.1725     72.28439      1.666     3.77     5.105498     20.39362      100.166        18     1.222     0.969  23.99   0
        78    584.4235    781.1893 300.1075084 +22.7852769     599.2001     72.28439      1.828     5.68     4.490101     20.39362     55.03027        11     1.040     0.939  -2.16   0
        79    318.8099    777.5708 300.0260017 +22.7046212     53642.23     72.28439      1.719     3.56     4.582355     20.39362     4535.501        99     1.531     1.449  24.52   0
        80    576.7609    776.6879 300.1065849 +22.7816879     1574.315     72.26598      1.591     3.44     4.519669     20.39362     138.9238        20     1.127     1.090 -55.08   0
        81    989.6059    776.3730 300.2353888 +22.9052623     745.4384     72.28439      1.782     4.90      4.94978     20.39362      65.7161        14     1.225     0.955  33.44   0
        82    247.0812    776.1303 300.0041580 +22.6827002       402.66     72.39478      1.569     5.89     4.597652     20.39362     39.77649        10     1.343     0.728 -12.33   0
        83    605.4918    772.6136 300.1168583 +22.7891273     1088.651     72.22914      1.759     3.95     4.549237     20.39362     91.44885        18     1.228     1.069 -82.04   0
        84      5.4822    771.6998 299.9304980 +22.6089647     717.5175     72.44991      1.900     4.79     4.435655     20.39362     76.72758        14     1.504     0.806  62.61  16
        85    616.8673    771.1389 300.1208812 +22.7921124     544.2394     72.32121      1.411     3.63      4.58044     20.39362      67.6514        10     0.967     0.765   6.46   0
        86    936.3214    769.4096 300.2210281 +22.8873059     175.1045     72.24757      1.325     3.93     4.918668     20.39362     31.92213         5     1.005     0.440  14.09   0
        87    721.7148    767.8160 300.1546305 +22.8225711     329.5135     72.24757      1.401     4.24     4.754041     20.39362      41.0534         6     0.757     0.677  -6.72   0
        88    759.5967    757.8101 300.1696899 +22.8310444      867.679     72.10004      1.665     3.82     4.808341     20.39362     77.72614        14     1.058     0.912 -26.01   0
        89    382.7469    755.4102 300.0530982 +22.7174282     2029.859     72.28439      1.685     3.45     4.769351     20.39362     166.3009        24     1.221     1.142  38.26   0
        90    368.5721    754.8099 300.0488823 +22.7130066     31687.94     72.28439      1.651     3.44     4.756203     20.39362     3190.838        69     1.415     1.347   3.62   0
        91    258.4231    754.0001 300.0148778 +22.6797500     189.9648     72.21071      1.030     4.18      4.65146     20.39362     32.97274         5     0.812     0.614   0.02   0
        92    891.7746    750.9861 300.2131212 +22.8686712     2783.865     72.28439      1.674     3.42     4.863482     20.39362      216.049        32     1.333     1.248  57.60   0
        93    379.9052    749.6989 300.0540700 +22.7149368     499.9582     72.46828      1.496     4.59     4.790523     20.39362      55.3681         8     0.979     0.612  -9.64   0
        94    649.7242    746.8734 300.1390041 +22.7949873     919.2617       72.358      1.493     4.06     4.769097     20.39362     105.4753        16     1.225     0.918 -11.67   0
        95    485.6942    747.0169 300.0878702 +22.7458758     335.2187     72.21071      1.383     3.92     4.779359     20.39362     50.22518         7     0.971     0.586  31.96   0
        96    251.0675    746.6387 300.0149824 +22.6754317      782.337     72.24757      1.573     3.78     4.695141     20.39362      92.1192        16     1.108     1.007   2.90   0
        97    496.8683    741.6162 300.0931043 +22.7476739     869.5418     72.28439      1.612     3.33     4.820082     20.39362     115.0545        15     1.143     0.925  17.22   0
        98     56.7954    742.4416 299.9559500 +22.6159648     406.9806      72.3028      1.812     3.57     5.115871     20.39362      38.9985         5     0.827     0.660  46.69   0
        99    897.6687    739.3204 300.2187511 +22.8670834     402.1235     72.39478      1.608     4.03     4.982283     20.39362     51.14448         7     1.020     0.454   6.65   0
       100    354.9571    737.6077 300.0502361 +22.7039869     290.3979      72.3028      1.570     3.60     4.826061     20.39362     36.74411         5     0.766     0.606  83.17   0
       101    442.9592    736.3947 300.0780184 +22.7300175     514.0674      72.3028      1.851     5.47       4.8872     20.39362      40.3609        10     1.245     0.677  56.77   0
       102    398.3164    737.6324 300.0637210 +22.7169916     365.0446     72.26598      1.471     3.08     4.863966     20.39362     41.75767         5     0.724     0.459 -15.16   0
       103     84.4289    734.6269 299.9670771 +22.6220114     591.7365     72.26598      2.208     7.64     5.162254     20.39362     38.91045        10     1.645     0.993  50.33   0
       104    875.7903    733.6368 300.2137746 +22.8588984     461.7151     72.28439      1.855     5.60     4.949361     20.39362     43.57628         7     1.084     0.815 -25.53   0
       105    249.0467    731.1819 300.0193767 +22.6703897     582.6595     72.32121      1.864     4.24     4.749774     20.39362     45.96094        13     1.194     0.746   1.12   0
       106    572.2102    721.6541 300.1230534 +22.7645185     393.4326     72.28439      1.259     3.47     4.857817     20.39362     53.28255         5     0.749     0.465  -9.71   0
       107    541.3264    719.6696 300.1140799 +22.7546943      564.392       72.358      1.525     4.85     4.872208     20.39362     61.63792        13     1.135     1.003  32.53   0
       108    451.1307    718.7361 300.0863004 +22.7273962     279.3688     72.32121      1.300     3.55     4.919171     20.39362     51.17765         7     0.958     0.677 -64.04   0
       109    958.2224    716.2797 300.2451283 +22.8785919     4576.808     72.24757      1.777     3.78     5.192369     20.39362     325.1126        39     1.414     1.321  46.28   0
       110    563.5515    717.1547 300.1218187 +22.7606317     1318.177     72.32121      1.614     3.49     4.873875     20.39362     118.5646        23     1.272     1.069  16.92   0
       111    483.3995    716.6512 300.0970237 +22.7364684     356.1359     72.24757      1.636     5.26     4.926121     20.39362     44.37218         8     1.125     0.977  33.17   0
       112    645.1117    712.4364 300.1487582 +22.7837130     407.7636     72.26598      1.589     3.76      4.85714     20.39362     44.30659         8     1.035     0.827  76.60   0
       113    946.6625    707.7063 300.2443080 +22.8726664     1606.625      72.3764      1.715     3.95     5.183678     20.39362     130.2096        23     1.296     1.081  11.39   0
       114    309.4283    701.2624 300.0478808 +22.6799047     870.9506     72.28439      1.652     3.65     4.762302     20.39362      82.2119        17     1.203     0.927  42.06   0
       115    772.9443    698.9893 300.1929663 +22.8181411      2557.82     72.28439      1.610     3.17      4.91265     20.39362     245.5207        28     1.350     1.091   5.82   0
       116    977.9022    697.7955 300.2572751 +22.8791700     1640.799     72.19228      1.785     4.52      5.24524     20.39362     103.7409        29     1.408     1.266  -1.97   0
       117    282.3925    696.6049 300.0409838 +22.6704626     325.7203     72.13696      2.058     5.37     4.751716     20.39362     25.85548         5     1.006     0.808  -9.07   0
       118    158.1682    685.0687 300.0061006 +22.6299055      774.722     72.26598      2.130     5.63     5.126109     20.39362     57.39969        14     1.219     0.983  -2.28   0
       119    855.0530    684.6705 300.2232196 +22.8386152     569.6327     72.28439      1.801     5.76     5.025215     20.39362     45.12686        10     1.081     0.865  37.15   0
       120    891.4366    675.8899 300.2374196 +22.8469857     149829.8     72.26598      1.648     3.41     5.136126     20.39362     11979.91       171     1.523     1.517  17.66   0
       121    653.5490    679.7120 300.1620201 +22.7768395     288.5328     72.32121      1.283     4.08     4.894561     20.39362     46.43423         6     1.081     0.440   6.33   0
       122    743.6691    675.8724 300.1913521 +22.8027303     780.9314       72.358      1.879     5.35     4.958366     20.39362     56.90382        13     1.244     0.974  13.42   0
       123    924.0258    669.2275 300.2497495 +22.8548277     365.6703     72.24757      1.305     3.41     5.217567     20.39362     42.66637         8     0.840     0.632 -35.05   0
       124    758.8963    661.9613 300.2006182 +22.8032932     9685.291     72.26598      1.496     3.07       4.9514     20.39362     954.9975        43     1.253     1.211  21.98   0
       125    577.6967    664.6447 300.1432858 +22.7497871     1525.176      72.3028      1.419     2.99     5.003012     20.39362     168.8623        18     1.069     0.942   8.63   0
       126    260.3543    656.8198 300.0470541 +22.6524352     4951.704     72.32121      1.631     3.17     4.869378     20.39362     571.6152        34     1.275     1.231  32.15   0
       127    342.3703    655.0608 300.0731401 +22.6765152     1080.819     72.32121      1.487     3.19     4.880125     20.39362     117.0582        15     1.014     0.936  11.03   0
       128    218.1268    652.6486 300.0352761 +22.6385782     412.2253     72.28439      1.491     3.64     4.937617     20.39362     45.62804         8     0.963     0.611 -59.91   0
       129    550.6912    650.6466 300.1394226 +22.7376752     746.6931     72.26598      1.503     3.41     5.032916     20.39362     76.97111        15     1.036     0.937 -31.70   0
       130    542.3051    642.7383 300.1393799 +22.7328909     3319.282      72.3764      1.505     2.82     5.041978     20.39362     379.8939        27     1.135     1.109  40.03   0
       131    532.5472    636.3954 300.1384016 +22.7281454     1557.605     72.26598      1.533     3.01     5.047959     20.39362     157.9856        20     1.065     1.049  35.05   0
       132    926.0662    634.6122 300.2616319 +22.8454872     440.1445     72.24757      1.537     3.34     5.138326     20.39362     48.91386         7     0.912     0.701 -38.28   0
       133    461.2887    635.4567 300.1165195 +22.7065246     382.5316     72.32121      1.622     4.29     5.036697     20.39362     35.03896         6     1.115     0.471   9.23   0
       134    195.7518    632.5464 300.0348480 +22.6260999     717.3599     72.32121      1.709     3.49     5.023303     20.39362     81.96088        13     1.178     0.890  -7.99   0
       135    210.2647    630.9111 300.0398921 +22.6299815     679.5327     72.41316      1.614     3.45     4.987412     20.39362     74.68982        13     1.094     0.816  -5.35   0
       136    979.5076    628.0953 300.2804217 +22.8596111     365.9454     72.46828      1.389     4.00     5.129928     20.39362      53.2475         9     1.083     0.588  22.29   0
       137    266.6044    628.5728 300.0581738 +22.6461997     372.4774     72.24757      1.649     3.40     4.886865     20.39362     36.72629         5     1.036     0.324 -22.34   0
       138    236.0354    627.7856 300.0489217 +22.6368101     592.1582     72.28439      1.568     6.14     4.935589     20.39362     51.26464        13     1.096     0.966  -5.51   0
       139    556.7579    626.9138 300.1490215 +22.7326753     426.2065     72.24757      1.340     3.30     5.055199     20.39362      60.9898         9     1.038     0.663  48.43   0
       140    457.3736    626.1522 300.1183231 +22.7026792     1686.715      72.3028      1.415     2.76     5.040086     20.39362     201.7779        21     1.083     1.013  49.96   0
       141    491.1175    625.4022 300.1290722 +22.7125747     265.3962     72.19228      1.245     3.92     5.057523     20.39362     39.55786         5     0.900     0.489  -2.56   0
       142    111.3153    620.9182 300.0123742 +22.5974459     19859.24     72.41316      1.740     3.39     5.166518     20.39362     2094.425        66     1.514     1.385  37.24   0
       143    542.3276    621.3058 300.1463490 +22.7267411     1053.206     72.39478      1.508     3.28     5.060108     20.39362     118.7205        20     1.130     1.089 -75.24   0
       144    577.4868    620.9549 300.1574133 +22.7371733     331.3065     72.26598      1.595     3.22     5.063501     20.39362     40.90787         5     0.954     0.627   2.44   0
       145    296.2880    612.1712 300.0727347 +22.6503884     240.4397     72.28439      1.525     4.68     4.871812     20.39362     34.34203         6     1.381     0.450 -87.78   0
       146    960.3604    607.8417 300.2810269 +22.8480562     1064.964      72.3764      1.594     4.12     5.070635     20.39362     80.50484        17     1.084     1.044 -68.16   0
       147     57.3555    605.2615 300.0006886 +22.5767724     1583.834      72.3028      2.096     4.97     5.151598     20.39362     103.2131        29     1.661     1.143 -79.36   0
       148    826.8936    605.9296 300.2400193 +22.8075506     460.3536     72.41316      1.331     3.50     4.985313     20.39362     67.22663        11     0.903     0.886  -9.73   0
       149     32.2714    622.4496 299.9873115 +22.5741823     630.2536     72.28439      1.889     4.08     5.191852     20.39362     76.23951        12     1.155     0.994 -55.29   0
       150    505.7892    602.1185 300.1412032 +22.7102825     475.9448     72.24757      1.260     2.14     5.088088     20.39362     73.27945         8     0.777     0.632  42.52   0
       151    297.9590    601.6783 300.0766625 +22.6478765     330.0434     72.26598      1.649     4.41     4.875098     20.39362      33.3151         7     0.912     0.606 -25.21   0
       152    899.5482    600.4925 300.2644436 +22.8277393     1064.859     72.33961      2.516     8.69     5.034646     20.39362     69.09456        22     2.383     0.884  14.36   0
       153    645.3114    598.9147 300.1857007 +22.7511573     208.6295     72.41316      1.206     4.11     5.065968     20.39362     33.53273         5     1.026     0.471  24.28   0
       154    462.5236    594.4221 300.1302323 +22.6951088     729.8233     72.26598      1.512     2.81     5.085052     20.39362     82.01047        13     0.961     0.810 -36.33   0
       155    610.6475    593.0609 300.1768027 +22.7390926      526.085     72.32121      1.361     2.96     5.140977     20.39362     72.84578         9     0.913     0.670  32.45   0
       156    657.7630    591.5598 300.1919691 +22.7527733     458.3224       72.358      1.302     3.10     5.079038     20.39362     53.45052        10     0.928     0.720 -87.40   0
       157    628.2383    591.0498 300.1829360 +22.7437837     498.9095      72.3028      1.335     3.02     5.124719     20.39362     64.35734        10     0.902     0.727  14.18   0
       158    506.6015    590.2578 300.1453083 +22.7071187     979.1367     72.22914      1.531     3.19     5.119102     20.39362     97.23188        16     1.052     0.939  59.48   0
       159    940.5108    585.8649 300.2819725 +22.8357955     3369.641     72.41316      1.637     3.39     4.983501     20.39362     276.4575        34     1.302     1.275 -64.12   0
       160    472.2176    585.6210 300.1361086 +22.6954852     1655.026     72.26598      1.424     2.86     5.114961     20.39362     180.3834        18     1.031     0.990 -14.91   0
       161    837.3299    583.3643 300.2506028 +22.8041885      329.391     72.28439      1.318     3.11     4.934911     20.39362       42.429         5     0.733     0.450  17.24   0
       162     34.0717    579.0479 300.0019661 +22.5622677     5062.918     72.26598      1.785     3.49     5.129145     20.39362     474.5911        42     1.483     1.330  -0.56   0
       163    501.2186    576.4800 300.1481068 +22.7015482     341.7109     72.28439      1.446     4.55     5.155286     20.39362     35.63784         6     0.954     0.618 -69.75   0
       164    980.1357    575.9794 300.2975460 +22.8448131     429.4214     72.26598      1.604     3.55     4.940904     20.39362     53.37078         7     1.092     0.438  31.25   0
       165    335.5641    572.2925 300.0979054 +22.6507090     9165.624     72.21071      1.516     2.88     4.891134     20.39362     1030.957        42     1.264     1.219  59.56   0
       166    458.0464    569.4084 300.1369620 +22.6865824      8933.65      72.3028      1.428     2.70     5.122128     20.39362     1021.672        41     1.223     1.170  45.80   0
       167    223.1971    566.2491 300.0649142 +22.6152954     264.5163     72.28439      1.295     4.31      5.02544     20.39362     33.45687         6     0.783     0.676 -80.16   0
       168    954.4640    560.9999 300.2944012 +22.8328220     12699.71     72.26598      1.618     3.27     4.882996     20.39362     1085.958        51     1.341     1.315 -36.85   0
       169    869.7630    563.6713 300.2671129 +22.8082366     1928.154     72.26598      1.506     2.68     4.894351     20.39362     227.0668        22     1.072     1.051  35.79   0
       170    518.6279    559.0228 300.1591969 +22.7017485     11818.19     72.28439      1.431     2.73     5.199224     20.39362     1423.655        43     1.218     1.139  27.02   0
       171    688.1464    554.6705 300.2134170 +22.7512714     447.6744      72.3028      1.143     2.91     5.209782     20.39362     69.72091         8     0.799     0.722 -56.82   0
       172    246.0907    554.3508 300.0758979 +22.6187414     1271.776     72.28439      1.455     3.30     4.977669     20.39362     164.5225        20     1.187     0.979  17.59   0
       173    404.1548    553.6921 300.1252905 +22.6659210     316.9432     72.28439      1.310     3.44     5.002439     20.39362     40.44786         5     0.781     0.437 -13.17   0
       174    492.8604    552.0639 300.1534333 +22.6920301     514.2278     72.32121      1.455     3.10     5.217315     20.39362     49.70016         7     0.734     0.676 -88.30   0
       175    450.2906    547.1404 300.1417787 +22.6778622     4344.846      72.3764      1.424     2.77     5.136312     20.39362     468.9518        30     1.186     1.078  30.88   0
       176    793.1979    547.2722 300.2485638 +22.7806003     702.7186     72.19228      1.357     3.06      4.85851     20.39362     95.91151        13     0.957     0.891 -63.91   0
       177    428.5533    545.5626 300.1355245 +22.6708963     1318.783     72.32121      1.415     2.79     5.073374     20.39362     147.3189        18     1.052     0.981  -4.14   0
       178    182.9628    544.7507 300.0593835 +22.5970629     750.5055     72.28439      1.577     3.27     5.112021     20.39362     90.74621        16     1.142     0.931  -3.02   0
       179    870.2076    542.9713 300.2739738 +22.8024181     1594.242     72.28439      1.555     3.26     4.822599     20.39362     138.9165        21     1.228     0.996 -40.27   0
       180    566.9208    534.7911 300.1821052 +22.7092524     208199.5     72.22914      1.430     2.69     5.279746     20.39362     26278.63       203     1.501     1.379  -5.46   0
       181    390.5514    540.9578 300.1251917 +22.6581874     354.4475     72.28439      1.640     5.12     4.975975     20.39362     45.70348         9     1.065     0.747  43.49   0
       182    750.6480    539.7876 300.2377298 +22.7657091     858.5502     72.28439      1.383     3.32     5.046042     20.39362     103.8092        15     1.050     0.913 -32.12   0
       183    843.9147    538.3677 300.2672691 +22.7932237     270.4175     72.24756      1.318     4.17     4.826236     20.39362     35.14532         6     0.768     0.648  46.85   0
       184    252.9944    534.6527 300.0844411 +22.6151546     3560.862     72.24756      1.507     2.93     4.969398     20.39362     390.8173        27     1.178     1.089  33.79   0
       185    819.1558    531.2137 300.2618718 +22.7837550     547.4265      72.3028      1.528     3.06     4.841308     20.39362     62.11807         9     0.922     0.642 -63.77   0
       186    598.5558    521.6290 300.1962328 +22.7149453     243.7363     72.32121      1.241     3.83     5.344136     20.39362       35.836         5     0.967     0.435  14.01   0
       187    457.6066    515.0649 300.1544710 +22.6708397     2738.583     72.24757      1.464     2.74     5.189734     20.39362     313.1634        25     1.133     1.045  77.38   2
       188    301.4465    517.7157 300.1050121 +22.6248116     378.8192     72.26598      1.519     5.57     4.899103     20.39362     41.13471        10     1.187     0.830  -6.85   0
       189    907.3386    515.4204 300.2945012 +22.8056102     322.9096     72.24757      1.381     3.99     4.842921     20.39362      34.1794         6     0.964     0.473  88.57   0
       190    869.0579    511.9108 300.2837010 +22.7931430     369.5923       72.358      1.205     2.37      4.81868     20.39362     69.74322         5     0.843     0.602  30.38   0
       191    614.2375    512.6613 300.2040295 +22.7170646     292.2386      72.3028      1.642     3.46     5.373262     20.39362     33.96229         5     0.780     0.445 -14.68   0
       192    774.8444    503.8321 300.2569472 +22.7626173     418.2628     72.33961      1.284     2.35     5.045005     20.39362     61.27118         6     0.833     0.458  29.48   0
       193    854.4841    501.4982 300.2825367 +22.7857867     1652.835     72.44991      1.430     2.76      4.82972     20.39362     199.7314        19     1.040     1.029  73.36   0
       194    741.3879    501.5441 300.2472609 +22.7519431       468.33     72.28439      1.688     6.09     5.240607     20.39362     39.52614        11     1.176     0.886  87.52   0
       195    725.8724    499.0173 300.2432452 +22.7465714     2641.433     72.28439      1.417     2.78     5.290261     20.39362     288.6292        23     1.091     1.034 -36.86   0
       196    970.2306    496.5639 300.3202439 +22.8190095     621.3113      72.3028      2.374     4.62     4.961802     20.39362     46.07107         9     1.043     0.712  67.21   3
       197    968.8792    492.3208 300.3211999 +22.8173847     872.4326     72.41316      2.076     4.53     4.974615     20.39362     73.69413        15     1.365     0.921 -28.92   2
       198    935.5603    496.4346 300.3094692 +22.8085967     387.1142     72.32121      1.561     5.66     4.893013     20.39362     41.27531         9     1.039     0.918  61.46   0
       199    630.9935    495.8606 300.2147043 +22.7172542     434.9835     72.22914      1.207     2.14     5.396406     20.39362       77.981         8     0.768     0.645  34.75   0
       200    512.8260    494.5200 300.1783338 +22.6814782     736.7186     72.26598      1.382     3.35     5.288355     20.39362     86.86671        13     1.070     0.802  82.48   0
       201    983.1954    493.1241 300.3254060 +22.8218998     1333.815     72.19228      1.596     3.21     5.003145     20.39362     122.3598        21     1.155     1.076   4.05   0
       202    854.8289    491.4664 300.2859012 +22.7830053     2353.918     72.28439      1.762     3.99     4.829495     20.39362     224.4756        30     1.501     1.135  68.05   0
       203    608.2139    489.4511 300.2096885 +22.7085904     531.5104     72.32121      1.307     3.02     5.426325     20.39362      70.3503         8     0.779     0.708 -79.02   2
       204    608.0000    484.9627 300.2110790 +22.7072364     334.2907     72.26598      1.408     3.72     5.434978     20.39362     42.71479         5     1.116     0.356  82.03   3
       205    393.9457    489.2090 300.1430493 +22.6443400     300.9793     72.28439      1.309     5.21     5.102553     20.39362     44.58833         8     1.175     0.654 -75.79   0
       206    446.5753    488.3609 300.1597064 +22.6598633     342.2946      72.3028      1.257     3.30     5.196339     20.39362      52.2758         6     0.863     0.480   1.28   0
       207    533.6646    486.0723 300.1875655 +22.6852925     259.9554     72.32121      1.202     3.84     5.330746     20.39362     37.05019         6     0.762     0.628  35.93   0
       208    553.5764    482.2765 300.1949990 +22.6901655     431.0176      72.3028      1.529     3.45     5.367857     20.39362     55.45451         8     0.920     0.628  37.32   0
       209    985.1140    476.9597 300.3312526 +22.8178245     833.7406     72.26598      1.551     4.14     5.041931     20.39362     78.12196        15     1.107     1.042  78.33   0
       210    125.1908    476.6018 300.0635465 +22.5601803     1060.639     72.10004      1.490     3.11     5.120947     20.39362     112.9697        15     1.055     0.855 -13.18   0
       211    924.1715    474.5164 300.3130323 +22.7988848     329.0995     72.28439      1.633     4.24     4.859274     20.39362     29.19841         6     1.079     0.476  59.82   0
       212    893.0873    486.5906 300.2994163 +22.7930543     4490.303     72.21071      1.508     2.71     4.844695     20.39362     543.3911        32     1.222     1.148  71.05   0
       213    117.6856    466.6086 300.0644572 +22.5550616     399.6204     72.22914      1.348     2.81     5.142392     20.39362     64.85033         9     0.951     0.648 -38.31   0
       214    981.0768    466.1259 300.3335100 +22.8135003     473.4347      72.3764      1.704     4.73     4.999867     20.39362     45.39332         6     0.947     0.672  51.22   0
       215    725.3018    461.2335 300.2553335 +22.7355388        332.9     72.26598      1.260     3.08     5.343132     20.39362     58.00083         9     0.937     0.670   1.00   0
       216    614.2776    458.9055 300.2214934 +22.7016273     349.3059     72.39478      1.356     4.30     5.411578     20.39362     42.33455         7     0.769     0.684  87.61   0
       217    666.6210    456.9885 300.2384241 +22.7167495     844.0108     72.26598      1.405     2.83     5.374944     20.39362     109.1688        13     1.020     0.810 -19.65   0
       218    981.3240    449.8332 300.3388761 +22.8088877     694.4559     72.28439      1.613     4.08     4.955998     20.39362     60.83875        12     1.086     0.822  36.32   0
       219    727.2164    449.1995 300.2598366 +22.7326523     938.0252     72.17384      1.428     3.03     5.334098     20.39362     107.2775        16     1.094     0.905  58.29   0
       220    884.5156    445.5903 300.3100526 +22.7786979     1100.713     72.22914      1.551     3.47      4.69436     20.39362     130.2194        19     1.192     1.038  55.19   0
       221    868.8010    441.8503 300.3063654 +22.7729192      660.128     72.26598      1.411     2.61     4.669771     20.39362     83.04637        11     0.867     0.798 -24.97   0
       222    849.4774    441.8120 300.3003515 +22.7671249     383.8825     72.28439      1.862     4.24     4.716425     20.39362     34.25344         5     0.877     0.584  44.07   0
       223    613.0428    439.7249 300.2273346 +22.6957446      3317.48     72.26598      1.359     2.46      5.38726     20.39362     464.3076        24     1.060     1.008 -77.18   0
       224    973.5389    438.8437 300.3400141 +22.8033971     508.1958     72.28439      1.495     3.01     4.893585     20.39362     60.21149         8     0.875     0.741  50.92   0
       225     88.9534    431.0028 300.0670825 +22.5362268     336.8073     72.26598      1.428     5.13     5.196167     20.39362     43.61618         8     1.167     0.713 -38.14   0
       226    618.1656    427.9347 300.2327572 +22.6938896     292.5507     72.28439      1.431     2.94     5.370159     20.39362     38.54984         5     0.772     0.502  30.45   0
       227    452.9778    426.6406 300.1817336 +22.6440480     485.3648     72.32121      1.398     2.50     5.219125     20.39362     73.08054        10     0.973     0.618  67.16   0
       228   1023.5712    419.1629 300.3620150 +22.8127047     671.8716     56.79835      1.095     2.48     5.106053     20.39362     136.1146         9     0.979     0.520  75.44  24
       229    896.1309    418.5300 300.3224588 +22.7743911     627.1868     72.33961      1.635     3.34      4.58537     20.39362     72.04859        12     0.962     0.911  77.10   0
       230    982.7522    417.8753 300.3496949 +22.8001219     945.2554     72.28439      1.452     2.91     4.879277     20.39362     103.7867        14     0.976     0.904   7.31   0
       231    723.6107    413.6754 300.2702429 +22.7213595     889.7681      72.3028      1.337     2.51     5.316982     20.39362     145.8969        15     0.995     0.867  46.67   0
       232    519.2617    414.2071 300.2064069 +22.6603272      467.515     72.26598      1.240     2.71     5.248221     20.39362     66.51681         7     0.723     0.645  63.80   0
       233    227.8649    411.8513 300.1164870 +22.5723586     606.8179     72.32121      1.410     2.96     5.283222     20.39362     82.00407         9     0.928     0.625   5.43   0
       234    289.9132    407.4456 300.1372169 +22.5896847     3758.082     72.26598      1.445     2.66     5.273927     20.39362     446.6888        31     1.215     1.093  33.90   0
       235   1022.7874    406.2255 300.3659693 +22.8087480     3449.518     61.06656      1.362     3.08     5.251368     20.39362     429.2098        25     1.284     0.949  85.37  24
       236    237.1317    402.2063 300.1224990 +22.5723651     7625.618     72.24756      1.431     2.81     5.298788     20.39362     785.4222        37     1.254     1.142  47.85   0
       237    741.9601    402.8546 300.2794741 +22.7237411      287.703     72.28439      1.321     3.96     5.285183     20.39362     43.35445         6     0.801     0.561  29.44   0
       238    615.3787    402.3890 300.2401797 +22.6857121     302.5535     72.26598      1.270     3.90     5.375881     20.39362     58.15036         7     0.974     0.759 -27.40   0
       239   1003.0723    397.3532 300.3626962 +22.8002973     1744.875     72.28439      1.451     2.94     5.227339     20.39362     198.2546        23     1.177     1.062  34.97   0
       240    377.9196    396.5349 300.1681409 +22.6129152     4994.152     72.39478      1.429     2.68     5.215668     20.39362     580.3212        34     1.199     1.115  28.06   0
       241    622.1651    393.3020 300.2452429 +22.6851319     18543.54     72.28439      1.373     2.54     5.383889     20.39362     2246.167        56     1.275     1.196  21.97   0
       242    469.2769    394.8333 300.1971303 +22.6397899     363.6617     72.28439      1.473     2.77     5.234367     20.39362     45.07544         6     0.730     0.584 -44.04   0
       243    639.4764    393.5533 300.2505548 +22.6903871     835.0576     72.28439      1.854     6.14     5.374593     20.39362     70.69978        13     1.367     0.875 -31.40   0
       244    865.9016    389.8642 300.3223337 +22.7571002     310.2895      72.3764      1.325     2.57     4.709443     20.39362     48.89555         6     0.858     0.459  30.12   0
       245    819.1506    383.9392 300.3096774 +22.7414052    -115.8791     72.33961     -5.082     4.10     4.983303     20.39362     55.80408         8     1.033     0.696 -48.22   0
       246    242.5282    380.5267 300.1312123 +22.5677552     397.8177     72.33961      1.560     4.13     5.327886     20.39362     41.26544         5     0.977     0.499   0.52   0
       247    955.7987    376.2167 300.3548047 +22.7800733     824.5522     72.17384      1.553     3.20      5.03553     20.39362      89.0303        13     1.098     0.755 -27.80   0
       248    665.9847    374.8001 300.2648999 +22.6929317     225.4554     72.13695      1.473     3.74     5.370818     20.39362     32.98741         5     0.815     0.494  53.47   0
       249    492.8308    375.2157 300.2108298 +22.6412061     391.3473     72.28439      1.630     3.20     5.254898     20.39362     46.05243         7     0.861     0.596  33.79   0
       250    176.7678    373.2372 300.1131271 +22.5459572     1915.486      72.3028      1.494     3.04     5.374576     20.39362     203.2832        20     1.113     1.021  68.66   0
       251    562.8386    362.7050 300.2366909 +22.6585736     6723.209     72.26598      1.362     2.45     5.366061     20.39362     968.8599        35     1.165     1.079  43.04   0
       252    976.5179    363.3599 300.3654414 +22.7825731     1224.764     72.24757      1.439     2.55     5.357449     20.39362     143.8521        19     1.090     0.982 -34.07   0
       253    277.8904    362.1231 300.1481832 +22.5730634     598.7936     72.43154      1.287     2.39     5.299758     20.39362     111.4081        10     0.856     0.714  11.01   0
       254    822.6212    354.8776 300.3201899 +22.7340856     322.9145     72.28439      1.460     4.80     5.166435     20.39362     38.23543         7     0.960     0.816 -45.94   0
       255    135.2446    355.3079 300.1060341 +22.5283652     507.4076     72.28439      1.623     3.99     5.400659     20.39362     52.27322        11     1.112     0.693  -9.48   0
       256    676.9347    353.1689 300.2753309 +22.6899904     552.1708     72.28439      1.323     3.23       5.3721     20.39362     78.66515         9     0.969     0.755  78.37   0
       257    767.1128    351.8632 300.3038615 +22.7166066     1141.201     72.39478      1.415     3.16     5.341347     20.39362     145.4836        13     1.025     0.851  46.62   0
       258    469.5208    348.9130 300.2121064 +22.6266662     6235.959     72.43154      1.383     2.54     5.240149     20.39362     825.6523        35     1.171     1.091  56.56   0
       259    959.0878    343.8203 300.3663431 +22.7717370     599.2047     72.21071      1.486     3.49      5.24405     20.39362      81.4248        11     1.046     0.829  11.37   0
       260    861.5507    343.4419 300.3360404 +22.7424456     1529.282      72.3028      1.455     2.55     4.911818     20.39362     178.1549        20     1.103     0.996 -76.76   0
       261    453.8059    337.5848 300.2108892 +22.6187045     404.3238     72.19228      1.458     5.43     5.242696     20.39362     57.56842        12     1.309     0.773 -72.11   0
       262    536.6848    335.8713 300.2372515 +22.6430294     538.1054     72.39478      1.277     2.65     5.369463     20.39362     76.79591         9     0.888     0.635 -21.30   0
       263    814.9836    334.9781 300.3242650 +22.7260765     381.3772     72.24756      1.460     2.89     5.235651     20.39362     37.81794         5     0.626     0.594 -89.47   0
       264    834.2765    331.2471 300.3314914 +22.7307766     543.4933     72.28439      1.240     2.66      5.10474     20.39362     85.65481        11     0.902     0.786 -72.44   0
       265    357.0036    328.0970 300.1838372 +22.5869863     2701.798     72.19228      1.422     2.86     5.272051     20.39362     297.1349        25     1.172     1.001  50.28   0
       266     75.3362    325.4699 300.0970917 +22.5018434     1070.306     72.32121      1.717     4.19     5.648643     20.39362     114.1316        18     1.190     1.106  57.80   0
       267    704.8514    322.8424 300.2938702 +22.6896263     296.6733      72.3028      1.208     4.18     5.357541     20.39362     43.03562         7     0.920     0.633 -73.57   0
       268    326.3602    317.5157 300.1777346 +22.5747674     30210.09     72.24757      1.455     2.56     5.304332     20.39362      3781.65        73     1.373     1.246  55.73   0
       269    861.0384    315.1963 300.3450446 +22.7341673     1446.783     72.32121      1.419     2.80     4.918708     20.39362     158.3779        19     1.105     0.994  41.71   0
       270    816.1912    313.1754 300.3317150 +22.7201668     359.3191     72.28439      1.305     2.77     5.228761     20.39362     60.71289         6     0.845     0.498  28.34   0
       271     22.6303    305.3134 300.0872506 +22.4802598     4825.313     72.28439      1.717     3.38      6.21414     20.39362     455.4971        37     1.366     1.313   1.39   0
       272    776.3846    304.2381 300.3222032 +22.7056843     586.3576      72.3028      1.297     3.07     5.333728     20.39362     61.34464        10     0.900     0.764 -71.88   0
       273    200.5748    304.0127 300.1429876 +22.5332073     449.6781     72.28439      1.495     2.35     5.441659     20.39362     70.25956         8     0.800     0.665  -7.23   0
       274    425.1136    302.8705 300.2132188 +22.6001353     467.3109     72.39478      1.179     2.48     5.259596     20.39362     75.03713         8     0.787     0.643  37.41   0
       275    736.8628    297.3867 300.3121056 +22.6918864     1839.761     72.24756      1.328     2.49     5.334319     20.39362     247.8316        22     1.142     0.977  57.89   0
       276    545.2264    291.9566 300.2541578 +22.6329629     413.9151      72.3028      1.360     3.73     5.466882     20.39362     45.49057         7     0.851     0.603  57.91   0
       277    951.6608    290.4987 300.3813248 +22.7541734     676.2664       72.358      1.668     2.93     5.173159     20.39362     72.30172         9     0.933     0.639  44.33   0
       278    398.6384    281.9705 300.2117573 +22.5862003     2227.268     72.32121      1.575     3.20     5.270367     20.39362     221.3407        27     1.392     1.036  46.32   0
       279    611.0201    281.1937 300.2781431 +22.6495646     353.2937     72.24757      1.116     4.14       5.4431     20.39362      39.7724         6     1.089     0.448 -26.75   0
       280    837.8813    275.0540 300.3508447 +22.7156909     700.7711     72.32121      1.556     3.62     5.192332     20.39362     69.14069        12     1.076     0.755  25.70   0
       281    720.1450    272.9440 300.3148233 +22.6798536     337.2302     72.33961      1.248     2.73      5.35121     20.39362     49.44373         8     0.808     0.719  78.89   0
       282    688.2924    272.0468 300.3051871 +22.6700628     344.0583      72.3028      1.441     2.98     5.367877     20.39362     50.53566         6     0.869     0.505  49.60   0
       283    474.4323    261.2116 300.2420848 +22.6029291     1240.817     72.26598      1.402     2.78     5.251857     20.39362     154.6873        20     1.162     0.967  67.53   0
       284    559.7761    259.2265 300.2693055 +22.6279088     279.2725     72.24757      1.246     3.91     5.465946     20.39362     30.01975         5     0.927     0.473 -45.06   0
       285    214.9026    256.8656 300.1627351 +22.5239553     208.2678      72.3764      0.968     3.87     5.476712     20.39362     44.07258         5     0.796     0.540 -38.34   0
       286    857.4271    255.1630 300.3633919 +22.7158162     286.3194      72.3028      1.322     2.92     5.300419     20.39362     42.34435         5     0.728     0.453  69.47   0
       287    719.3248    253.4121 300.3209027 +22.6739905     2234.751      72.3028      1.332     2.37     5.361656     20.39362     281.7952        24     1.147     0.956  43.68   0
       288    980.6926    247.7102 300.4042622 +22.7505443     3114.825     72.44991      1.544     3.12     5.559679     20.39362     328.0743        29     1.209     1.204  71.37   0
       289    427.5984    237.0031 300.2353555 +22.5819477     758.3364     72.06312      1.376     2.02     5.266948     20.39362     120.6993        10     0.906     0.681  32.43   0
       290    133.2445    231.4359 300.1455905 +22.4921872     677.0909     72.33961      1.712     4.93     5.532697     20.39362     68.04532        11     1.238     0.745  47.37   0
       291    102.3516    231.1842 300.1360685 +22.4828594     1629.321     72.32121      1.913     3.39     5.510081     20.39362     128.0367        26     1.353     1.140  -0.53   0
       292    996.1733    228.2149 300.4154156 +22.7495636     435.1356      72.3028      1.292     3.68     5.604143     20.39362     70.23421         9     0.960     0.777  35.75   0
       293    840.0463    225.3519 300.3676398 +22.7020396     327.7003      72.3028      1.260     4.31      5.60457     20.39362     37.99483         7     0.795     0.664  -1.12   0
       294    186.4185    223.1597 300.1648073 +22.5057391     414.6208      72.3028      1.310     3.17     5.545018     20.39362      56.7813         9     0.890     0.681 -18.54   0
       295    981.2453    220.5110 300.4132557 +22.7428818     360.0604     72.28439      1.570     2.95     5.601569     20.39362     44.39519         5     0.786     0.576 -51.86   0
       296     42.1752    220.2219 300.1209198 +22.4616805     263.6559     72.24756      1.237     3.85     5.784376     20.39362     34.46717         6     0.791     0.538  40.30   0
       297    862.5472    217.2384 300.3772881 +22.7064364     362.2279     72.28439      1.127     2.64     5.615846     20.39362     58.59434         6     0.691     0.633  32.74   0
       298    791.0853    214.7635 300.3558067 +22.6843454     635.4645     72.26598      1.427     3.14     5.554098     20.39362     85.70618        13     1.008     0.879  46.96   0
       299    381.1240    214.3075 300.2282496 +22.5615084     463.4559     72.43154      1.287     2.32     5.297789     20.39362     63.74293         7     0.743     0.608   8.02   0
       300    889.1230    203.7654 300.3899460 +22.7105094     2056.054     72.24757      1.459     2.73     5.615159     20.39362     285.8935        23     1.130     1.077  87.96   0
       301    307.6772    200.8893 300.2097455 +22.5356582     2136.154     72.41316      1.469     3.01     5.538404     20.39362     277.8901        22     1.079     1.069  -6.89   0
       302    787.6373    195.6761 300.3609211 +22.6778226     479.0478     72.24757      1.215     2.69     5.549018     20.39362     78.62257         9     0.820     0.766 -26.64   0
       303    385.6110    195.9690 300.2355923 +22.5575809      1034.81     72.28439      1.469     2.79     5.331263     20.39362     117.6202        14     0.932     0.910 -16.73   0
       304    136.8730    196.4279 300.1580698 +22.4832173     444.1557      72.3028      1.632     4.23     5.636387     20.39362     51.01044         7     1.040     0.491   3.76   0
       305    894.3040    192.5554 300.3951970 +22.7088333     275.5959      72.3028      1.128     3.08     5.613756     20.39362     52.22683         5     0.748     0.440  22.48   0
       306    202.3358    188.2896 300.1810634 +22.5004882     730.1664     72.39478      1.472     2.77     5.599803     20.39362     101.5584        13     1.033     0.788   9.58   0
       307    321.0258    188.2707 300.2179900 +22.5360290     237.9124     72.28439      1.236     3.45      5.48754     20.39362     32.95518         5     0.798     0.498 -55.22   0
       308    740.3060    185.1304 300.3495851 +22.6606278     1697.215     72.41316      1.352     2.58     5.426247     20.39362     193.3243        20     1.097     0.954  69.03   0
       309    805.3369    184.8376 300.3699540 +22.6799995     645.9883     72.28439      1.459     2.65     5.587411     20.39362     79.30237        10     0.860     0.774 -46.50   0
       310    223.8509    181.6823 300.1898968 +22.5050337     573.8607      72.3028      1.309     3.22     5.586034     20.39362     62.42855        10     0.898     0.766 -55.55   0
       311   1011.7598    178.1792 300.4365049 +22.7398230     893.2109     72.32121      1.503     3.09     5.525544     20.39362     106.2859        14     0.999     0.931  26.91   0
       312    514.1101    177.5898 300.2815559 +22.5907665     182.5709     72.22914      1.250     3.71     5.401032     20.39362     40.49903         7     0.850     0.628 -78.75   0
       313    744.2778    176.5158 300.3536163 +22.6593379      811.817     72.39478      1.548     4.24     5.444672     20.39362     94.85427        13     1.227     0.805 -80.69   0
       314    664.8935    175.7328 300.3291287 +22.6353597     1166.877     72.43154      1.372     2.93     5.441022     20.39362     171.7192        19     1.147     0.969 -66.52   0
       315    485.2142    171.8238 300.2744274 +22.5804590     360.7845      72.3028      1.530     4.04     5.353687     20.39362     41.77274         7     1.485     0.315  39.42   0
       316    860.5261    167.3192 300.3928441 +22.6914679      1406.64     72.39478      1.486     2.97     5.614865     20.39362     169.1965        21     1.285     0.976 -52.72   0
       317    591.1315    167.6194 300.3087776 +22.6109523     886.9851     72.28439      1.243     3.08     5.456587     20.39362     138.0885        13     1.022     0.799 -66.72   0
       318    872.3517    166.6816 300.3967391 +22.6948216      899.022      72.3028      1.519     2.74     5.615483     20.39362     115.4785        14     1.100     0.804  57.41   0
       319    918.9830    166.3868 300.4113802 +22.7086838     214.8085     72.22914      1.065     2.95     5.606285     20.39362     45.34528         6     0.787     0.487   0.98   0
       320    989.0090    156.7336 300.4363583 +22.7268469     1107.738     72.28439      1.497     4.45     5.524703     20.39362     111.7358        18     1.336     0.941  41.32   0
       321     12.9587    153.6668 300.1334181 +22.4338104     493.5481     72.26598      1.484     3.24      5.83165     20.39362     57.58521         7     0.952     0.595 -14.54   0
       322    223.1367    149.8251 300.2000022 +22.4956654     680.4873     72.26598      1.353     3.68     5.623261     20.39362     81.12344        11     1.075     0.820  18.04   0
       323     84.9075    144.3529 300.1587975 +22.4526899     2304.574      72.3028      1.610     3.36     5.884254     20.39362     245.6342        30     1.347     1.193  28.18   0
       324    907.9595    141.7764 300.4159201 +22.6983040     794.2009     72.32121      1.532     3.24     5.591523     20.39362      95.8035        12     1.090     0.717  79.76   0
       325     34.7445    141.3530 300.1441795 +22.4368004     469.6859     72.32121      1.427     2.52     5.860336     20.39362     68.24383         7     0.877     0.511 -58.95   0
       326    242.3954    137.6892 300.2099262 +22.4979453     5757.602     72.19228      1.558     2.83     5.607653     20.39362     707.6324        39     1.320     1.211  82.15   0
       327    223.9348    139.3333 300.2036515 +22.4928893     374.3708     72.33961      1.565     2.21     5.621885     20.39362      44.4575         5     0.825     0.471  -0.85   0
       328     26.5888    132.0970 300.1446452 +22.4316982     1288.396     72.17384      1.691     3.81     5.868518     20.39362     143.3599        22     1.285     1.071  66.32   0
       329    225.5717    128.4506 300.2076881 +22.4902520     623.8508      72.3028      1.741     4.50     5.617697     20.39362     72.43957        13     1.327     0.840  60.86   0
       330    886.5671    119.5597 300.4164491 +22.6855121     3470.232     72.33961      1.482     2.78     5.584468     20.39362      428.641        31     1.233     1.167  89.49   0
       331    990.2012    118.3527 300.4491727 +22.7161550     2830.528     72.28439      1.578     2.83     5.493315     20.39362     354.2465        29     1.289     1.147 -71.38   0
       332    436.0885    114.4647 300.2777266 +22.5492615     539.2709     72.41316      1.452     3.49     5.387454     20.39362      87.1944        12     1.114     0.877  88.48   0
       333    189.0335    115.0765 300.2006597 +22.4754662     482.4624     72.28439      1.737     5.61     5.810068     20.39362     33.57918         9     1.284     0.690  28.53   0
       334    550.2195    112.6644 300.3138486 +22.5829036     245.2097     72.26598      1.179     2.40     5.392758     20.39362     46.24108         5     0.725     0.437 -18.10   0
       335    360.2282    106.4347 300.2567173 +22.5242434      636.296      72.3028      1.519     3.43      5.40716     20.39362     67.16953         8     0.922     0.659  61.47   0
       336    364.2966    104.9048 300.2584792 +22.5250216      516.206     72.46828      1.816     5.70     5.406608     20.39362     43.53652         9     1.369     0.669  45.56   0
       337    126.3902    103.5397 300.1849212 +22.4533895     452.2895     72.24757      1.419     3.09     6.035394     20.39362      65.7352         8     0.822     0.732 -26.38   0
       338    487.3875    101.8936 300.2977726 +22.5610015     1651.093     72.21071      1.359     2.80     5.364748     20.39362     199.4011        17     1.001     0.919 -84.85   0
       339    415.2052    102.4067 300.2751339 +22.5395433     431.2856     72.13695      1.330     3.48     5.397695     20.39362     58.05063         7     0.909     0.644  -5.67   0
       340     24.5288    101.9225 300.1537849 +22.4224129     383.6772     72.39478      1.569     4.44     5.910116     20.39362     44.78702         7     1.013     0.572 -37.95   0
       341    549.3419    101.3084 300.3172560 +22.5793749     339.6461     72.33961      1.370     2.41     5.375326     20.39362     43.48037         5     0.710     0.448  73.47   0
       342    230.8056     97.6393 300.2193023 +22.4829643     524.9594      72.3028      1.758     3.67     5.608017     20.39362     48.93686         8     0.917     0.643  16.68   0
       343    775.3104     91.6368 300.3908055 +22.6442002     431.4414     72.26598      1.190     2.41     5.493559     20.39362     52.80368         5     0.713     0.441 -19.98   0
       344    921.7522     86.2227 300.4382303 +22.6864387     285.2203      72.3028      1.189     2.70     5.477808     20.39362     37.75104         6     0.724     0.564 -48.47   0
       345    261.3073     81.5672 300.2339986 +22.4874781     6135.884     72.22914      1.573     2.89     5.514673     20.39362     761.5168        39     1.335     1.218  65.78   0
       346    112.5117     81.2656 300.1878252 +22.4428324     718.3246     72.39478      1.633     3.42     6.087804     20.39362     81.70949        11     1.001     0.757 -22.58   0
       347    233.1104     75.8348 300.2270855 +22.4773875     358.3365     72.26598      1.493     2.32     5.532732     20.39362     57.98962         5     0.716     0.647  49.09   0
       348    276.5558     73.2229 300.2414462 +22.4896452     339.4308     72.33961      1.519     4.83     5.473133     20.39362     39.32885         8     1.029     0.642 -53.69   0
       349    736.7833     73.4470 300.3846903 +22.6274417     229.5493     72.32121      1.268     3.36     5.440558     20.39362     30.99854         5     0.733     0.458 -19.82   0
       350     22.7699     71.9696 300.1629450 +22.4132811     551.1237     72.26598      1.880     4.12     5.909306     20.39362     52.96794        10     1.121     0.820  29.01   0
       351    507.4373     67.0444 300.3153101 +22.5569799     6419.296       72.358      1.433     2.74     5.325692     20.39362     683.9702        35     1.268     1.084  64.80   0
       352    392.9890     66.8541 300.2797408 +22.5226709     686.0759     72.28439      1.484     3.07     5.405706     20.39362     79.46685        13     1.011     0.860 -13.33   0
       353    564.6061     62.2137 300.3346804 +22.5726981     202.8633      72.1554      1.129     3.09     5.311475     20.39362     53.23962         6     0.838     0.511  50.11   0
       354    768.0274     82.6237 300.3914561 +22.6394282     272.7269     72.26598      1.061     3.33     5.477201     20.39362     48.25655         5     0.754     0.425 -21.89   0
       355    759.9175     56.9506 300.3972480 +22.6296147     824.5336      72.3028      1.494     2.68     5.453608     20.39362     93.19965        12     0.918     0.797  52.36   0
       356    852.8527     55.3982 300.4267291 +22.6569627     473.8693     72.24756      1.449     4.99     5.377604     20.39362     54.38859        12     1.139     0.876 -80.38   0
       357    160.3570     52.2967 300.2120877 +22.4488366     174.5368      72.3028      1.099     4.13     6.113046     20.39362     26.37876         6     0.922     0.529 -47.19   0
       358    200.1869     50.5996 300.2250233 +22.4602759      524.028     72.10004      1.510     5.40     5.710438     20.39362     66.31399        11     1.241     0.922 -41.15   0
       359    635.9086     47.1762 300.3617663 +22.5897061     6331.492     72.21071      1.423     2.67     5.397675     20.39362     805.9211        39     1.268     1.147  82.84   0
       360    558.6605     49.1953 300.3370471 +22.5671743     415.9267     72.24757      1.353     4.74     5.269377     20.39362     61.27459         7     1.134     0.561  64.46   0
       361    410.5463     46.0603 300.2919439 +22.5219471     1446.507     72.33961      1.419     3.00     5.407561     20.39362     185.1698        20     1.188     0.941  68.76   0
       362    676.9482     44.7840 300.3753298 +22.6012954      930.687     72.28439      1.393     2.88     5.443456     20.39362     119.0634        16     1.119     0.836  -4.04   0
       363    746.5967     42.2579 300.3978565 +22.6214023     425.6367     72.24757      1.188     4.01     5.442686     20.39362     55.32571         6     0.933     0.554  27.34   0
       364    693.0405     40.7760 300.3816436 +22.6049560     609.1992     72.32121      1.337     3.13     5.441975     20.39362     83.23094         9     0.977     0.625  87.61   0
       365    962.5799     38.3239 300.4664911 +22.6848571     701.8281     72.28439      1.895     3.62     5.183981     20.39362     80.77136        12     1.194     0.805  71.48   0
       366    159.7541     38.3992 300.2164033 +22.4446620     527.4111     72.28439      1.377     3.10     6.130181     20.39362     70.93656        12     0.936     0.871   8.54   0
       367    731.6090     36.0866 300.3951843 +22.6151434     508.4735     72.21071      1.387     4.36     5.440619     20.39362     57.77373         9     0.924     0.738 -20.08   0
       368    680.0959     32.0595 300.3804339 +22.5985758     2806.206       72.358      1.461     2.97     5.440329     20.39362     337.7804        26     1.213     1.049  85.22   0
       369    320.6551     32.8050 300.2682634 +22.4912284     354.3773     72.28439      1.279     3.14     5.398073     20.39362     55.12803         6     0.860     0.610   2.64   0
       370    695.0170     31.0102 300.3854240 +22.6027373     834.8526     72.24756      1.721     4.63      5.44022     20.39362     81.10944        15     1.442     0.753  42.70   0
       371    766.4540     23.6900 300.4100635 +22.6219980     1564.466     72.32121      1.551     2.67     5.434388     20.39362     189.8906        21     1.133     1.081  36.30   0
       372    262.6455   1019.6082 299.9298250 +22.7572226     1428.769     72.24757      4.421    13.94     43.29692     20.39362     46.04726        33     3.663     1.476  -3.91  19
       373    262.3768   1013.3555 299.9317756 +22.7553485     1890.613     72.32121      5.228    13.72     41.90891     20.39362     54.00721        36     2.479     2.113  72.07  19
       374     83.2808     16.3504 300.1997724 +22.4154242      550.525      72.3028      1.584     3.44     6.104729     20.39362     53.05948         8     0.891     0.675 -84.67   0
       375    167.8223   1019.5876 299.9003465 +22.7287661      345.196     72.26598      1.291     3.47     101.7262     20.39362     25.23221         5     0.801     0.435  20.01  16
       376    795.8166     13.4484 300.4225364 +22.6278318     405.8795     72.32121      1.573     1.72     5.412663     20.39362      51.7824         5     0.647     0.462 -23.98   0
       377    709.5051     11.4863 300.3962655 +22.6014529     282.8694     72.46828      1.375     3.75     5.438168     20.39362     28.22134         6     0.977     0.412  18.59   0
       378    309.1145   1012.8384 299.9464815 +22.7692212     1711.109     72.26598      6.755     5.82     6.319778     20.39362     85.14737        36     1.677     1.536 -38.21  24
       379    142.9351   1008.1805 299.8963209 +22.7180271     1205.827     72.26598      2.390    12.12      90.1995     20.39362     48.91999        19     2.422     1.688  63.37   2
