#   1 NUMBER                 Running object number                                     
#   2 X_IMAGE                Object position along x                                    [pixel]
#   3 Y_IMAGE                Object position along y                                    [pixel]
#   4 ALPHA_J2000            Right ascension of barycenter (J2000)                      [deg]
#   5 DELTA_J2000            Declination of barycenter (J2000)                          [deg]
#   6 FLUX_APER              Flux vector within fixed circular aperture(s)              [count]
#   7 FLUXERR_APER           RMS error vector for aperture flux(es)                     [count]
#   8 FLUX_RADIUS            Fraction-of-light radii                                    [pixel]
#   9 FWHM_IMAGE             FWHM assuming a gaussian core                              [pixel]
#  10 BACKGROUND             Background at centroid position                            [count]
#  11 THRESHOLD              Detection threshold above background                       [count]
#  12 FLUX_MAX               Peak flux above background                                 [count]
#  13 ISOAREA_IMAGE          Isophotal area above Analysis threshold                    [pixel**2]
#  14 A_IMAGE                Profile RMS along major axis                               [pixel]
#  15 B_IMAGE                Profile RMS along minor axis                               [pixel]
#  16 THETA_IMAGE            Position angle (CCW/x)                                     [deg]
#  17 FLAGS                  Extraction flags                                          
         1    691.4130     16.1266 300.3930378 +22.6015742     813.8134     72.26594      1.468     3.86     5.854025     20.38322     84.31149        14     1.131     0.857 -58.21   0
         2    496.6793     15.2822 300.3326303 +22.5430680     1069.571     72.37624      1.637     3.51     5.664463     20.38322     122.6621        19     1.230     1.098  46.73   0
         3    400.5803     13.7922 300.3031864 +22.5138789     755.0385     72.21072      1.540     2.75     5.679535     20.38322     90.87602        14     0.953     0.916   6.14   0
         4    783.1888     12.3569 300.4228749 +22.6279402     522.6469     72.24754      1.733     4.42     6.104008     20.38322     59.48162         6     1.267     0.603 -55.72   0
         5    171.9469      3.5552 300.2353526 +22.4424892     3619.487     67.09518      1.640     3.18     6.168805     20.38322     361.3656        33     1.296     1.261  37.33  24
         6    739.9901      4.5362 300.4119372 +22.6127694     552.3561     70.38325      1.296     2.80     6.061787     20.38322     76.52359         9     0.799     0.784  49.98  16
         7    594.5204      1.3011 300.3676407 +22.5683225     214.3912     56.13349      1.025     3.74     5.910845     20.38322     47.04809         6     0.902     0.459   0.46  24
         8    167.3534    975.6295 299.9184501 +22.7201852     2252.871     72.26594     13.764    24.01     61.41015     20.38322      62.7085       124     6.450     2.481  64.40   3
         9     86.3081   1009.9803 299.8820805 +22.7057140     5074.123     72.17389     18.635    94.13     77.80516     20.38322     161.8096      2413    19.042    16.387  70.38  27
        10     77.0709    953.2275 299.8976648 +22.6866701     5307.728     72.22913     26.907    24.21     31.00895     20.38322     1309.722      3216    20.477    12.809 -25.39  27
        11      3.2727   1018.8083 299.8534019 +22.6833216     1289.453     65.99634      5.648     7.72    -9.264508     20.38322     43.55247        13     1.577     1.057   6.77  26
        12    617.9578    993.9225 300.0527653 +22.8605807     252.2469     72.22913      1.272     3.77     5.468065     20.38322     29.90255         5     1.047     0.389  32.70   0
        13    547.3972    991.4542 300.0315856 +22.8387171     2436.218     72.21072      1.983     4.55     4.552048     20.38322     132.7294        34     1.459     1.391   1.13   0
        14    633.8054    986.7203 300.0600459 +22.8632642      9023.93     72.17389      2.112     4.76     5.377975     20.38322     483.2585        51     1.650     1.457  51.70   3
        15    639.4379    984.5513 300.0625066 +22.8643301     9594.514     72.26594      2.064     4.99     5.352236     20.38322     465.3965        53     1.652     1.527  -3.33   3
        16    734.0611    987.5708 300.0910171 +22.8935599     647.9961     72.26594      2.007     7.56     4.732973     20.38322     41.96724        16     1.506     1.062  48.01   0
        17    172.9582    997.0734 299.9132193 +22.7280163      3249.98     72.22913      6.711    24.10     79.25577     20.38322     78.39352       213     5.053     4.269  12.22  19
        18    150.7801   1007.5002 299.9029316 +22.7243511     646.0008     72.15546      2.798     4.26     88.50361     20.38322     41.29573         5     1.039     0.497   3.32   3
        19     77.5547    916.3429 299.9098076 +22.6762390     3895.198     72.26594     21.379    56.18       13.508     20.38322     82.63206      1075    13.092     6.689 -32.96  19
        20    220.0220    984.1437 299.9320616 +22.7384296     4898.228     72.26594      8.618    33.18     65.95478     20.38322     96.90533       397     7.142     4.741 -55.08  19
        21    926.5210    970.4933 300.1565961 +22.9463270     799.1843     72.37624      2.144     7.47     4.589197     20.38322     43.75885        21     1.572     1.253   9.00   0
        22      6.6775    964.2150 299.8722138 +22.6686941     1025.355     72.26594      8.991     9.57     -1.28112     20.38322     43.99343        17     2.056     1.243 -71.71  24
        23    162.6858    958.6210 299.9225294 +22.7139071     395.6288     72.17389      6.187     5.42     47.27848     20.38322     50.48319         5     1.166     0.711 -69.71   1
        24    147.6082    957.5016 299.9182050 +22.7090621     1618.246     72.11861      6.361     9.32     46.16829     20.38322     51.56696        22     1.848     1.312 -22.96   3
        25    144.1542    955.5555 299.9177638 +22.7074675     1819.491     72.28433      7.774    12.09     44.33189     20.38322     57.32532        32     3.173     1.281  59.00   3
        26    652.2440    953.7125 300.0765267 +22.8593159     6964.708     72.22913      2.003     4.43     4.953268     20.38322      391.294        53     1.617     1.487  10.95   0
        27    164.8872    949.6270 299.9261386 +22.7119883      924.546     72.22913      5.820     7.93     39.43607     20.38322     38.93373        13     1.600     1.100  11.74   0
        28    200.4553   1003.6892 299.9196192 +22.7381641     1611.495     72.28433      3.833    11.54     85.32385     20.38322     60.66483        32     2.036     1.821 -51.80   3
        29    532.7651    948.2590 300.0410755 +22.8219327     384.5539     72.26594      1.679     6.17     4.571032     20.38322     35.13594         8     1.135     0.942   4.61   0
        30    238.5464    973.4460 299.9413026 +22.7409191     7687.008     72.28433      8.892    32.70      44.4565     20.38322      158.832       735    10.725     4.875  63.60  18
        31    560.5705    944.1887 300.0510604 +22.8291007     1658.284     72.24754      1.889     4.94     4.660226     20.38322     116.1505        27     1.369     1.277 -35.15   0
        32    804.0521    947.0623 300.1260144 +22.9029031     455.4339     72.30272      1.836     4.82     4.594653     20.38322     33.22649         6     0.883     0.745 -44.93   0
        33      1.9816   1000.6483 299.8589068 +22.6777286     978.3525     59.84759      3.551     4.27    -8.335974     20.38322     28.92809         5     1.170     0.444  11.56  27
        34    454.5691    940.9025 300.0191157 +22.7963753     1103.383     72.19231      2.052     5.63     4.485675     20.38322     69.89339        23     1.446     1.285 -62.97   0
        35    385.1089    938.8047 299.9981734 +22.7749436     6529.358     72.15546      1.938     4.30     4.858416     20.38322     488.5714        46     1.547     1.406  18.29   0
        36    356.0794    998.5386 299.9697125 +22.7833745     514.6722     72.32111      1.703     3.56      5.14429     20.38322     43.86679         7     0.907     0.614 -60.13   0
        37    417.4464    925.9480 300.0124203 +22.7809520     491.9964     72.28433      1.764     6.00     4.559515     20.38322     39.16626        11     1.089     0.930  37.04   0
        38    931.6008    918.0334 300.1752411 +22.9327788     2059.401     72.21072      1.984     5.10     4.573009     20.38322     109.8857        32     1.549     1.321  32.96   0
        39    146.4246   1005.0104 299.9023871 +22.7223301     376.5006     72.24754      1.728     7.37     85.87139     20.38322     57.92582         9     2.530     0.602  74.36   2
        40    200.3922    985.8088 299.9254146 +22.7330175     3936.813     72.10017      7.866    24.90     68.66885     20.38322     83.83146       271     5.041     4.984  -2.19   3
        41    429.6335    913.0203 300.0204177 +22.7808966     397.6081     72.24754      2.138     3.91     4.566521     20.38322     29.62057         5     0.911     0.481  88.49   0
        42    720.3495    906.3154 300.1131662 +22.8661191     762.8768     72.22913      2.051     4.25     4.685375     20.38322     55.38262        13     1.213     0.936 -36.10   2
        43    754.9589    900.7862 300.1257538 +22.8749024     1068.567     72.26594      1.873     4.51     4.686914     20.38322     76.61963        25     1.355     1.254 -12.10   0
        44    231.5257   1000.4897 299.9303238 +22.7465689     1261.271     72.41296      2.457     9.63      73.3494     20.38322      71.3591        25     2.048     1.390  24.03   0
        45    777.3688    894.4995 300.1347851 +22.8798119     11394.66     72.22913      1.884     4.28     4.636479     20.38322     698.3331        50     1.488     1.442   3.10   0
        46    968.2963    894.8431 300.1942322 +22.9371077     406.3551     72.26594      2.775     6.72     4.739996     20.38322     34.73994         9     1.207     1.049  32.66   0
        47    210.8746    894.6354 299.9583198 +22.7100123     920.3653     72.19231      6.487     6.49     10.07923     20.38322     30.52293         7     1.703     0.694  72.36   0
        48    823.0677    895.0085 300.1488706 +22.8936504     568.8093     72.24754      1.759     4.74     4.562815     20.38322     56.12334        10     1.036     0.890 -65.19   0
        49    120.0329    890.5754 299.9313901 +22.6815951     815.9842     72.22913      4.712     4.85     12.54728     20.38322     42.94017         6     1.451     0.460 -38.87   0
        50    201.4938   1006.2292 299.9191160 +22.7392041     852.9504     72.17389      1.781     3.71     87.17867     20.38322     44.97871         5     1.660     0.238 -31.54   3
        51    486.6857   1000.9792 300.0095790 +22.8232458     432.4275     72.17389      2.077     5.07     4.457129     20.38322     25.64496         6     1.217     0.596  30.88   0
        52     89.1169    885.7166 299.9233580 +22.6709258     1130.988     72.37624      4.391     5.04      9.90675     20.38322     70.82983        19     1.528     1.100  88.76   0
        53    828.5975    882.4326 300.1546840 +22.8916948     428.4968     72.21072      1.757     4.26     4.545185     20.38322     30.52537         6     1.097     0.472  56.77   0
        54    482.6625    882.7208 300.0467803 +22.7881004     524.3649     72.33949      1.853     5.20     4.589532     20.38322     49.48148         8     1.288     0.593   3.62   0
        55     60.3105    879.6250 299.9163836 +22.6605355      536.748     72.19231      3.079     3.83     7.056808     20.38322     32.72015         5     1.049     0.401 -16.24   0
        56    785.8990    876.5441 300.1432826 +22.8772107     1375.317     72.33949      1.907     4.89     4.611714     20.38322     76.96431        23     1.312     1.193  48.22   0
        57    968.8099    876.1185 300.2004803 +22.9318814     373.5256     72.19231      1.832     4.13     4.838039     20.38322     36.64717         5     1.362     0.357  82.87   0
        58     80.6315    875.3571 299.9240876 +22.6654089     1311.243     72.30272      0.751     0.05     7.545977     20.38322     730.7925        10     1.096     0.386 -45.26   0
        59    638.0362    873.4746 300.0981878 +22.8320203     521.2988     72.19231      1.900     7.00     4.492141     20.38322     42.49555        11     1.334     1.030  11.14   0
        60    824.1029    870.0935 300.1572936 +22.8868039     766.5076     72.43133      2.160     5.47     4.538428     20.38322     54.54552        17     1.477     0.909 -28.52   0
        61    934.1272    867.8724 300.1923383 +22.9191242     348.7184     72.30272      1.837     5.11     4.566456     20.38322     32.18227         6     1.110     0.665  74.35   0
        62    872.5868    861.4019 300.1752419 +22.8988315     574.2411     72.08173      1.675     5.46     4.513236     20.38322     49.56637        13     1.162     0.975  -1.05   0
        63    723.5961    860.0781 300.1292104 +22.8538136     676.3892     72.15546      1.923     6.65     4.732084     20.38322      60.1711        15     1.433     0.961  55.53   0
        64    436.3427    856.4655 300.0408920 +22.7666773     4320.387     72.28433      1.830     3.87      4.72985     20.38322     338.4099        40     1.424     1.361  59.68   0
        65    735.2811    857.6190 300.1336526 +22.8566087     579.5438     72.22913      1.743     6.27      4.79708     20.38322     42.21967        14     1.102     1.003  57.50   0
        66    215.1566    845.5306 299.9756134 +22.6972101     370.6046     72.21072      1.702     2.55     6.084778     20.38322      42.1839         5     0.719     0.449 -22.77   0
        67     98.6261    844.5372 299.9396992 +22.6619687      504.876     72.24754      2.112     5.51     5.940962     20.38322     38.39696         7     1.404     0.610 -72.95   0
        68    161.3903    842.7836 299.9597844 +22.6802944     679.7489     72.17389      1.742     5.74     7.653562     20.38322     53.10363        14     1.501     0.789 -12.83   0
        69    138.6914    839.0906 299.9539262 +22.6724259     1613.007     72.41296      1.941     4.66     6.860054     20.38322     114.3032        28     1.498     1.232  26.72   0
        70     69.5052    840.1448 299.9320740 +22.6519721     564.1745     72.30272      2.709     6.89     5.500199     20.38322     48.90267        11     1.510     1.091  33.31   0
        71   1010.5686    828.6037 300.2289595 +22.9307331     2068.016     72.21072      1.925     5.01     5.222828     20.38322     114.8036        31     1.452     1.307  -7.68   0
        72    669.8955    826.7150 300.1233162 +22.8281407     443.5691     72.43133      2.129     6.77     4.470376     20.38322     30.08389         8     1.262     1.018  42.17   2
        73    964.8684    827.0955 300.2151865 +22.9166141     2169.069     72.37624      1.990     4.50     4.953821     20.38322     121.5374        32     1.473     1.335  -0.33   0
        74    748.4614    821.2476 300.1495842 +22.8501112     500.4533     72.28433      1.664     6.78      5.01172     20.38322     52.86783        14     1.458     0.884 -30.40   0
        75    171.6450    820.6604 299.9701634 +22.6770241     457.9835     72.26594      1.877     4.95     6.291376     20.38322     42.55879         7     1.112     0.624  74.89   0
        76    616.4616    814.7545 300.1105517 +22.8086934     4867.396     72.26594      1.709     3.68     4.460157     20.38322     403.4677        38     1.377     1.269  59.72   0
        77    106.0835    814.8298 299.9516723 +22.6556850     539.8779     72.26594      2.048     7.21     5.449135     20.38322     40.14662         9     1.424     1.023  73.99   0
        78    418.5924    811.8552 300.0498649 +22.7485513     603.7311     72.24754      1.869     4.30     5.114187     20.38322     48.84941        12     1.083     0.933  10.90   0
        79    166.5288    808.3062 299.9725872 +22.6719454      1384.59     72.35786      1.825     4.25     5.681392     20.38322     118.2003        25     1.339     1.252 -35.89   0
        80    637.0413    807.2672 300.1193980 +22.8127105      815.277     72.22913      1.624     4.75     4.460638     20.38322     61.64447        15     1.201     0.956  18.90   0
        81    434.7052    806.3232 300.0566793 +22.7517939     245.6406     72.35786      1.577     5.33     5.102787     20.38322     34.79202         7     1.215     0.659   8.54   0
        82    186.0425    805.1492 299.9796818 +22.6768926     484.7966     72.26594      1.683     5.83     5.567328     20.38322     46.82323         8     1.345     0.712  54.19   0
        83    554.0872    797.5819 300.0966995 +22.7850690     357.0511     72.19231      1.248     4.73     4.630898     20.38322     38.56603         7     1.276     0.497  40.97   0
        84   1009.1013    794.9509 300.2394395 +22.9206217     1161.596     72.30272      1.923     5.13     5.142875     20.38322     68.53876        22     1.364     1.218  75.95   0
        85    792.4685    794.5994 300.1719668 +22.8556401     4286.102     72.21072      1.747     3.78     5.103582     20.38322     354.3414        34     1.315     1.281   8.28   0
        86    201.0127    788.9488 299.9896023 +22.6767346      510.549     72.28433      1.590     5.12     5.462611     20.38322     45.85361        12     1.254     0.758 -42.18   0
        87    509.6545    787.0764 300.0862734 +22.7687352     589.2656     72.28433      1.445     4.04     4.825286     20.38322     58.89734        11     1.020     0.708  -9.07   0
        88    155.7261    784.5846 299.9769362 +22.6618998     870.6752     72.24754      1.730     4.91     5.261707     20.38322      88.2309        17     1.232     1.077  70.67   0
        89    571.1813    780.3956 300.1076098 +22.7852572     453.6899     72.19231      1.599     5.22     4.647186     20.38322     48.72029        14     1.249     0.891  41.32   0
        90    305.4474    776.8616 300.0260199 +22.7045842     53899.02     72.28433      1.778     3.71     5.396939     20.38322      4583.53        96     1.546     1.472   4.71   0
        91    563.3542    776.0519 300.1065828 +22.7816642     1650.983     72.28433      1.574     3.20     4.671168     20.38322     162.0138        22     1.139     1.091  -6.62   0
        92    976.1810    775.3565 300.2355326 +22.9051326     905.4819     72.26594      1.782     6.15     4.999787     20.38322      49.0875        18     1.205     1.086 -22.98   0
        93    233.8973    775.1877 300.0043026 +22.6826483     470.7085     72.13704      1.781     5.27     5.487817     20.38322     35.90981         8     1.096     0.716 -13.61   0
        94    592.2767    771.9766 300.1169179 +22.7891614     846.3319     72.26594      1.547     4.09     4.655423     20.38322     77.39404        17     1.166     1.029  53.98   0
        95    603.1625    770.8919 300.1206621 +22.7921121     650.4736     72.24754      1.728     3.66     4.650726     20.38322      74.6244        13     1.075     1.015  41.34   0
        96    708.6930    766.5941 300.1549478 +22.8224978     407.5557     72.13704      1.592     3.96     4.966927     20.38322     48.14239        11     1.038     0.826  67.10   0
        97    502.8694    764.3551 300.0915433 +22.7601780     342.4776     72.21072      1.527     4.43     4.868879     20.38322     35.79567         6     1.185     0.472 -44.61   0
        98    746.3009    757.0851 300.1697620 +22.8310329     762.6215     72.41296      1.717     4.62      5.20896     20.38322     59.24041        15     1.176     0.959  35.19   0
        99    355.1940    754.1547 300.0488795 +22.7129823     31941.85     72.24754      1.684     3.28     5.241376     20.38322     2808.645        76     1.462     1.396   6.63   0
       100    369.5987    754.6542 300.0532008 +22.7174442     2014.793     72.19231      1.679     3.24     5.228622     20.38322     201.0604        26     1.284     1.170  29.72   0
       101    244.8564    753.6251 300.0147179 +22.6797472     334.3701     72.24754      1.514     4.68      5.39882     20.38322      28.5357         6     0.940     0.660 -23.50   0
       102    878.3959    750.2433 300.2131817 +22.8686328     2786.018     72.26594      1.809     3.98     5.197695     20.38322     232.5318        32     1.363     1.282 -38.16   0
       103    366.5893    748.5166 300.0542582 +22.7147802     685.8791     72.21072      2.043     3.92     5.222633     20.38322      51.4705        14     1.117     0.895 -38.57   0
       104    857.7753    747.5333 300.2076297 +22.8616784      254.336     72.22913      1.627     5.04     5.280065     20.38322     30.02354         5     1.014     0.733  72.63   0
       105    636.3641    746.2563 300.1390128 +22.7949855     881.6916     72.26594      1.548     3.53     4.807343     20.38322      87.4211        18     1.201     0.947  42.88   0
       106    237.7683    745.7938 300.0150572 +22.6753744     847.1085     72.24754      1.617     5.45     5.358409     20.38322     56.04029        18     1.365     1.016  18.63   0
       107    472.7177    746.1814 300.0880583 +22.7459228     418.4973     72.21072      1.582     3.44      4.97852     20.38322     55.25444        10     1.041     0.784 -11.65   0
       108    483.5176    740.8676 300.0931480 +22.7476341     871.8536     72.35786      1.548     3.45      4.94087     20.38322     95.16603        14     0.998     0.946   3.77   0
       109    884.6144    738.3774 300.2189772 +22.8670852     524.3974     72.24754      1.679     4.79     5.221811     20.38322     52.42618        11     1.271     0.764  37.78   0
       110    385.6896    737.5714 300.0637596 +22.7173643     345.3429     72.22913      1.532     4.91      5.19331     20.38322     36.23403         7     0.978     0.697 -41.63   0
       111    342.2247    736.6739 300.0505224 +22.7040765     329.0122     72.28433      1.371     3.48     5.252229     20.38322      51.3572         5     0.931     0.408  83.96   0
       112     71.5384    735.0618 299.9668509 +22.6224407      481.313     72.28433      1.750     3.69     5.053551     20.38322     47.65871         6     1.008     0.388 -70.28   2
       113    429.0016    735.9711 300.0777634 +22.7298881     413.3552     72.21072      1.539     4.73     5.128346     20.38322     43.52259         8     0.892     0.712 -20.05   0
       114    862.0912    732.9111 300.2137270 +22.8587691     342.3255     72.41296      1.724     6.03     5.360653     20.38322     27.06953        10     1.505     0.679 -27.68   0
       115    235.3876    730.3963 300.0193189 +22.6702419     615.2189     72.10017      1.726     5.19     5.310156     20.38322     49.50713        16     1.182     1.051 -27.32   0
       116    558.7426    721.0111 300.1230296 +22.7644763     473.7859     72.21072      1.643     3.86     4.819084     20.38322     52.28657         9     0.959     0.802  45.81   0
       117    528.4092    719.1816 300.1141750 +22.7548610     552.9685     72.19231      1.574     5.41     4.854733     20.38322     57.94046        11     1.228     0.915 -27.48   0
       118    437.0410    718.3946 300.0859766 +22.7272516     237.7236     72.26594      1.376     4.81     5.080976     20.38322     38.30933         6     1.006     0.745  -3.29   0
       119    944.8242    715.6391 300.2451510 +22.8785796     4687.876     72.26594      1.835     3.93     5.067991     20.38322     327.0214        40     1.394     1.387 -11.10   0
       120    550.3610    716.3922 300.1219192 +22.7606382     1315.734     72.26594      1.607     3.21      4.82537     20.38322     125.8286        21     1.178     1.046  -0.84   0
       121    470.1560    716.0790 300.0970403 +22.7365120     260.5473     72.22913      1.402     4.93     4.999032     20.38322     36.85207         7     1.010     0.681  22.77   0
       122    933.2248    707.2238 300.2442655 +22.8726877     1680.789     72.21072      1.746     3.86     5.179636     20.38322     120.8479        24     1.281     1.146  67.48   0
       123    296.3086    700.6629 300.0479318 +22.6799743     925.0813     72.33949      1.623     3.06     5.326169     20.38322     111.0099        16     1.081     0.965 -37.29   0
       124    162.2832    701.6533 300.0059179 +22.6400718     248.0675     72.28433      1.824     4.58      5.42695     20.38322     36.83649         5     1.134     0.525 -56.56   0
       125    759.7159    698.2707 300.1930533 +22.8181538     2636.011     72.35786      1.743     3.40     5.236108     20.38322      210.068        31     1.420     1.199  -1.99   0
       126    964.3586    697.1420 300.2572563 +22.8791115     1680.114     72.24754      1.774     3.73     5.073199     20.38322      137.336        26     1.281     1.214  82.16   0
       127    144.8365    684.4729 300.0060729 +22.6299099     634.2633     72.19231      1.763     6.33     5.419032     20.38322     69.56335        14     1.377     0.883 -30.20   0
       128    841.8081    684.1165 300.2232523 +22.8386725     696.6555     72.19231      1.932     4.57     5.457997     20.38322     56.88477        10     1.176     0.709  12.83   0
       129    878.0647    675.2355 300.2374471 +22.8469772     148705.8     72.24754      1.665     3.33     5.473319     20.38322     12451.57       159     1.539     1.495 -41.46   0
       130    640.3029    678.9951 300.1620913 +22.7768455     518.5228     72.15546      1.830     5.70     4.958739     20.38322     35.95366        10     1.044     0.875 -15.92   0
       131   1023.7800    677.0095 300.2823431 +22.8911128     561.6649     55.58607      1.245     3.93     4.636642     20.38322      87.9793         9     1.372     0.386 -83.43  24
       132    730.3298    675.7135 300.1912187 +22.8028708     736.9255     72.35786      1.636     3.97     5.072839     20.38322     75.04893        14     1.135     0.891 -16.63   0
       133    910.7712    668.4570 300.2498529 +22.8548219     375.6621     72.24754      1.494     3.88     5.464607     20.38322     45.92735         8     1.034     0.871  36.63   0
       134    564.2065    664.0000 300.1432512 +22.7497396     1685.969     72.04482      1.495     2.99       4.9797     20.38322     195.9761        20     1.119     0.995  13.56   0
       135    745.5536    661.2978 300.2006475 +22.8032885     9636.285     72.28433      1.601     3.05     5.127381     20.38322     971.4273        46     1.307     1.270  -8.30   0
       136    246.9417    656.2457 300.0469987 +22.6524247     4891.078     72.28433      1.652     3.41     5.348937     20.38322     443.3088        37     1.344     1.254 -24.55   0
       137    328.9147    654.4351 300.0730934 +22.6764788     1193.458     72.22913      1.591     3.51     5.122325     20.38322     107.3054        19     1.188     1.002  -4.43   0
       138    205.2889    652.3859 300.0352951 +22.6388287     392.4917     72.19231      1.394     4.47     5.467178     20.38322     40.89129         8     1.123     0.505 -68.72   0
       139    537.6226    650.2553 300.1394339 +22.7378267     741.3447     72.26594      1.366     2.48     5.106788     20.38322      98.2888        12     0.958     0.741 -27.94   0
       140    528.9621    642.0469 300.1394020 +22.7328742     3176.383     72.28433      1.453     3.00     5.166658     20.38322     323.0848        25     1.133     1.084  27.50   0
       141    519.1361    635.5515 300.1384509 +22.7280644     1597.241     72.26594      1.652     3.29     5.213778     20.38322     157.1014        25     1.380     1.051  64.61   0
       142    912.7858    634.3115 300.2615719 +22.8456099     387.1802     72.19231      1.203     3.82     5.363935     20.38322      38.2611         6     1.021     0.411  13.20   0
       143    182.4823    631.6783 300.0349262 +22.6260474     634.3625     72.35786      1.697     5.26     5.587949     20.38322     69.95465        17     1.318     1.180  49.43   0
       144    197.1206    630.6063 300.0398272 +22.6301286     705.4248     72.17389      1.665     5.28     5.564229     20.38322      61.6367        13     1.169     1.031 -76.74   0
       145    966.2549    627.2151 300.2805616 +22.8595768     576.6574     72.22913      1.766     6.07     5.118412     20.38322     41.40514        11     1.141     0.908 -48.65   0
       146    222.6893    627.0806 300.0489253 +22.6367824     521.6819     72.37624      1.472     4.77      5.53999     20.38322       52.839        12     1.115     0.891 -53.92   0
       147    254.1470    626.9359 300.0587586 +22.6461717      356.049     72.28433      1.503     4.38     5.421693     20.38322     39.75832         8     1.091     0.501 -34.33   0
       148    543.4741    626.1210 300.1490945 +22.7326479     329.0934     72.35786      1.122     2.22     5.258539     20.38322     55.64476         6     0.739     0.498  86.76   0
       149    444.0397    625.4090 300.1183576 +22.7026490       1797.9     72.24754      1.558     2.92     5.297191     20.38322     178.6467        22     1.140     1.055  20.15   0
       150   1019.5928    623.1944 300.2985154 +22.8743866     872.8253     72.10017      1.679     4.03     4.757511     20.38322     74.11678        18     1.225     1.029  60.57  16
       151    477.1824    624.9089 300.1288406 +22.7124368     1070.801     72.17389      0.457     2.38     5.312036     20.38322     823.3481         7     0.592     0.289 -23.87   0
       152     97.8957    620.2094 300.0123473 +22.5973928     20000.31     72.17389      1.791     3.59     5.541375     20.38322     1809.064        68     1.522     1.453   9.61   0
       153     19.3615    622.0255 299.9873454 +22.5743619     673.5648     72.26594      1.724     4.15     6.049428     20.38322     63.46317        10     1.072     0.794 -37.23   0
       154    529.1842    620.8685 300.1463489 +22.7268578     1061.205     72.26594      1.591     2.98     5.301815     20.38322     114.2402        15     1.055     0.896   0.55   0
       155    564.3928    619.8668 300.1576422 +22.7371186     474.3117     72.24754      1.866     4.34     5.232866     20.38322     46.35459         7     0.964     0.680  85.93   0
       156    282.2198    612.7648 300.0720947 +22.6505189     300.7805     72.26594      1.458     4.42      5.31647     20.38322     46.81852         7     1.180     0.660 -66.79   0
       157    946.9875    607.1498 300.2810651 +22.8480403     1165.854     72.30272      1.603     4.22     5.224805     20.38322     94.25613        22     1.298     1.144  55.92   0
       158    813.8696    605.1656 300.2401806 +22.8076157     524.4107     72.24754      1.438     4.45     5.221245     20.38322     50.11831        11     1.070     0.867  58.66   0
       159    110.0530    605.1620 300.0210130 +22.5967201     343.3148     72.26594      1.368     4.63     5.633339     20.38322     51.92411         7     1.341     0.455 -44.48   0
       160     44.0012    604.6924 300.0006317 +22.5767782     1451.642     72.15546      2.048     5.22     6.100665     20.38322     96.02363        26     1.479     1.324  29.19   0
       161    492.4254    601.4082 300.1412190 +22.7102546     429.2256     72.24754      1.318     2.82     5.420971     20.38322      66.1707         8     0.914     0.614 -17.06   0
       162    887.3798    599.8378 300.2648408 +22.8280937     753.1242     72.26594      1.843     4.08     5.226937     20.38322     59.18446        10     1.005     0.790 -55.55   0
       163    448.9460    593.6739 300.1301903 +22.6950052      656.234     72.26594      1.439     3.33     5.405391     20.38322     74.12255        13     0.986     0.896  87.77   0
       164    597.0667    592.2504 300.1767898 +22.7389734      592.979     72.22913      1.575     4.74     5.339943     20.38322      57.9819        11     1.148     0.768  41.67   0
       165    644.3086    590.9056 300.1919479 +22.7527379     430.7314     72.41296      1.307     3.64     5.333805     20.38322     50.56223        10     0.935     0.765 -19.64   0
       166    614.7052    590.4233 300.1828792 +22.7437321     574.7427     72.13704      1.264     4.17     5.330317     20.38322     61.90204        12     1.202     0.800  28.43   0
       167    493.2928    589.3694 300.1453981 +22.7070566       1010.8     72.17389      1.509     2.72     5.446446     20.38322     115.0021        18     1.140     0.959 -67.97   0
       168    458.8085    585.0101 300.1360744 +22.6954722      1671.41     72.13704      1.469     2.97      5.42159     20.38322     193.1115        22     1.107     1.051  16.20   0
       169   1023.8407    583.3484 300.3127810 +22.8642002     289.5932     55.17796      0.959     3.04     5.002045     20.38322     53.97613         5     0.928     0.360  85.64  24
       170    824.0417    582.8465 300.2506005 +22.8042463     364.4604     72.30272      1.770     3.36     5.212861     20.38322     36.10007         5     0.788     0.501  62.64   0
       171     20.6949    578.3127 300.0019523 +22.5622195     4945.793     72.43133      1.880     3.79     6.307824     20.38322     434.3146        43     1.486     1.418  59.06   0
       172    966.3690    575.2573 300.2974697 +22.8446722     277.4803     72.26594      1.518     4.25     5.230267     20.38322     41.37672         6     0.753     0.682  14.92   0
       173    927.0960    585.3058 300.2819513 +22.8358056      3314.01     72.43133      1.629     3.21     5.323928     20.38322     293.8293        30     1.250     1.192  40.32   0
       174    322.2466    571.5909 300.0979189 +22.6506949     9202.832     72.26594      1.572     2.95       5.2266     20.38322     1040.538        44     1.304     1.238  45.98   0
       175    444.6819    568.7170 300.1369655 +22.6865598     8974.143     72.37624      1.510     2.83     5.427928     20.38322     1086.648        40     1.214     1.198  43.11   0
       176    210.5670    566.7592 300.0647400 +22.6158330       257.68     72.30272      1.408     3.37     5.522731     20.38322     35.72396         5     0.772     0.426  66.87   0
       177    849.7743    566.4683 300.2639447 +22.8072425     417.5173     72.22913      1.684     3.49     5.191253     20.38322     37.35963         5     0.757     0.465 -17.66   0
       178    856.4700    563.0288 300.2671501 +22.8082584     1927.462     72.24754      1.541     3.07     5.186427     20.38322     176.1304        24     1.236     1.057 -84.10   0
       179    690.9857    565.1163 300.2148697 +22.7593074      326.203     72.21072      1.566     3.78     5.445922     20.38322     40.90736         5     0.809     0.506  56.30   0
       180    941.0682    560.3054 300.2944288 +22.8328000     12669.33     72.39461      1.660     3.22     5.314286     20.38322     1198.914        52     1.367     1.337 -57.94   0
       181    505.2773    558.3738 300.1591941 +22.7017439     11622.24     72.24754      1.453     2.69      5.55939     20.38322     1263.165        48     1.244     1.214 -39.12   0
       182    674.8876    554.4573 300.2133125 +22.7514232     463.9109     72.32111      1.281     2.83     5.573432     20.38322     62.64747         8     0.839     0.650 -59.23   0
       183    232.6407    553.5837 300.0758838 +22.6186674     1282.265     72.26594      1.652     4.01     5.434342     20.38322     154.6442        22     1.262     1.092  34.15   0
       184    390.6499    553.1593 300.1251938 +22.6659013     299.7408     72.26594      1.288     3.17     5.352916     20.38322     55.46397         6     1.030     0.443 -79.08   0
       185    479.4369    551.6625 300.1533251 +22.6920744     365.5816     72.26594      1.387     3.40     5.469705     20.38322     44.85681         7     1.001     0.600 -18.55   0
       186    779.8665    546.8427 300.2485134 +22.7806707     882.3713     72.22913      1.500     3.43     5.268816     20.38322     90.02774        14     1.038     0.933  70.70   0
       187    436.9625    546.5052 300.1417728 +22.6778673     4401.858     72.22913      1.458     2.70     5.444437     20.38322      520.989        30     1.193     1.129  49.29   0
       188    415.2769    544.8841 300.1355472 +22.6709040     1454.882     72.35786      1.554     3.07     5.427188     20.38322     147.9908        20     1.082     1.063  26.64   0
       189    169.4917    544.3910 300.0592256 +22.5970986     851.5103     72.17389      1.698     4.24     5.568289     20.38322     79.82589        18     1.188     1.112  26.44   0
       190    856.8387    542.2317 300.2740171 +22.8023899     1724.334     72.28433      1.662     3.56     5.188692     20.38322      129.878        24     1.219     1.146 -47.54   0
       191    553.5926    534.1171 300.1821187 +22.7092491     208279.1     72.17389      1.448     2.70     5.877578     20.38322     22431.47       193     1.490     1.409 -17.86   0
       192    103.2832    542.0594 300.0393943 +22.5765800     271.6798     72.33949      1.531     4.45       5.5833     20.38322     32.67599         6     1.149     0.491 -38.01   0
       193    737.2162    539.0757 300.2377361 +22.7656677     907.8088     72.24754      1.602     3.95     5.348143     20.38322     75.88228        17     1.144     1.051   8.03   0
       194    377.3681    540.6022 300.1251356 +22.6583150     339.3581     72.21072      1.457     3.29     5.348748     20.38322      44.9289         5     0.729     0.463 -16.24   0
       195    830.3997    537.8009 300.2672086 +22.7932011     332.7607     72.02637      1.451     4.02     5.210984     20.38322     43.64743         5     0.923     0.500  35.84   0
       196    941.4479    535.7818 300.3025091 +22.8258621     288.4772     72.28433      1.499     3.92      5.34153     20.38322      34.8462         5     0.845     0.596  43.13   0
       197    239.6209    534.0132 300.0844082 +22.6151410     3549.666     72.21072      1.582     3.16     5.407515     20.38322     383.4721        32     1.273     1.156   0.74   0
       198    805.4333    530.4150 300.2618196 +22.7836033     630.8079     72.22913      1.806     4.19     5.230627     20.38322     46.27892        11     1.086     0.727  29.54   0
       199    585.2544    520.1262 300.1965247 +22.7147130      347.716     72.24754      1.534     4.68     5.887964     20.38322     39.43742         7     1.113     0.663  59.21   0
       200    444.2244    514.4550 300.1544378 +22.6708370     2838.431     72.28433      1.598     2.67     5.667801     20.38322     289.2276        28     1.224     1.084 -69.99   2
       201    288.7459    517.0228 300.1052077 +22.6249860     402.6124     72.26594      1.276     3.76     5.439623     20.38322     53.96421        10     0.932     0.825  32.79   0
       202    893.7667    514.5323 300.2945295 +22.8054803     381.1583     72.24754      1.696     2.59     5.254011     20.38322     46.18502         5     0.722     0.438 -24.51   0
       203    855.3992    511.0477 300.2836912 +22.7929936     359.7532     72.24754      1.461     3.87     5.199821     20.38322     43.05277         6     0.835     0.653 -49.65   0
       204    761.8449    503.4785 300.2569706 +22.7628100     498.7183     72.24754      1.651     3.22     5.303383     20.38322     54.51999         7     0.907     0.612  48.38   0
       205    841.3010    500.8278 300.2826109 +22.7858351     1725.957     72.19231      1.500     3.02     5.210845     20.38322     201.6385        21     1.129     1.011 -81.87   0
       206    727.9341    500.0787 300.2475011 +22.7516796     530.5831     72.35786      2.427     3.71     5.390564     20.38322     28.89604         5     1.026     0.385 -57.30   0
       207    712.5013    498.3368 300.2432552 +22.7465580     2459.321     72.35786      1.360     2.49     5.461452     20.38322      297.775        21     1.098     1.017 -54.61   0
       208    956.4503    496.2199 300.3200333 +22.8189757     471.7445     72.22913      1.367     3.73     5.454955     20.38322     42.64228         8     0.954     0.608  24.05   2
       209    955.3605    492.1109 300.3210269 +22.8174679     861.9894     72.22913      2.093     4.18     5.459658     20.38322     73.14244        15     1.268     1.021  68.06   2
       210    921.9575    496.0133 300.3093367 +22.8085931     426.7793     72.26594      1.605     4.60     5.314527     20.38322     42.33926         7     1.085     0.554  28.32   0
       211    617.2885    495.0460 300.2146471 +22.7171004     559.6983     72.22913      1.489     3.42     5.820447     20.38322     58.69617         9     0.993     0.727 -48.12   0
       212    499.5471    494.1294 300.1782636 +22.6815714     687.0856     72.22913      1.435     3.50     6.140283     20.38322     67.50547        16     1.061     0.977  -6.86   0
       213    969.8171    492.3587 300.3254582 +22.8218655     1244.067     72.26594      1.558     3.27     5.535205     20.38322      134.298        19     1.142     1.029 -65.97   0
       214    841.5959    490.7407 300.2859770 +22.7830233      2300.49     72.21072      1.790     3.94     5.212611     20.38322     232.0975        34     1.649     1.204  85.08   0
       215    594.9170    488.7275 300.2097268 +22.7085847      817.015     72.37624      1.846     3.47     5.931376     20.38322     68.34901        12     1.085     0.813 -46.18   0
       216    433.3182    487.4591 300.1598040 +22.6598149     423.5148     72.32111      1.509     2.83     5.751358     20.38322     53.48393        10     0.862     0.811 -45.87   0
       217    879.7442    485.9091 300.2994456 +22.7930529     4280.845     72.30272      1.530     3.04     5.232219     20.38322     405.3941        33     1.238     1.183 -75.65   0
       218    380.7892    488.6820 300.1430530 +22.6444283     386.8775     72.21072      1.504     3.62     5.514604     20.38322     55.31441         8     1.039     0.651 -28.20   0
       219    540.6464    481.9515 300.1950179 +22.6903832     385.7684     72.26594      1.442     3.13     6.276441     20.38322     42.53321         7     0.846     0.579 -57.27   0
       220    971.4639    476.5011 300.3311191 +22.8177977     806.6123     72.33949      1.741     3.30     5.582947     20.38322     85.57235        14     1.104     0.846 -42.82   0
       221    772.7781    470.5605 300.2710640 +22.7566204     295.5055     72.28433      1.389     3.33     5.304616     20.38322     35.73743         5     0.728     0.478  14.25   0
       222    104.4822    465.8532 300.0645000 +22.5550652     395.3521     72.28433      1.411     3.57     5.427449     20.38322     54.02832         7     0.942     0.764 -56.59   0
       223    111.6354    476.0893 300.0634024 +22.5601479     1061.811     72.22913      1.735     3.62     5.427449     20.38322     91.81507        18     1.254     0.915   1.64   0
       224    712.0773    460.5798 300.2553772 +22.7355782     508.6943     72.24754      1.371     2.41     5.498052     20.38322     60.50396         6     0.757     0.494   0.72   0
       225    600.3942    457.9420 300.2214246 +22.7013781     408.4745     72.21072      1.675     4.34     5.883091     20.38322       39.666         7     0.879     0.609  61.73   0
       226    653.2662    456.3342 300.2384231 +22.7167487     779.6174     72.30272      1.269     2.52     5.710545     20.38322     93.74863        11     0.868     0.766  33.80   0
       227    714.0406    448.5502 300.2598931 +22.7327080     891.6813     72.26594      1.501     3.08     5.509105     20.38322     109.9521        16     1.230     0.916 -87.10   0
       228    967.8174    449.0877 300.3388779 +22.8088221     523.1084     72.19231      1.473     4.19     5.573281     20.38322     59.13253         9     1.042     0.734  42.77   0
       229    871.2969    444.9334 300.3101086 +22.7787420     965.0366     72.33949      1.461     3.20     5.228793     20.38322     98.50359        15     0.991     0.943  49.96   0
       230    829.7955    443.0928 300.2977601 +22.7657911     263.9843     72.13704      1.333     3.31     5.262925     20.38322     40.60415         5     0.982     0.323  45.99   0
       231    855.4546    441.2497 300.3063620 +22.7729411     589.4132     72.28433      1.370     3.31     5.230672     20.38322     70.48981        11     1.049     0.829  58.71   0
       232    836.0565    441.6030 300.3001964 +22.7672367     330.8101     72.21072      1.175     2.95     5.255906     20.38322     41.35738         5     0.736     0.439 -21.46   0
       233    599.7037    439.1429 300.2273099 +22.6957687     3223.688     72.32111      1.396     2.65     5.856037     20.38322     374.2527        24     1.090     0.997 -24.20   0
       234    959.9963    438.4566 300.3398870 +22.8034240     544.7126     72.21072      1.694     3.21     5.532373     20.38322     48.75192         8     0.816     0.677  80.39   0
       235    869.2968    429.8726 300.3143720 +22.7738124     893.6004     72.37624      0.604     0.96     5.229468     20.38322     546.9374         6     0.507     0.406  -4.91   0
       236     75.0133    430.1385 300.0669266 +22.5359788     365.0929     72.21072      1.725     6.06     5.674475     20.38322     39.42029         7     1.851     0.558   9.88   0
       237    439.7457    426.2548 300.1816667 +22.6441576     429.4798     72.28433      1.341     3.49     5.649949     20.38322     53.68012         9     0.890     0.717 -72.47   0
       238    371.5330    426.5872 300.1603218 +22.6238188     267.8856     72.22913      1.502     3.94     5.634398     20.38322     30.36706         5     1.062     0.419  15.36   0
       239   1011.0812    418.5004 300.3623074 +22.8129690     1292.227     72.37624      1.598     3.16      5.80985     20.38322     143.7635        23     1.271     1.061  -4.29   0
       240    969.6941    417.0484 300.3498605 +22.8001682     1091.353     72.26594      1.748     4.33     5.593285     20.38322     92.69569        19     1.417     0.894 -22.38   0
       241    882.7097    418.1642 300.3223557 +22.7744595     499.6814     72.22913      1.379     3.02     5.266852     20.38322     50.44842         9     0.881     0.671  17.14   0
       242    619.4423    414.7337 300.2413809 +22.6946639     367.4705     72.22913      1.387     4.01     5.770858     20.38322     37.32385         5     0.942     0.488 -83.41   0
       243    710.2961    413.1047 300.2702274 +22.7213974     1034.128     72.41296      1.435     2.83     5.559869     20.38322     130.5234        17     1.045     0.927  43.01   0
       244    214.4548    410.7777 300.1165714 +22.5722130      837.941     72.26594      2.035     4.65     5.816039     20.38322      87.3008        16     1.490     1.020 -80.58   0
       245    276.6317    406.7281 300.1372296 +22.5896813     3820.969     72.24754      1.529     2.81     5.928355     20.38322     476.9141        33     1.210     1.178  -8.36   0
       246   1009.8331    405.6206 300.3660970 +22.8088905     4298.382     72.24754      1.589     3.14     5.794618     20.38322     453.4802        35     1.269     1.248 -87.30   0
       247    223.8009    401.5122 300.1224848 +22.5723528      7688.49     72.15546      1.551     2.90     5.898183     20.38322     882.3981        38     1.260     1.226  23.91   0
       248    989.8065    396.7182 300.3627344 +22.8003378     1928.751     72.17389      1.582     3.50     5.687804     20.38322     187.6546        23     1.242     1.087 -22.79   0
       249    364.6003    395.7801 300.1681589 +22.6128920     4935.181     72.17389      1.462     2.77     5.744963     20.38322     599.6464        35     1.208     1.151  83.30   0
       250    608.8740    392.6410 300.2452555 +22.6851494     18659.65     72.22913      1.403     2.53     5.710431     20.38322     2514.977        51     1.223     1.186  86.91   0
       251    626.6506    392.3595 300.2508864 +22.6903911     802.1339     72.26594      2.096     5.88     5.689285     20.38322     57.41197        17     1.597     0.892 -42.44   0
       252    506.0588    413.5818 300.2064302 +22.6603785     528.2118     72.19231      1.392     3.68     5.753376     20.38322     65.82857         9     1.045     0.616   1.57   0
       253    805.6519    383.0469 300.3097128 +22.7412986      437.372     72.28433      1.525     4.40      5.34744     20.38322     46.61805         7     0.875     0.694  24.91   0
       254    228.6498    380.0107 300.1309685 +22.5676307     380.1259     72.26594      1.278     4.09     5.928641     20.38322     41.68262         7     0.841     0.711  11.66   0
       255    942.5345    375.4302 300.3548876 +22.7800704     792.8406     72.26594      1.526     3.72      5.45972     20.38322     91.29192        16     1.212     0.921 -53.94   0
       256    163.5400    372.4300 300.1131750 +22.5459429       2086.5     72.28433      1.692     3.38     5.451406     20.38322     243.2697        26     1.216     1.180  27.87   0
       257    963.2644    362.6598 300.3654999 +22.7825991     1208.864     72.28433      1.540     3.11     5.550321     20.38322     128.7901        19     1.089     1.003  78.21   0
       258    549.5554    362.0304 300.2367038 +22.6585894     6687.337     72.28433      1.406     2.61     5.806743     20.38322      767.728        36     1.171     1.145 -89.70   0
       259    264.1454    361.3492 300.1480654 +22.5729063     623.1725     72.28433      1.399     2.88     5.949586     20.38322     73.93996        10     0.876     0.778  80.44   0
       260    122.2695    354.8850 300.1060317 +22.5285368     539.2007     72.35786      1.337     2.88     5.562398     20.38322     60.22991         8     0.914     0.589 -21.32   0
       261    809.8147    354.1063 300.3203997 +22.7342219     328.9355     72.17389      1.026     3.30     5.349074     20.38322     41.11559         6     0.732     0.585 -45.08   0
       262    753.6147    351.1617 300.3038290 +22.7165549     1109.199     72.26594      1.373     3.23     5.292081     20.38322     138.1477        15     1.080     0.827 -88.10   0
       263    663.1022    352.4146 300.2752054 +22.6898214      483.029     72.13704      1.244     4.10     5.613564     20.38322     58.43853         7     0.782     0.613  -4.98   0
       264    456.1890    348.2839 300.2120819 +22.6266790     6047.251     72.21072      1.377     2.57     5.698587     20.38322     705.8115        31     1.149     1.095  79.40   0
       265    945.5163    343.1267 300.3662974 +22.7716700     691.8932     72.35786      1.471     2.95     5.477101     20.38322     76.74901        12     0.997     0.802  64.11   0
       266    848.2783    342.6212 300.3361226 +22.7424295     1485.688     72.24754      1.622     3.31     5.298746     20.38322     164.2267        19     1.201     1.034 -87.97   0
       267    440.7702    337.0494 300.2109245 +22.6188329     497.4391     72.26594      1.508     3.20     5.745318     20.38322     53.44868         8     0.822     0.661  51.49   0
       268    523.5305    335.0132 300.2373601 +22.6430314     411.9649     72.26594      1.212     2.51     5.630321     20.38322     71.68237         7     0.769     0.710 -21.10   0
       269    801.7455    334.3750 300.3242834 +22.7261326      291.828     72.26594      1.363     3.42     5.333751     20.38322     31.14001         5     0.739     0.457 -15.92   0
       270    503.6162    332.6512 300.2319232 +22.6363893     351.0168     72.24754      1.657     3.86      5.59484     20.38322       31.072         5     1.048     0.408  74.10   0
       271    820.8182    330.4842 300.3314940 +22.7307213     529.9939     72.21072      1.288     2.61     5.319261     20.38322     93.42078        10     0.915     0.767  26.46   0
       272    343.7539    327.3778 300.1838581 +22.5869960     2720.469     72.28433      1.484     2.89     5.933041     20.38322     315.8315        24     1.194     1.023  69.13   0
       273     62.1514    324.7151 300.0971252 +22.5018566      1004.71     72.22913      1.663     3.79     6.020146     20.38322     106.9812        18     1.263     0.968  20.63   0
       274    313.0535    316.8232 300.1777261 +22.5747675     30340.46     72.26594      1.485     2.90     5.937485     20.38322     3256.412        70     1.361     1.276  65.30   0
       275    847.8006    314.7083 300.3450273 +22.7342581     1359.352     72.11861      1.454     2.68      5.31636     20.38322     172.2634        22     1.127     1.050 -23.13   0
       276      9.2900    304.5070 300.0872473 +22.4802111     4943.204     72.41296      1.805     3.46     6.190567     20.38322     531.8706        43     1.496     1.327  40.22  16
       277    762.9238    303.2780 300.3222628 +22.7055713      522.265     72.35786      1.448     3.24      5.28405     20.38322     62.52949         8     0.812     0.742 -29.50   0
       278    411.5153    302.3307 300.2130755 +22.6000945     483.7148     72.33949      1.329     3.46     5.852574     20.38322      64.9044        11     1.018     0.836 -27.90   0
       279    187.2680    303.2420 300.1429950 +22.5331827     506.4045     72.22913      1.586     3.90     5.756844     20.38322     62.12227        10     1.142     0.629  -3.98   0
       280    723.6611    296.8441 300.3121073 +22.6919704     2008.714     72.26594      1.447     2.57     5.292306     20.38322     234.5794        21     1.103     0.977 -44.87   0
       281    531.5058    291.7550 300.2538739 +22.6329856     586.3211     72.26594      0.844     0.81     5.350385     20.38322     330.1953         8     0.859     0.509  -5.56   0
       282    938.7616    289.6591 300.3815313 +22.7542671     640.2529     72.26594      1.592     4.52     5.455707     20.38322     64.96599        11     1.168     0.713  69.91   0
       283    385.2784    281.3171 300.2117215 +22.5861984     2030.845     72.35786      1.519     3.12     5.894945     20.38322     260.2366        25     1.319     1.010  65.88   0
       284    597.7636    280.4705 300.2781764 +22.6495780     354.6417     72.24754      1.374     3.45     5.228387     20.38322     43.07069         5     0.738     0.465 -18.42   0
       285    824.4287    274.6325 300.3507339 +22.7157374     574.8872     72.24754      1.381     3.59     5.312198     20.38322     73.91382        13     1.035     0.861 -61.88   0
       286    723.9852    271.9790 300.3202718 +22.6849169     268.7523     72.22913      1.452     3.81     5.281905     20.38322     40.43875         5     0.821     0.507 -65.72   0
       287    706.7617    272.1646 300.3148420 +22.6798155     442.7543     72.32111      1.407     3.31     5.277334     20.38322     50.76675         8     0.781     0.704  35.06   0
       288    674.8401    271.2327 300.3051933 +22.6699935     327.5931     72.28433      1.584     3.91     5.267751     20.38322     33.85982         6     0.784     0.558 -50.45   0
       289    461.0621    260.6487 300.2420198 +22.6029524      1258.88     72.30272      1.474     2.71     5.541249     20.38322      150.673        19     1.092     1.039  39.56   0
       290    844.2402    254.3339 300.3634957 +22.7158262     240.5965     72.21072      1.242     4.01     5.345518     20.38322     37.91761         5     0.744     0.685  41.95   0
       291    705.9927    252.5988 300.3209466 +22.6739587      2061.76     72.06328      1.395     2.47     5.267751     20.38322     310.9749        21     1.059     0.992  83.30   0
       292    967.3541    247.1185 300.4042494 +22.7505800     3207.039     72.22913      1.546     2.97      5.47829     20.38322      361.981        30     1.265     1.179  60.51   0
       293    338.7820    238.4932 300.2111330 +22.5599673     207.1025     72.17389      1.374     5.79     5.960485     20.38322     26.72504         6     1.210     0.781 -36.20   0
       294    414.3070    236.1091 300.2354172 +22.5818993     653.8983     72.41296      1.520     3.96     5.903572     20.38322     72.55211        13     1.046     0.924  50.13   0
       295     89.3529    230.3148 300.1361908 +22.4828991     1579.732     72.22913      1.955     4.10     6.158275     20.38322     116.5073        29     1.478     1.272 -48.33   0
       296    119.8741    230.6110 300.1455849 +22.4921289     590.8945     72.26594      1.537     5.02     6.087503     20.38322     60.73124        12     1.264     0.747  16.85   0
       297    983.0748    227.7186 300.4154463 +22.7496995     511.7568     72.35786      1.524     3.31     5.440112     20.38322     62.46465        10     0.986     0.809  22.80   0
       298    826.8509    224.5972 300.3677131 +22.7020690     294.7182     72.24754      1.343     1.69     5.359071     20.38322      58.1408         5     0.642     0.463  21.39   0
       299    173.0159    222.6726 300.1646851 +22.5057696     432.6435     72.24754      1.706     4.65      6.03548     20.38322      53.0598         9     1.086     0.793 -48.34   0
       300    968.6923    220.3639 300.4133417 +22.7432813     286.6921     72.19231      1.526     3.90     5.441926     20.38322     46.60069         5     0.917     0.475 -45.86   0
       301    849.1284    216.7715 300.3771993 +22.7064825     358.2242     72.24754      1.428     4.00     5.352187     20.38322     44.65021         7     0.924     0.686   0.26   0
       302    777.6046    214.1564 300.3557390 +22.6843312     626.7136     72.26594      1.338     3.12      5.31911     20.38322     84.50347        11     1.048     0.684   4.75   0
       303    368.0789    213.9921 300.2281953 +22.5616998     378.0141     72.19231      1.405     3.21     5.937046     20.38322       44.306         7     0.841     0.668 -32.30   0
       304    875.7872    203.1657 300.3899268 +22.7105431     2055.765     72.22913      1.472     2.80     5.365445     20.38322     245.8278        26     1.214     1.121 -88.92   0
       305    294.2986    200.3133 300.2096658 +22.5356737     2332.373     72.41296      1.573     2.77     5.955744     20.38322     250.7073        23     1.124     1.068   8.73   0
       306    324.1157    200.5905 300.2188554 +22.5446830     1196.579     72.19231      0.654     0.91     5.954008     20.38322     564.9553         5     0.496     0.372 -78.06   0
       307    372.1260    195.7154 300.2353798 +22.5576590     1001.409     72.33949      1.488     3.01     5.897028     20.38322     112.6009        17     1.137     0.876  -9.41   0
       308    124.5723    195.8540 300.1583127 +22.4835529     343.3386     72.24754      1.296     5.18     6.125678     20.38322     43.01822         9     1.043     0.727 -43.83   0
       309    774.2561    195.0145 300.3609002 +22.6778231     606.0853     72.22913      1.418     2.51     5.300595     20.38322     73.56593         9     0.874     0.654  20.83   0
       310    881.2603    191.8063 300.3953168 +22.7089119        361.2     72.19231      1.412     3.76     5.365835     20.38322     56.40841         7     1.019     0.540  66.48   0
       311    418.8840    191.9965 300.2511426 +22.5705906     346.5881     72.17389      1.829     3.74      5.74228     20.38322     39.36154         5     0.676     0.593  -0.22   0
       312    189.1532    187.3131 300.1811663 +22.5004455     760.5217     72.21072      1.613     4.43     6.098441     20.38322     79.92032        14     1.112     0.925  79.70   0
       313    307.2764    187.4223 300.2178830 +22.5358559     187.5485     72.22913      1.123     3.42     5.947855     20.38322     31.26355         5     0.738     0.458  18.54   0
       314    726.8754    184.4672 300.3495452 +22.6606124     1762.654     72.32111      1.514     2.78     5.319772     20.38322     240.1427        22     1.161     1.062  70.95   0
       315    791.9199    184.1798 300.3699210 +22.6799910      612.082     72.22913      1.317     3.10     5.271955     20.38322     69.79282         9     0.874     0.702 -61.42   0
       316    210.3982    180.4950 300.1899849 +22.5048503     570.3747     72.15546      1.459     2.87     6.116354     20.38322     74.21358        10     0.937     0.782  29.08   0
       317    998.5015    177.1288 300.4366621 +22.7397537      797.082     72.39461      1.554     3.39       5.4239     20.38322     92.25215        17     1.082     1.042  64.80   0
       318    500.7452    177.0033 300.2814958 +22.5907883      410.409     72.19231      1.471     4.99     5.290143     20.38322     39.10921         9     1.138     0.619 -65.19   0
       319    651.4854    175.2207 300.3290410 +22.6353932     1217.654     72.17389      1.378     2.74     5.258959     20.38322     151.4068        20     1.252     0.914  86.87   0
       320    730.9737    175.8457 300.3536176 +22.6593588      858.252     72.26594      1.574     4.21     5.332767     20.38322     92.20087        15     1.163     0.972 -48.04   0
       321    472.3510    171.6284 300.2743943 +22.5807429     350.8644     72.26594      1.685     3.25      5.36607     20.38322     40.75291         5     0.739     0.448 -17.87   0
       322    847.1163    166.7924 300.3927732 +22.6915011     1396.804     72.17389      1.483     3.06     5.292501     20.38322     161.7105        20     1.205     0.994  -0.43   0
       323    859.1489    166.1121 300.3967473 +22.6949047     1013.242     72.28433      1.616     3.26     5.309646     20.38322     93.49461        15     1.010     0.978 -49.28   0
       324    577.6779    166.8716 300.3087465 +22.6109031     922.4938     72.35786      1.353     3.55     5.241834     20.38322     102.6865        13     0.998     0.872  82.59   0
       325    905.2630    165.4021 300.4113647 +22.7084937     364.7935     72.24754      1.399     3.04     5.386834     20.38322      35.2001         5     0.733     0.443  21.09   0
       326   1019.9380    156.8513 300.4499266 +22.7403275     1703.433     71.74895      1.632     3.31     5.472559     20.38322      162.916        26     1.252     1.208 -81.62  16
       327    975.6680    156.4382 300.4362416 +22.7269703     1113.291     72.21072      1.460     3.05     5.474755     20.38322     126.6203        16     1.143     0.852  61.92   0
       328    209.8734    149.1662 300.1999753 +22.4956915     570.2559     72.22913      1.258     2.65     6.108016     20.38322     83.41157        10     0.870     0.710  -6.65   0
       329     71.5240    143.6855 300.1587262 +22.4526749     2283.766     72.35786      1.693     3.10      6.39294     20.38322     259.8718        25     1.265     1.155  56.22   0
       330    894.9888    141.3531 300.4159536 +22.6985002     810.5417     72.26594      1.609     3.28     5.523854     20.38322     74.31158        13     1.092     0.845   1.91   0
       331     21.1587    140.0321 300.1442534 +22.4365361     401.6301     72.30272      1.510     6.37     6.820256     20.38322      48.3611         9     1.407     0.810  58.06   0
       332    228.9868    137.0699 300.2098415 +22.4979401     5621.456     72.24754      1.533     2.95     6.074643     20.38322      546.927        41     1.292     1.277  35.16   0
       333    211.2105    138.7561 300.2037649 +22.4931007      327.495     72.24754      1.302     3.13     6.093928     20.38322     38.74632         6     0.722     0.641  16.43   0
       334     13.4103    131.4018 300.1446417 +22.4317358     1270.345     72.06328      1.695     3.09     6.891346     20.38322     157.7674        18     1.176     1.009 -71.55   0
       335    212.5033    128.0448 300.2076381 +22.4904100     616.6458     72.26594      1.426     3.23     6.076977     20.38322     67.66685        12     0.997     0.773   9.80   0
       336    873.2773    118.8513 300.4164722 +22.6855311     3570.907     72.24754      1.572     3.13     5.658676     20.38322     363.9402        32     1.310     1.152 -82.20   0
       337    976.9135    117.8095 300.4491498 +22.7162244     2774.269     72.17389      1.536     3.10     5.854448     20.38322     306.1871        30     1.262     1.185  79.54   0
       338    422.6439    114.0439 300.2775773 +22.5493075     692.8976     72.28433      1.615     3.06      5.57869     20.38322     77.86961        13     1.025     0.837  45.45   0
       339    536.8676    112.0468 300.3137996 +22.5829232     315.7934     72.22913      1.396     3.04     5.313339     20.38322     46.50819         5     0.785     0.503  35.09   0
       340    346.9119    105.8774 300.2566465 +22.5242872     690.1843     72.39461      1.587     2.36     5.686673     20.38322     84.21937         9     0.838     0.682   8.41   0
       341    881.5373    103.8738 300.4239028 +22.6836913     205.7766     72.28433      1.545     4.20     5.792128     20.38322     29.15838         5     0.902     0.559 -44.58   0
       342    350.8004    104.2760 300.2583757 +22.5249911     420.5771     72.11861      1.337     2.49     5.655519     20.38322     53.19349         6     0.716     0.567 -49.12   1
       343    113.1143    102.9851 300.1848460 +22.4534413     683.5904     72.19231      1.504     3.67     6.129917     20.38322     72.52332        12     1.025     0.922 -58.64   0
       344    474.0679    101.2099 300.2977499 +22.5610108     1618.098     72.24754      1.407     2.93     5.552691     20.38322     206.3332        19     1.122     0.955  81.26   0
       345    402.2795    101.8231 300.2751966 +22.5396978     577.3025     72.21072      1.742     3.11      5.59349     20.38322     57.49353         9     0.987     0.638 -44.99   0
       346     10.9438    101.9129 300.1534301 +22.4225266     274.6792     72.32111      1.248     3.69     6.921254     20.38322     37.43112         5     1.214     0.322 -27.14   0
       347    217.5901     96.7438 300.2193630 +22.4829387     479.4281     72.24754      1.706     4.27     6.023813     20.38322     50.07057         6     1.015     0.623  73.41   0
       348    762.7049     91.1973 300.3909449 +22.6444999     256.4626     72.15546      1.318     3.49     5.950777     20.38322     50.54967         5     1.002     0.352  42.82   0
       349    248.0275     80.9594 300.2339467 +22.4875171     6034.152     72.28433      1.566     2.97     6.013643     20.38322     582.3116        42     1.380     1.248  76.26   0
       350    754.4436     81.8021 300.3914130 +22.6393254     281.4532     72.24754      1.171     3.53     5.988154     20.38322     46.65125         6     0.849     0.505  50.31   0
       351     99.3311     80.5518 300.1878285 +22.4428675     774.9369     72.24754      1.612     3.20     6.079289     20.38322     83.30376        11     1.074     0.717 -21.52   0
       352    220.1372     74.9048 300.2272311 +22.4774253     248.9118     72.33949      1.232     3.80     5.986166     20.38322     46.27934         6     1.043     0.565 -64.87   0
       353    263.2049     72.6166 300.2413721 +22.4896639     207.8359     72.21072      1.242     3.44     6.044761     20.38322     27.33012         5     0.757     0.452 -17.08   0
       354      9.6090     71.7975 300.1627721 +22.4134761     281.0399     72.06328      1.218     4.43     6.543498     20.38322     40.18975         7     1.208     0.461 -23.16   0
       355    494.0946     66.4251 300.3152577 +22.5570025     6230.599     72.17389      1.476     2.69     5.562715     20.38322     743.4868        37     1.270     1.145 -87.18   0
       356    379.7396     65.9142 300.2798136 +22.5226267     554.8968     72.35786      1.450     4.48      5.67711     20.38322     74.36292        12     1.180     0.901  80.89   0
       357    746.8327     56.4342 300.3972589 +22.6297497     786.0261     72.32111      1.541     3.36     6.027882     20.38322     99.70615        13     1.182     0.742 -35.46   2
       358    550.9404     61.2872 300.3346304 +22.5725370     309.0252     72.33949      1.308     3.92     5.577566     20.38322     45.35607         8     0.837     0.673  38.51   0
       359    515.0264     60.4579 300.3237110 +22.5615509     233.9805     72.24754      1.385     4.19     5.573378     20.38322     35.06247         5     0.793     0.631  86.43   0
       360    687.9776     57.9809 300.3784082 +22.6125884       298.77     72.24754      1.368     3.75     5.837533     20.38322     44.05621         5     0.825     0.489  24.44   0
       361    839.1306     55.4481 300.4263639 +22.6570721     550.0217     72.22913      1.364     2.81     5.968546     20.38322     60.56692         6     0.763     0.495  -4.39   0
       362    187.6224     49.9407 300.2252037 +22.4605142     447.9918     72.24754      1.602     5.96     6.073902     20.38322     41.85965        11     1.140     0.877 -58.43   0
       363    622.5795     46.5708 300.3617207 +22.5897401      6378.19     72.24754      1.518     2.67     5.739769     20.38322     759.7903        40     1.321     1.162  79.41   0
       364    545.5579     48.7426 300.3370176 +22.5673183     549.3245     72.22913      1.744     3.63     5.657358     20.38322     59.92804         9     1.086     0.616 -62.31   0
       365    397.4880     45.4868 300.2919569 +22.5220666     1381.285     72.41296      1.375     2.55     5.661281     20.38322     175.6616        19     1.071     0.975 -76.37   0
       366    663.4988     44.1238 300.3752669 +22.6012786     857.6194     72.39461      1.449     3.25     5.770232     20.38322     88.86602        11     0.979     0.778  30.17   0
       367    679.4180     39.8089 300.3816270 +22.6047996     628.5496     72.19231      1.503     4.68     5.801156     20.38322     77.69366        12     1.209     0.864  56.36   0
       368    949.6327     38.1080 300.4664598 +22.6851246     450.6515     72.19231      1.551     3.25      6.10618     20.38322     52.27298         9     0.997     0.628  21.17   0
       369    146.1333     37.9718 300.2161765 +22.4446500     650.0484     72.22913      1.426     3.19     6.137853     20.38322     80.11684        10     0.907     0.752 -84.81   0
       370    718.3180     35.5916 300.3951203 +22.6152230     578.9288     72.19231      1.405     3.19     5.966234     20.38322     78.71511        10     1.156     0.614 -35.53   0
       371    681.8148     30.3914 300.3854249 +22.6028072     854.1152     72.15546      1.883     4.49     5.814274     20.38322     81.58459        19     1.566     0.947  48.66   0
       372    666.7775     31.4610 300.3803910 +22.5986164     2776.952     72.22913      1.470     2.53     5.776531     20.38322     382.7091        25     1.140     1.066  66.51   0
       373    307.4233     32.0803 300.2682642 +22.4912510     403.0179     72.21072      1.506     4.37     6.146764     20.38322     50.26322         8     0.971     0.757  86.19   0
       374    753.1082     23.0974 300.4100153 +22.6220342     1569.167     72.43133      1.438     3.07     6.059287     20.38322     161.2308        20     1.215     0.922  52.56   0
       375    155.3818   1017.5319 299.9010998 +22.7286084     1057.381     72.24754      3.063     9.34     97.01048     20.38322     47.69296        20     2.127     1.143  50.57  18
       376      6.7988   1009.3832 299.8575630 +22.6816785     1192.672     72.13704      9.358    10.05    -4.113733     20.38322     46.36413        17     2.165     1.300 -78.68  27
       377     70.1383     15.3666 300.1998676 +22.4153947      382.159     72.26594      1.373     2.30     5.812872     20.38322      57.9038         7     0.793     0.561 -34.96   0
       378      2.2855   1008.0349 299.8565990 +22.6799372      1085.22     61.38296      7.942     9.20    -9.136642     20.38322     49.52021        17     2.436     0.970 -55.13  27
       379    731.2961   1013.3467 300.0817710 +22.9001316     627.9993     72.32111      2.695     4.44     4.795491     20.38322     32.92063         6     0.983     0.571  43.31   2
       380    295.9738   1012.1718 299.9465742 +22.7692549     1542.895     72.22913      2.704     5.77     7.794316     20.38322     83.62887        31     1.664     1.375  -3.43   0
       381    132.2354   1008.1965 299.8969390 +22.7189857     1844.345     72.24754      4.083    14.22     88.14859     20.38322     53.41744        43     3.288     1.712 -18.10  18
