#   1 NUMBER                 Running object number                                     
#   2 X_IMAGE                Object position along x                                    [pixel]
#   3 Y_IMAGE                Object position along y                                    [pixel]
#   4 ALPHA_J2000            Right ascension of barycenter (J2000)                      [deg]
#   5 DELTA_J2000            Declination of barycenter (J2000)                          [deg]
#   6 FLUX_APER              Flux vector within fixed circular aperture(s)              [count]
#   7 FLUXERR_APER           RMS error vector for aperture flux(es)                     [count]
#   8 FLUX_RADIUS            Fraction-of-light radii                                    [pixel]
#   9 FWHM_IMAGE             FWHM assuming a gaussian core                              [pixel]
#  10 BACKGROUND             Background at centroid position                            [count]
#  11 THRESHOLD              Detection threshold above background                       [count]
#  12 FLUX_MAX               Peak flux above background                                 [count]
#  13 ISOAREA_IMAGE          Isophotal area above Analysis threshold                    [pixel**2]
#  14 A_IMAGE                Profile RMS along major axis                               [pixel]
#  15 B_IMAGE                Profile RMS along minor axis                               [pixel]
#  16 THETA_IMAGE            Position angle (CCW/x)                                     [deg]
#  17 FLAGS                  Extraction flags                                          
         1    700.2255     16.4499 300.3930206 +22.6015380     679.1023     72.34718      1.355     3.14     5.958692     20.40614     102.1199        12     1.000     0.802 -84.52   0
         2    505.6024     15.5817 300.3326583 +22.5430668     1028.662     72.23658      1.397     2.43     6.269564     20.40614     156.4223        17     1.023     0.977  88.24   0
         3    409.5020     14.0804 300.3032191 +22.5138782     827.4449      72.4576      1.482     3.20     5.382387     20.40614     107.4104        13     1.110     0.792 -65.26   0
         4    749.2075      4.9112 300.4120297 +22.6128667     669.2831     71.36433      1.310     2.14     5.536368     20.40614     111.6378         7     0.708     0.615 -17.74  16
         5    180.9371      3.6862 300.2354618 +22.4424738     3611.021     67.78279      1.562     2.99     6.541335     20.40614     418.0142        33     1.292     1.203  44.60  24
         6    742.4887   1014.5222 300.0821313 +22.9010766     499.6758     72.47599      2.084     4.14     3.226768     20.40614     37.61553         5     0.981     0.499  88.30   0
         7     96.8361   1012.2768 299.8818772 +22.7068102     4660.623      72.2919     17.101   114.78     88.42612     20.40614     153.8993      2120    21.204    17.239 -54.44  27
         8     85.9027    945.0721 299.9003389 +22.6842593     6181.306      72.4576     30.596   118.09        22.64     20.40614     1319.995      4958    22.648    17.084 -61.32  19
         9    648.3501    984.6509 300.0625099 +22.8642862     9492.633     72.36559      1.936     4.50     3.676207     20.40614      543.468        51     1.567     1.449  24.29   3
        10    742.6645    987.5367 300.0909659 +22.8933810     657.5408     72.36559      1.969     6.99     3.463739     20.40614     39.81845        14     1.253     1.092  15.63   0
        11    140.6537   1007.5055 299.8970512 +22.7185902     1738.978      72.4024      3.218    12.48     89.42889     20.40614     62.12971        46     2.500     1.734 -33.42   0
        12    248.1727    998.8074 299.9333172 +22.7483529     2212.659     72.32875      7.059    39.79     51.41655     20.40614     96.50931       263    15.401     2.852  -7.15  19
        13    304.7207   1012.2009 299.9465516 +22.7691573     1754.722     72.21813      4.127     6.16     6.267684     20.40614     85.65871        32     1.604     1.504  -3.57   0
        14      3.8827    994.2182 299.8588635 +22.6737376     2874.292     68.40897     17.082    34.26    -24.98124     20.40614     65.43074       246     7.918     4.114 -83.97  27
        15    146.8941   1010.7158 299.8979471 +22.7213831     88.85803     72.51275      1.349     5.77     92.70188     20.40614     34.35317         8     1.527     0.614 -46.05   0
        16    935.6205    970.4855 300.1566897 +22.9462951     688.3966     72.25502      1.979     7.40      3.75114     20.40614     41.72698        16     1.506     1.017 -26.06   0
        17    175.9248    976.0704 299.9182440 +22.7201578     2177.409      72.4024      5.051    17.27     61.88023     20.40614     64.97583        81     3.678     2.255  76.07   3
        18    228.5181    984.5651 299.9318369 +22.7383719     5518.459      72.2919      7.762    23.68     59.82759     20.40614     101.7864       353     5.707     4.732 -84.90   3
        19    217.3613   1006.9594 299.9210818 +22.7414479     1034.158      72.4024      2.664     6.17     84.64979     20.40614     46.62972        12     1.607     0.665   5.36   3
        20    661.1876    953.9636 300.0764929 +22.8593235     6959.431     72.31033      1.946     4.30       3.8044     20.40614     437.5513        46     1.487     1.438  28.02   0
        21    187.2462   1004.0768 299.9126540 +22.7315863     1275.739     72.32875      3.318     9.58     85.22955     20.40614     45.68423        15     3.654     0.700 -68.22  18
        22    248.0496    973.9798 299.9413553 +22.7411947     8480.186     72.31033     10.598    31.47     36.48762     20.40614     180.0806       857    11.002     5.623  62.21  19
        23    253.1920    948.0925 299.9513752 +22.7353114     375.5092     72.23658      1.234     4.33     19.21267     20.40614      52.3171        10     1.126     0.621 -60.36   0
        24    181.8666    992.3223 299.9148051 +22.7266013      2232.85     72.42081      6.487    18.38     75.17988     20.40614     55.23386        64     3.826     2.454 -47.64   3
        25    540.6091    948.6884 300.0406436 +22.8216671     397.3366     72.25502      1.607     5.66     3.927393     20.40614     41.99784        10     1.283     0.704  15.93   0
        26    569.5131    944.6752 300.0509519 +22.8291795      1593.62      72.4576      1.870     4.48     3.997343     20.40614     103.3208        27     1.387     1.240 -46.97   0
        27    463.5147    940.9460 300.0191541 +22.7963325     1150.496       72.384      1.901     4.53     4.009624     20.40614      87.7347        20     1.325     1.094 -50.66   0
        28    394.1176    939.0609 299.9981635 +22.7749838     6670.617     72.42081      1.866     3.91     4.187693     20.40614     520.2474        44     1.452     1.411   0.44   0
        29      5.3195   1014.5694 299.8526896 +22.6800028     3564.099     72.16276     16.375    65.32    -32.60397     20.40614     69.72044       605    16.061     7.372 -82.31  27
        30    427.0734    926.3930 300.0125421 +22.7812300     635.8984     72.27346      1.896     5.57     4.122395     20.40614     57.04123        12     1.177     0.835  -5.61   0
        31    496.4107   1000.9958 300.0098632 +22.8234291     352.5366     72.16276      1.533     6.29     3.374914     20.40614     38.99145         9     1.098     1.011 -83.69   0
        32    940.5069    918.0935 300.1752568 +22.9327070     2112.402     72.49437      1.933     4.76     4.162291     20.40614      115.642        28     1.355     1.304  30.79   0
        33    591.0779    914.8474 300.0673711 +22.8270804     358.7663     72.32875      1.664     4.89     4.087017     20.40614     44.98562         6     1.080     0.703  63.73   0
        34    622.8784    912.9783 300.0778865 +22.8360748      190.463     72.32875      1.347     3.79     4.045023     20.40614     39.58371         5     0.655     0.629 -85.39   0
        35    728.9788    906.7524 300.1129772 +22.8660817      774.949     72.36559      1.910     5.93     4.004058     20.40614     56.48109        14     1.354     1.009  62.35   0
        36    209.6087    986.0892 299.9254600 +22.7331365     4146.831     72.25502      8.703    32.07     66.23677     20.40614     98.43359       367     6.794     5.393  77.16  19
        37    222.4459    903.0765 299.9564517 +22.7131758     805.9802     72.31033      4.487     5.07     9.752209     20.40614     30.70033         6     1.454     0.499 -52.29   0
        38    764.0113    901.2601 300.1256846 +22.8750008     1024.408      72.2919      1.743     4.40     4.035396     20.40614     78.96069        20     1.262     1.114 -50.73   0
        39    541.1104    902.2395 300.0559066 +22.8084840     292.2595     72.31033      1.405     3.89     4.175226     20.40614     32.68804         6     0.945     0.714  54.90   0
        40    922.3944    898.9797 300.1758223 +22.9217906     272.2429     72.31033      2.477     4.79     4.108254     20.40614     29.16659         5     1.416     0.460  82.88   0
        41    786.3061    894.8001 300.1347367 +22.8798248      11413.5     72.19968      1.811     4.02     4.057829     20.40614     809.8006        48     1.423     1.396 -85.11   0
        42    170.5598    998.1262 299.9094011 +22.7248735     748.4241     72.31033      2.289     6.72     81.77621     20.40614     44.63963        10     1.527     0.831 -22.45   1
        43    977.9323    895.2143 300.1943760 +22.9373417     475.6875     72.32875      2.189     2.88     4.338444     20.40614     42.69296         5     0.856     0.664  23.34   0
        44    831.8116    895.0054 300.1488599 +22.8935162     551.0793     72.19968      1.963     6.33     4.002222     20.40614     32.69395        12     1.617     0.697  -6.50   0
        45    180.8230    998.0754 299.9126090 +22.7279381     2609.429     72.36559      4.957    13.91     80.60062     20.40614     64.69212        59     3.038     2.429 -30.19   3
        46    556.2066    991.6435 300.0315284 +22.8386725     2373.084     72.34718      1.901     4.28     3.538188     20.40614     161.2946        30     1.372     1.297 -10.77   0
        47     97.7073    886.5089 299.9230526 +22.6710061      1352.05     72.49437      7.756     5.60     7.926457     20.40614     56.05975        27     1.607     1.387  49.14   0
        48    837.7330    882.4009 300.1548056 +22.8916691     406.2409      72.2919      1.657     4.77     3.990924     20.40614     46.45259         8     1.003     0.890  -9.55   0
        49    491.0574    882.2457 300.0468205 +22.7877410     581.3119       72.384      2.109     6.69     4.344461     20.40614     46.80453         8     1.231     1.019  53.55   0
        50    795.0038    876.8832 300.1432752 +22.8772841     1401.815     72.25502      1.755     4.21     4.072158     20.40614     101.7133        24     1.342     1.142  27.71   0
        51     88.2729    877.3184 299.9231082 +22.6655399     731.8494      72.4576      3.548     6.32      6.78455     20.40614     46.68039        12     1.524     0.736  68.49   0
        52    977.6668    875.8044 300.2006054 +22.9316846     508.6702     72.31033      1.945     6.71     4.401895     20.40614     50.02341        11     1.409     0.963  47.41   0
        53    647.1216    874.0891 300.0980873 +22.8321735     502.6732      72.4576      1.878     4.54     4.051735     20.40614     34.78162         7     0.901     0.650  33.61   0
        54    832.6531    869.7631 300.1573311 +22.8865169     874.6493     72.34718      2.409     7.46      4.00398     20.40614     67.85834        20     1.957     1.011  63.31   0
        55    881.4783    861.9702 300.1750936 +22.8989025     610.2991     72.32875      1.614     5.87     3.981493     20.40614     54.89619        13     1.183     0.818  28.45   0
        56    732.7052    860.9607 300.1290300 +22.8540467     652.2751     72.32875      1.599     4.45     4.058681     20.40614     64.98991        15     1.209     0.919  43.10   0
        57    445.2498    856.7268 300.0408552 +22.7666842     4280.846     72.32875      1.730     3.73     4.516823     20.40614     411.8849        37     1.433     1.275  55.76   0
        58    744.0328    857.5346 300.1336752 +22.8564564     460.7337     72.32875      1.665     5.34     4.064661     20.40614     62.41319         8     1.224     0.824   2.22   0
        59    489.0266    845.4633 300.0581479 +22.7765733     336.7519     72.32875      1.749     5.12     4.427929     20.40614     36.68161         7     1.162     0.639 -14.80   0
        60    642.7451    986.9576 300.0600129 +22.8632684     8382.204     72.32875      1.949     4.46     3.705236     20.40614     505.6985        45     1.565     1.406  16.27   3
        61    170.5055    841.9492 299.9601738 +22.6800613     797.5884      72.4024      1.928     6.82     6.702533     20.40614      67.4305        15     1.279     1.193  79.99   0
        62    147.5946    839.2031 299.9539425 +22.6724018      1661.55     72.14429      1.919     4.51     6.475149     20.40614      138.231        29     1.402     1.332  17.06   0
        63     79.9630    840.8138 299.9323934 +22.6525770     402.8416     72.32875      1.575     4.45     5.534134     20.40614     36.32469         7     0.856     0.677  51.44   0
        64   1019.4044    828.7521 300.2289311 +22.9306598     1924.097     72.31033      1.803     4.58     4.676865     20.40614     139.3677        28     1.329     1.286 -26.97  16
        65    973.7347    827.3206 300.2151435 +22.9165740      2185.91     72.43921      1.785     4.08     4.428825     20.40614      159.062        27     1.372     1.177  57.77   0
        66     23.5758    829.1694 299.9186538 +22.6323216     221.5402     72.32875      1.276     3.42     5.376945     20.40614     27.90245         5     0.778     0.436 -68.77   0
        67    679.1266    827.0164 300.1233665 +22.8282449     385.8619     72.32875      1.498     4.65     3.986082     20.40614     36.63209         7     0.905     0.679 -32.77   0
        68    757.2512    821.4869 300.1495165 +22.8500618     678.6483     72.34718      1.761     3.98     4.121758     20.40614      69.9911        13     1.192     0.918 -28.99   0
        69    625.3983    814.9846 300.1105352 +22.8086910     4780.277     72.18122      1.606     3.38     3.952695     20.40614     438.4836        32     1.286     1.163  24.74   0
        70    114.5520    815.6150 299.9513373 +22.6557243     374.7603     72.36559      1.873     5.91      5.27542     20.40614     48.79619         9     1.364     0.721 -15.01   0
        71    427.6189    812.1580 300.0498559 +22.7486055     513.4045     72.34718      1.474     5.55     4.487576     20.40614     52.26729        11     1.132     0.767  -7.63   0
        72    175.5670    808.5750 299.9725969 +22.6720045     1329.573     72.32875      1.888     4.11     5.184825     20.40614     121.0442        25     1.377     1.233  16.87   0
        73    645.9205    807.3477 300.1194126 +22.8126469     658.1811     72.34718      1.629     4.38     3.935735     20.40614     62.19828        17     1.143     1.065  19.08   0
        74    444.1348    806.6380 300.0567921 +22.7519716     193.7835     72.31033      1.214     3.42     4.478445     20.40614     31.26513         5     0.758     0.445 -17.15   0
        75   1018.2097    795.2553 300.2394484 +22.9206741     1073.502     72.32875      1.872     5.21     4.633841     20.40614     72.19427        22     1.370     1.169  44.38  16
        76    801.4044    794.7017 300.1719909 +22.8555925     4349.166     72.21813      1.680     3.46     4.339696     20.40614     392.9771        39     1.349     1.325 -35.04   0
        77    210.0992    788.7239 299.9897886 +22.6766646     521.5089      72.4576      1.746     5.06     4.731394     20.40614     41.83049         8     1.041     0.695  32.40   0
        78    518.4367    787.1300 300.0862701 +22.7686401     648.6553     72.31033      1.543     3.87     4.334647     20.40614      67.9784        12     1.058     0.847   7.38   0
        79    164.7179    784.6669 299.9769943 +22.6618914     1037.499     72.43921      1.743     5.17     4.782356     20.40614     101.8868        18     1.479     0.965  49.71   0
        80    314.3965    777.1044 300.0260110 +22.7046022     53637.98     72.23658      1.680     3.35     4.593904     20.40614      5114.15        95     1.473     1.420  31.29   0
        81    579.7538    780.2963 300.1075906 +22.7850523     507.0754     72.34718      1.457     5.10      4.05436     20.40614     54.16449        12     1.134     0.846  37.66   0
        82    572.3185    776.2136 300.1066014 +22.7816519     1748.155     72.31033      1.647     3.34     4.101768     20.40614     163.6101        22     1.183     1.101  67.94   0
        83    985.2158    775.6209 300.2355337 +22.9051525     734.5787     72.31033      1.698     5.33     4.450371     20.40614     60.70656        18     1.262     1.174  27.99   0
        84    243.0742    775.6653 300.0042895 +22.6828052     563.6541     72.36559      1.947     4.53     4.654826     20.40614     64.15064        10     1.165     0.812  29.51   0
        85    601.2988    772.5663 300.1168152 +22.7892880      919.084     72.31033      1.645     3.32     3.933416     20.40614     89.93396        15     1.033     0.919  31.38   0
        86      1.4999    771.3703 299.9305804 +22.6091216     437.6252     57.20711      1.184     3.30     5.064303     20.40614     65.53927         7     0.944     0.487 -81.81  24
        87    612.4267    770.6481 300.1209057 +22.7920713     537.4314     72.34718      1.493     3.22     3.883609     20.40614     73.34416        12     0.996     0.842 -20.16   0
        88    931.9402    768.4542 300.2212391 +22.8871416     283.1815       72.384      1.463     4.43     4.282815     20.40614      35.3254         5     1.127     0.496   2.76   0
        89    717.6699    767.2182 300.1548187 +22.8226154     478.7949     72.34718      1.638     5.49     4.156704     20.40614     42.07836        13     1.212     0.837 -41.45   0
        90    755.5842    757.5753 300.1697722 +22.8312018     727.1459     72.34718      1.631     3.99     4.354915     20.40614     70.47874        13     1.009     1.005  35.56   0
        91    378.2217    754.9135 300.0530860 +22.7173657     2107.421     72.25502      1.652     3.43     4.493886     20.40614     241.0369        26     1.302     1.213  -1.38   0
        92    364.1326    754.3818 300.0488737 +22.7129898     31606.69     72.32875      1.592     3.08     4.502709     20.40614     3423.755        65     1.363     1.308   3.34   0
        93    253.8809    753.3726 300.0148963 +22.6796478     263.0274     72.34718      1.397     4.45     4.591265     20.40614      35.1052         5     1.177     0.478   3.76   0
        94    887.3468    750.5460 300.2131478 +22.8686422     2888.456     72.36559      1.674     3.50     4.205751     20.40614     228.3449        31     1.294     1.237  17.45   0
        95    375.1237    748.8170 300.0541031 +22.7146870     627.0745     72.32875      1.827     3.92     4.487152     20.40614     66.46828        11     1.205     0.860  38.92   0
        96    645.0578    746.3790 300.1389612 +22.7948769     979.6322     72.34718      1.522     3.46      3.85077     20.40614     99.00764        18     1.151     0.979  28.50   0
        97    481.9142    746.5459 300.0880871 +22.7460417     478.6858       72.384      1.484     2.33      4.49504     20.40614      54.3068         6     0.747     0.495   5.66   0
        98    492.3126    741.2620 300.0930424 +22.7476406     760.1562     72.42081      1.491     3.41     4.473425     20.40614     85.72552        14     1.014     0.888  70.80   0
        99     51.6415    741.6160 299.9558321 +22.6156271     493.0858     72.34718      1.599     6.11     4.591966     20.40614     51.74471        11     1.452     0.722 -34.39   0
       100    246.8622    746.4514 300.0149622 +22.6755571     743.7161       72.384      1.680     4.07     4.577446     20.40614     73.27478        15     1.213     0.909  -3.66   0
       101    893.4064    738.1575 300.2190645 +22.8668963     476.1519     72.34718      1.572     5.06     4.262241     20.40614     44.70292         9     1.095     0.660 -20.92   0
       102    394.6717    738.1635 300.0636498 +22.7174879      275.455     72.31033      1.455     3.38     4.465881     20.40614     34.54393         5     0.760     0.435 -73.53   0
       103    351.1377    736.8123 300.0505392 +22.7040510     279.3512      72.2919      1.187     3.27      4.47594     20.40614     50.27093         5     1.069     0.304  80.93   0
       104    438.1984    736.3127 300.0778012 +22.7300021     377.6288     72.25502      1.462     4.93     4.474138     20.40614     48.17568         7     1.018     0.677 -12.99   0
       105     79.4258    735.3576 299.9665018 +22.6221649     558.5774     72.36559      1.771     5.98     4.541335     20.40614     45.13417        10     1.270     0.792  14.03   0
       106    646.8772    735.5361 300.1430520 +22.7923074     378.2401     72.42081      1.519     3.71     3.852162     20.40614     38.32496         6     0.796     0.497  -4.09   0
       107    871.2493    732.8371 300.2138820 +22.8587327     385.9162     72.32875      1.671     5.68     4.241685     20.40614      34.6445         8     1.026     0.885 -44.97   0
       108    243.8931    730.2114 300.0193160 +22.6700061     446.0814     72.27346      1.696     6.12     4.566822     20.40614     55.66281         9     1.233     0.855  58.56   0
       109    567.5926    720.8306 300.1231286 +22.7643303     375.1764     72.32875      1.336     3.42     4.243461     20.40614     53.84763         8     0.926     0.611  77.87   0
       110    537.3884    719.2372 300.1142381 +22.7548228     502.7525     72.31033      1.258     2.66     4.395561     20.40614     68.93117         9     0.872     0.645 -13.13   0
       111    446.2776    718.6259 300.0860642 +22.7273451      367.037     72.32875      1.378     4.10     4.479346     20.40614     39.83095         6     0.718     0.669  76.95   0
       112    953.6929    715.8688 300.2451173 +22.8785397     4715.433      72.4576      1.685     3.70     4.357854     20.40614     344.6797        35     1.309     1.281 -54.87   0
       113    559.1711    716.8049 300.1218135 +22.7606509     1382.753     72.31033      1.428     2.92     4.309556     20.40614     163.3595        18     1.111     0.939  29.29   0
       114    478.9619    716.2513 300.0970126 +22.7364579     431.0282     72.32875      1.382     4.69      4.50083     20.40614     39.29903         7     0.896     0.697  -5.67   0
       115    942.1439    707.2261 300.2443223 +22.8725978     1706.536     72.32875      1.654     3.75     4.358777     20.40614     137.0317        23     1.241     1.125  27.25   0
       116    708.0894    702.3926 300.1728999 +22.8011219     232.6401     72.23658      1.331     3.90     4.523207     20.40614     28.88581         5     0.891     0.488  -0.77   0
       117    305.0185    700.8209 300.0478828 +22.6798947     905.1399     72.32875      1.493     4.11     4.574588     20.40614     80.81611        15     1.090     0.987 -11.02   0
       118    768.7143    698.5010 300.1930640 +22.8181607     2474.664     72.49437      1.621     4.37      4.57187     20.40614     239.1512        31     1.507     1.080   5.33   0
       119    973.2885    697.3646 300.2572453 +22.8790865     1621.475     72.31033      1.685     3.89     4.359863     20.40614     132.4171        24     1.351     1.145 -26.36   0
       120    850.7454    684.5621 300.2231741 +22.8387190     530.7631     72.32875      1.587     5.38     4.428523     20.40614      59.3891        12     1.253     0.882   6.26   0
       121    153.4438    684.2565 300.0061173 +22.6296985      714.644     72.32875      1.795     6.14     4.626997     20.40614     74.33316        13     1.230     0.965  23.33   0
       122    886.9989    675.4490 300.2374435 +22.8469541     149545.9     72.31033      1.591     3.10     4.429422     20.40614     14347.57       143     1.454     1.424 -24.10   0
       123    649.4313    679.2249 300.1621461 +22.7768961     357.8972     72.32875      1.223     4.23      4.61409     20.40614     41.78574         6     0.759     0.673 -41.80   0
       124    739.3133    675.9496 300.1912253 +22.8028756     814.7084     72.32875      1.484     2.92     4.783568     20.40614     92.54727        14     1.006     0.891 -82.78   0
       125    919.5148    668.5782 300.2498199 +22.8547136     521.1176     72.27346      1.598     4.93     4.410858     20.40614     45.59441         8     0.941     0.732  37.92   0
       126    573.2276    664.2079 300.1432821 +22.7497548      1602.27     72.32875      1.358     2.70     4.557013     20.40614     168.3641        18     1.030     0.903  24.72   0
       127    754.4760    661.5172 300.2006415 +22.8032692     9480.739     72.43921      1.508     2.85     4.782893     20.40614     1110.283        39     1.213     1.186 -28.17   0
       128    236.3117    662.9771 300.0388027 +22.6484356     317.8532     72.25502      1.784     4.53     4.684607     20.40614     25.39613         6     0.886     0.660  53.69   0
       129    255.9315    656.4290 300.0470331 +22.6524374     5008.963     72.31033      1.555     3.16     4.704798     20.40614     532.3438        31     1.205     1.178  60.76   0
       130    338.0034    654.7034 300.0731300 +22.6765419     1199.551     72.23658      1.502     3.00     4.612973     20.40614     130.5962        18     1.111     0.935   0.46   0
       131    213.8695    652.3862 300.0352626 +22.6386680     538.9995     72.34718      1.508     3.81     4.716336     20.40614     49.39574         9     0.901     0.781 -22.42   0
       132    546.3740    650.1143 300.1394957 +22.7376617     849.4183     72.31033      1.542     3.48     4.653804     20.40614     84.94054        15     1.138     0.916 -52.43   0
       133    537.9755    642.2364 300.1394390 +22.7328828     3338.437     72.34718      1.412     2.77     4.733286     20.40614     383.5571        25     1.106     1.079  71.86   0
       134    528.1454    636.0158 300.1383979 +22.7281510     1450.243      72.2919      1.461     3.22     4.802411     20.40614     146.4252        20     1.211     0.940  28.90   0
       135    921.6227    634.2469 300.2616313 +22.8454752     428.3598     72.34718      1.414     3.73     4.494474     20.40614     49.52132         9     0.911     0.724  -9.59   0
       136    191.5834    631.6935 300.0350529 +22.6260475     670.9277     72.25502      1.558     6.48     4.774026     20.40614     72.12026        12     1.305     0.903 -72.92   0
       137    205.8114    630.5197 300.0398593 +22.6299758     579.9654     72.31033      1.569     4.21     4.776911     20.40614     61.44203        13     1.120     0.850  66.32   0
       138    262.9745    627.7095 300.0585533 +22.6463041     397.5232     72.25502      1.399     3.16     4.785564     20.40614     60.74326         8     0.960     0.625   1.87   0
       139    231.4711    627.2449 300.0489042 +22.6367277     643.8481      72.2919      1.771     4.66     4.788448     20.40614     63.57289        10     1.200     0.818  71.69   0
       140    974.8891    627.2885 300.2805128 +22.8594186     486.9858     72.49437      1.528     4.61     4.361466     20.40614     52.86172         8     0.886     0.680  43.59   0
       141    552.0314    626.1062 300.1490569 +22.7324601     471.4764     72.25502      1.332     3.92     4.878124     20.40614     60.04279        10     1.014     0.722  73.63   0
       142    453.0007    625.8052 300.1183138 +22.7027046     1756.386     72.14429      1.416     2.73     4.923134     20.40614     210.3958        23     1.090     1.055  60.06   0
       143    106.8945    620.4795 300.0123617 +22.5974388     19663.58      72.4576      1.694     3.37     4.953077     20.40614      2159.29        61     1.467     1.347  22.58   0
       144     27.7953    622.3127 299.9871795 +22.5742470     659.6094     72.25502      1.819     5.45     4.963278     20.40614     59.28695        11     1.221     0.686 -29.63   0
       145    538.1027    621.2098 300.1463088 +22.7268810     1017.164     72.23658      1.408     2.75     4.922272     20.40614     118.0037        15     0.958     0.929 -28.67   0
       146    572.8269    620.4982 300.1573566 +22.7370785     388.1951     72.27346      1.442     4.79     4.972987     20.40614     39.42551         8     0.835     0.795  34.99   0
       147    592.6586    613.3813 300.1658466 +22.7409743     256.3845      72.2919      1.126     4.02     5.080893     20.40614     33.50299         5     0.963     0.480  -5.01   0
       148    291.1254    612.8121 300.0721504 +22.6504647     249.3558     72.34718      1.441     4.00     4.829225     20.40614     42.96526         6     0.904     0.506 -33.32   0
       149    621.4680    608.7166 300.1763379 +22.7482631     278.8218     72.43921      1.486     5.26     5.155084     20.40614     31.98357         7     0.968     0.806  29.09   0
       150    956.1377    607.4910 300.2810924 +22.8481138     1098.303     72.42081      1.702     4.06     4.434131     20.40614     108.2593        19     1.233     1.083 -34.24   0
       151     52.9133    604.5125 300.0007673 +22.5766712     1578.775      72.4576      2.222     5.57     5.070832     20.40614     121.6197        32     1.833     1.180  88.92   0
       152    822.7147    605.3802 300.2401559 +22.8075674     483.2165     72.25502      1.513     4.64     4.929602     20.40614     63.40361        11     1.109     0.943 -43.74   0
       153    118.7201    605.5251 300.0208952 +22.5966925     444.8798     72.43921      1.597     4.58     4.991611     20.40614     54.42622         8     1.197     0.499  -1.42   0
       154    501.1999    601.9564 300.1410691 +22.7102952     384.5986     72.31033      1.257     3.18     5.129898     20.40614     52.78323         7     0.844     0.646 -26.43   0
       155    896.2801    600.1617 300.2647971 +22.8280900     830.2571      72.2919      1.708     4.74     4.767614     20.40614     68.42462        13     1.055     0.955  17.23   0
       156    293.7268    600.7740 300.0768696 +22.6477881       347.95     72.32875      1.551     4.25     4.843899     20.40614     46.89386         6     1.085     0.474  24.91   0
       157    458.2724    594.2034 300.1302196 +22.6952077     627.6884     72.27346      1.278     2.51     5.144452     20.40614     88.89935        11     0.875     0.785  15.76   0
       158    606.0477    592.7473 300.1767201 +22.7390563     470.6628     72.36559      1.495     4.89     5.140984     20.40614      50.6348         9     1.109     0.610 -39.00   0
       159    653.3669    591.2420 300.1919539 +22.7527957     393.9998       72.384      1.226     2.28     5.130091     20.40614     61.90596         7     0.762     0.587 -56.49   0
       160    623.6436    590.8613 300.1828153 +22.7437845     642.0195     72.32875      1.409     2.95     5.138844     20.40614     84.48399        10     0.955     0.697 -20.61   0
       161    502.3336    589.6763 300.1454106 +22.7071074     856.5048     72.42081      1.517     3.02     5.171325     20.40614     97.42233        15     1.079     0.887  60.57   0
       162    688.9918    589.1815 300.2037259 +22.7628722     254.0321      72.2919      1.097     2.64     5.104195     20.40614     39.62304         5     0.779     0.484  56.55   0
       163    936.0921    585.4578 300.2819941 +22.8357789     3430.589       72.384      1.545     3.00     4.644067     20.40614     354.6445        27     1.191     1.125 -22.87   0
       164    467.8003    585.2293 300.1361009 +22.6954845     1585.394      72.2919      1.376     2.68     5.202343     20.40614     200.2469        21     1.090     0.993  43.58   0
       165    832.8422    582.6702 300.2506907 +22.8040712     254.7838      72.2919      1.330     2.45     4.957476     20.40614     44.17653         5     0.725     0.439  17.03   0
       166     29.7412    578.4750 300.0020212 +22.5622513     5072.124       72.384      1.763     3.68     5.070832     20.40614     514.5259        44     1.613     1.346  89.21   0
       167    975.8229    575.4475 300.2976432 +22.8447915     370.9811     72.34718      1.634     4.66     4.438171     20.40614     42.63851         8     1.062     0.580 -24.56   0
       168    331.1872    571.9163 300.0978981 +22.6507282     9184.907     72.27346      1.448     2.79     4.916628     20.40614     1124.087        42     1.246     1.167  31.33   0
       169    453.6080    568.9566 300.1369666 +22.6865585     9089.518     72.34718      1.403     2.69     5.217801     20.40614     1180.328        36     1.159     1.114  44.90   0
       170    219.3613    566.8369 300.0647562 +22.6157561     241.6702      72.4024      1.379     4.04     4.840369     20.40614     28.80136         6     0.745     0.641  26.28   0
       171    699.9906    565.7827 300.2147534 +22.7594413     267.2742     72.27346      1.276     3.71     5.041619     20.40614     35.54783         6     0.895     0.471  33.70   0
       172    865.3044    563.2162 300.2671339 +22.8081961     1921.026     72.25502      1.500     2.93       5.0366     20.40614     199.1666        23     1.179     1.091  56.92   0
       173    949.9808    560.5482 300.2944180 +22.8327732     12762.96     72.31033      1.548     2.94     4.683991     20.40614     1369.858        47     1.286     1.278  87.67   0
       174    514.2027    558.6143 300.1591947 +22.7017397     11485.69     72.16276      1.398     2.52     5.252487     20.40614     1437.136        37     1.144     1.098  29.57   0
       175    683.4911    554.7256 300.2132015 +22.7513230     526.2767     72.49437      1.297     2.91     5.045364     20.40614     74.34029        10     0.873     0.764   7.60   0
       176    241.5060    553.9839 300.0758182 +22.6187031     1435.101     72.25502      1.601     3.22     4.840369     20.40614     173.2239        18     1.100     1.037 -24.70   0
       177    399.8440    553.3829 300.1252857 +22.6659777     357.1592     72.34718      1.473     4.41     5.108956     20.40614     31.81977         7     0.859     0.643 -74.53   0
       178    488.1510    551.6978 300.1533274 +22.6919490     317.8636       72.384      1.388     2.85     5.346761     20.40614     58.83651         9     0.837     0.785  77.70   0
       179    445.9090    546.7213 300.1417899 +22.6778651     4408.991     72.47599      1.411     2.62     5.263495     20.40614     586.1923        29     1.127     1.094  36.86   0
       180    788.6478    546.9214 300.2485185 +22.7805643     681.7964     72.32875      1.404     3.11     4.927402     20.40614     86.17261        14     0.997     0.872  18.65   0
       181    424.0440    545.2100 300.1354733 +22.6708806     1126.063     72.34718      1.263     2.65     5.192619     20.40614     142.2395        15     0.949     0.853 -18.62   0
       182    178.1461    544.5090 300.0591877 +22.5969926     701.8814       72.384      1.501     3.91     4.840369     20.40614     92.81297        12     1.280     0.777  22.90   0
       183    865.7856    542.4050 300.2740424 +22.8023567     1666.822     72.19968      1.519     3.01     5.072186     20.40614     176.3497        22     1.172     1.016 -37.07   0
       184    562.5236    534.3431 300.1821272 +22.7092397     207701.4     72.36559      1.366     2.46     5.195074     20.40614     27188.77       196     1.448     1.368 -16.70   0
       185    386.3974    541.0180 300.1251150 +22.6583976     325.5652     72.23658      1.442     3.78     5.110828     20.40614     36.36399         6     0.819     0.644  56.02   0
       186    746.3310    539.2980 300.2377999 +22.7657041     854.7011      72.4576      1.378     2.98     4.926131     20.40614     94.03058        15     1.040     0.890 -50.43   0
       187    950.0841    536.2928 300.3023271 +22.8258291      343.769     72.51275      1.480     3.02     4.791296     20.40614     37.93145         7     0.747     0.646   0.38   0
       188    248.6892    534.1623 300.0844889 +22.6151646     3605.407     72.31033      1.514     2.90     4.840369     20.40614     393.6154        29     1.208     1.101  21.98   0
       189    814.5606    530.6094 300.2618961 +22.7836322     377.1729     72.32875      1.282     4.95     4.951513     20.40614     49.50106        12     1.195     0.814  50.91   0
       190    833.6633    529.2847 300.2682838 +22.7889695     237.1606     72.42081      1.175     4.10     4.987386     20.40614     28.59127         6     1.090     0.441   5.38   0
       191    594.0998    521.1345 300.1962531 +22.7149009     264.3183     72.42081      1.139     2.77     5.208403     20.40614     44.19141         5     0.762     0.508 -53.67   0
       192    453.1335    514.8310 300.1543940 +22.6708685     2756.382     72.32875      1.420     2.49     5.257335     20.40614     350.6327        30     1.420     1.019 -87.03   0
       193    297.6654    516.6953 300.1053976 +22.6248255     399.4008      72.4576      1.298     4.14     4.889709     20.40614     70.77647         7     1.109     0.483  45.18   0
       194    903.0558    515.0949 300.2945370 +22.8056591     319.2409       72.384      1.279     3.90     4.986218     20.40614     45.42524         6     0.916     0.476 -29.43   0
       195    864.6833    511.2790 300.2838056 +22.7930773     307.7097      72.4576      1.247     2.96     5.011985     20.40614     60.17953         7     0.874     0.565  62.05   0
       196    684.1595    510.6411 300.2277246 +22.7388530     362.1513      72.4024      1.664     3.39       5.0244     20.40614     43.52444         5     0.789     0.422 -20.07   0
       197    850.1989    501.0741 300.2826010 +22.7858079     1656.324     72.21813      1.395     2.99     4.974515     20.40614     178.5314        19     1.041     1.007  58.38   0
       198    721.4390    498.6517 300.2432376 +22.7465681     2400.559     72.31033      1.339     2.31     4.955919     20.40614     341.8922        22     1.064     1.000 -78.59   0
       199    232.4618    498.4366 300.0910398 +22.6000434     1401.518     72.34718      0.812     1.19     4.840369     20.40614     485.7443         5     0.579     0.439 -51.12   0
       200     81.2794    498.6904 300.0439451 +22.5548038     310.8444      72.4576      1.591     3.51     4.965571     20.40614     47.65992         5     0.788     0.452  -8.49   0
       201    965.6844    496.6930 300.3200533 +22.8191090     460.2004     72.51275      1.383     2.90     4.874243     20.40614     55.05514         7     0.872     0.579  58.52   3
       202    964.0683    492.1906 300.3210109 +22.8173305      842.636     72.32875      1.766     3.45      4.90521     20.40614     74.99959        12     1.024     0.934 -29.71   2
       203    930.5187    495.8512 300.3093536 +22.8083439     318.4043     72.34718      1.484     3.77     4.952844     20.40614      36.3926         7     0.875     0.620   7.42   0
       204    626.1122    495.1340 300.2146693 +22.7170153     455.3453     72.42081      1.429     3.17     5.242983     20.40614      47.9889         7     0.864     0.523  39.07   0
       205    508.5135    494.4160 300.1782676 +22.6815914      716.553     72.27346      1.275     2.51      5.22421     20.40614     95.69818        12     0.937     0.749  27.09   0
       206    978.6702    492.7484 300.3253866 +22.8218602       1331.3     72.32875      1.447     2.88     4.875857     20.40614     148.2634        17     1.036     0.975 -13.31   0
       207    850.4893    491.0400 300.2859494 +22.7830096     2237.372     72.32875      1.657     3.19      4.95877     20.40614     258.9212        26     1.488     0.978  77.69   0
       208    603.6066    487.5970 300.2101037 +22.7081101     815.9332     72.14429      2.138     6.35     5.330623     20.40614     75.93935        15     1.969     0.575  86.83   0
       209    888.6327    486.1380 300.2994391 +22.7930158     4342.701     72.32875      1.395     2.67     4.959017     20.40614     482.8951        28     1.159     1.086 -66.08   0
       210    442.3547    487.6817 300.1598521 +22.6598403     247.4946     72.31033      1.183     2.70     5.219726     20.40614     75.99839         5     0.744     0.460  -7.41   0
       211    980.4949    476.8618 300.3311138 +22.8178368     683.6482     72.42081      1.466     3.11     4.970876     20.40614     94.84647        12     1.014     0.784  22.68   0
       212    920.1052    474.4161 300.3130635 +22.7990632     269.7481     72.25502      1.185     2.98     4.953271     20.40614     41.04551         6     0.733     0.620 -57.88   0
       213    781.1479    470.4498 300.2710090 +22.7563347      237.791     72.36559      1.123     3.42     4.893051     20.40614     38.98078         5     0.820     0.413  23.10   0
       214    386.6456    469.8079 300.1483112 +22.6380177     203.0995     72.34718      1.442     3.67     5.337517     20.40614     29.36162         5     1.002     0.387  -4.59   0
       215    120.4074    476.1693 300.0634202 +22.5600672     1055.506     72.32875      1.571     3.21     4.879108     20.40614     111.9173        18     1.228     0.990 -15.28   0
       216    113.4564    466.4331 300.0644194 +22.5551886     324.4347     72.34718      1.394     2.32     4.876028     20.40614     76.92398         5     0.760     0.417 -24.92   0
       217    720.7470    460.8926 300.2552800 +22.7355065     451.2443       72.384      1.326     2.30     4.879375     20.40614     62.04189         7     0.717     0.616 -66.87   0
       218    662.2092    456.6193 300.2384213 +22.7167534     744.9706     72.31033      1.251     2.74     4.976154     20.40614     105.1262        12     0.939     0.800 -77.47   0
       219    609.8103    458.3815 300.2215208 +22.7015713     370.4946      72.2919      1.233     2.72     5.248637     20.40614     55.82732         7     0.808     0.592  34.56   0
       220    330.3206    458.5983 300.1344192 +22.6179240     257.1352     72.23658      1.551     3.91     5.302288     20.40614     39.03584         5     0.982     0.446 -13.44   0
       221    640.9855    454.3716 300.2325367 +22.7097530     294.2596     72.34718      1.809     4.55     5.068666     20.40614     29.75502         6     0.871     0.676  32.30   0
       222    976.5997    449.2137 300.3388736 +22.8087187      562.533     72.16276      1.236     2.51     4.985332     20.40614     69.92375         9     0.832     0.677  25.24   0
       223    722.9130    448.7063 300.2599110 +22.7326516     946.8961     72.51275      1.340     2.64     4.831599     20.40614     130.4001        14     0.959     0.880 -57.21   0
       224    879.9022    445.1833 300.3100107 +22.7786255     1018.094     72.25502      1.377     2.71     4.931086     20.40614     141.1599        15     1.004     0.871  14.67   0
       225    864.1121    441.5764 300.3062560 +22.7728630     604.3732     72.25502      1.277     2.87     4.917386     20.40614      87.3261         9     0.900     0.698   6.11   0
       226    844.9339    441.2431 300.3003822 +22.7670278     299.7155     72.31033      1.253     2.91     4.895361     20.40614     43.11676         7     0.907     0.769  12.69   0
       227    608.6543    439.2443 300.2273724 +22.6957248     3345.263     72.34718      1.314     2.45     5.156915     20.40614     418.4051        25     1.075     1.020  81.53   0
       228    968.7577    438.2943 300.3399708 +22.8032315     558.9387     72.34718      1.457     4.35     4.987182     20.40614      52.7197         7     0.850     0.634  45.49   0
       229    448.4544    426.3381 300.1816632 +22.6440429     350.4285       72.384      1.080     2.72     5.320817     20.40614     52.73589         6     0.810     0.514 -44.34   0
       230   1020.0549    418.5180 300.3624001 +22.8128890     1341.625      71.5508      1.668     3.18     5.028584     20.40614     135.0486        21     1.180     1.072 -73.21  16
       231    978.2273    417.0527 300.3498207 +22.7999544     967.6435     72.34718      1.511     4.20     5.003652     20.40614     108.9407        17     1.313     0.843  58.65   0
       232    891.8181    418.4356 300.3224099 +22.7744986     566.4391     72.32875      1.422     3.28     4.929273     20.40614     75.40998        10     1.122     0.568   9.08   0
       233    719.1859    413.2392 300.2702609 +22.7213393     1047.829     72.34718      1.276     2.85      4.72545     20.40614     142.7428        14     1.048     0.803  39.62   0
       234    514.7230    413.6576 300.2064154 +22.6602451     392.1619     72.36559      1.291     3.76     5.125437     20.40614     53.14861         9     0.988     0.666  80.35   0
       235    223.1453    411.7031 300.1162937 +22.5723443     707.1557     72.42081      1.452     3.67     4.791318     20.40614     67.19025        14     1.200     0.778  -2.59   0
       236    285.5773    407.0317 300.1372324 +22.5897076     3780.515     72.32875      1.404     2.57     5.464489     20.40614     513.7539        29     1.167     1.069  59.65   0
       237   1018.6853    405.7759 300.3661082 +22.8088135     4390.244      72.2919      1.554     3.10     5.067946     20.40614     453.5948        34     1.288     1.195  83.85  16
       238    232.7624    401.7580 300.1225126 +22.5723696     7699.829     72.42081      1.483     2.75     5.002708     20.40614     1007.635        39     1.245     1.152  65.77   0
       239    998.6189    396.9011 300.3627252 +22.8002575     1860.042     72.25502      1.500     2.88     5.078029     20.40614     203.7262        18     1.047     0.975  22.09   0
       240    373.5209    396.0299 300.1681712 +22.6128913     4965.032     72.32875      1.390     2.62     5.502444     20.40614     629.0491        31     1.171     1.053  47.85   0
       241    617.7789    392.8533 300.2452717 +22.6851221     18504.77     72.32875      1.350     2.46     4.977261     20.40614     2673.286        50     1.206     1.107  61.11   0
       242    635.4896    392.7990 300.2508081 +22.6904086     888.3641     72.23658      1.871     6.48     4.921489     20.40614     76.34875        17     1.548     0.803 -36.19   0
       243    464.5774    394.1951 300.1971150 +22.6396354     484.1211      72.2919      1.671     4.36     5.246117     20.40614     45.61953         6     0.964     0.562  23.33   0
       244    244.6835    391.0647 300.1296910 +22.5728699     321.0738     72.43921      1.432     4.36     5.222374     20.40614     38.35428         6     0.895     0.604   2.69   0
       245    861.4039    388.9079 300.3225053 +22.7569053     344.6804     72.21813      1.563     3.75     4.960864     20.40614     50.38822         6     0.992     0.484 -84.52   0
       246    814.8202    383.5232 300.3097234 +22.7414170     530.3748     72.32875      1.602     3.69      4.92064     20.40614     59.07355        12     1.106     0.851 -14.79   0
       247    237.9176    379.9417 300.1311955 +22.5676481     341.2914      72.4024      1.422     2.98     5.299861     20.40614     58.67519         7     1.052     0.478  51.22   0
       248    951.3633    375.4601 300.3549357 +22.7799525     859.4047     72.34718      1.461     3.33     5.070716     20.40614     110.7832        14     1.078     0.876  77.39   0
       249    488.0811    374.3925 300.2108601 +22.6409830     340.5465     72.25502      1.246     2.68     5.135219     20.40614     56.17357         5     0.829     0.497  59.67   0
       250    172.4547    372.8417 300.1131378 +22.5459953     2010.464     72.32875      1.463     2.61     5.057205     20.40614     277.0913        23     1.124     1.061  43.21   0
       251    185.2925    368.9019 300.1184087 +22.5487103      333.279     72.51275      1.971     5.45     5.161246     20.40614     28.97852         7     1.023     0.820 -14.68   0
       252    558.4645    362.3235 300.2366986 +22.6585885     6643.181     72.42081      1.286     2.28     4.992896     20.40614     886.4872        34     1.135     1.052  77.51   0
       253    972.0602    362.8338 300.3654917 +22.7825116     1251.658     72.34718      1.419     2.92     5.132908     20.40614     138.2393        18     1.240     0.869  42.57   0
       254    273.1440    361.7671 300.1480517 +22.5729807     609.4355     72.34718      1.311     3.13     5.563946     20.40614     98.19575        12     1.068     0.746  23.91   0
       255    818.4174    354.6837 300.3202035 +22.7341993     469.8932      72.2919      1.766     4.70     5.006391     20.40614      48.6358         9     1.204     0.632  -9.41   0
       256    130.9746    354.4685 300.1062002 +22.5282898     562.4796     72.31033      1.528     3.19     5.050252     20.40614     62.11874        11     0.941     0.834 -43.34   0
       257    181.0312    354.3680 300.1217990 +22.5432594     4225.923     72.32875      1.382     4.76      5.26836     20.40614     782.7814        16     1.659     0.388 -19.07   0
       258    762.6314    351.3960 300.3038744 +22.7165599     1298.223     72.31033      1.441     2.75     4.966137     20.40614     135.2567        17     1.073     0.945 -73.83   0
       259    672.0337    352.4832 300.2752791 +22.6897574     458.4781      72.2919      1.257     3.07     4.940003     20.40614     69.36449         9     0.881     0.690  65.50   0
       260    465.0333    348.5655 300.2120628 +22.6266592     6068.154      72.4024      1.327     2.37     5.219593     20.40614     871.8521        32     1.100     1.070  37.55   0
       261    857.1979    342.9473 300.3361072 +22.7424274     1316.624      72.2919      1.387     3.00     5.050178     20.40614     182.2412        18     1.066     1.005 -29.37   0
       262    954.4451    343.5246 300.3662601 +22.7716870     526.8766     72.31033      1.176     2.85     5.129681     20.40614     79.79214         8     0.948     0.602  12.61   0
       263    449.7250    337.2037 300.2109823 +22.6188100     523.2344     72.23658      1.663     2.71     5.269995     20.40614     57.33154         9     0.877     0.657  28.86   0
       264    532.1895    335.2079 300.2373116 +22.6429278     531.5079     72.19968      1.268     2.60     5.007212     20.40614     65.84024         8     0.768     0.686 -44.02   0
       265    810.5665    334.2566 300.3243829 +22.7259750     383.9969     72.34718      1.575     3.55     5.021517     20.40614      38.5087         5     0.779     0.466 -74.38   0
       266    512.9552    333.2031 300.2319711 +22.6365928     102.7901     72.32875      1.039     3.30     5.053395     20.40614     38.48819         5     0.787     0.497  63.88   0
       267    829.9771    330.9345 300.3315144 +22.7308275     572.9785     72.31033      1.302     3.09     5.036469     20.40614     92.37115         9     0.863     0.792  30.09   0
       268    352.5622    327.6081 300.1838480 +22.5869552     2670.052     72.34718      1.430     2.58     5.516818     20.40614     385.0281        25     1.209     1.006  65.85   0
       269     71.0491    324.9392 300.0971492 +22.5018532     1167.213       72.384      1.585     3.10      5.26448     20.40614     112.2309        19     1.138     1.064 -10.31   0
       270    700.0413    322.4988 300.2937372 +22.6895186     309.8099     72.31033      1.460     3.74     4.944396     20.40614      34.3507         6     0.808     0.499  -3.32   0
       271    321.9893    317.1143 300.1777373 +22.5747834     30099.04     72.27346      1.407     2.85     5.521973     20.40614     3424.061        69     1.314     1.217  62.54   0
       272    856.7378    314.8467 300.3450807 +22.7342067     1274.453     72.34718      1.348     2.41     5.059551     20.40614     193.7016        19     1.084     0.960 -68.89   0
       273     18.1943    304.7899 300.0872568 +22.4802285     4935.471     72.18122      1.676     3.12     5.501211     20.40614     637.4302        40     1.421     1.280  38.19   0
       274    771.8314    303.7688 300.3221949 +22.7056158     450.5562     72.34718      1.165     2.69     5.001045     20.40614     80.79092         7     0.861     0.555  43.19   0
       275    420.6638    302.5326 300.2131816 +22.6001438     462.1562       72.384      1.550     2.91     5.230338     20.40614     58.07356        10     1.029     0.658 -24.89   0
       276    196.4870    303.2967 300.1431739 +22.5332208     520.7578     72.51275      1.372     2.86     5.508943     20.40614     62.09572         8     0.921     0.576 -13.84   0
       277    599.2864    299.5696 300.2697759 +22.6527691     282.0373     72.32875      1.031     3.44     4.944252     20.40614     32.94384         5     0.735     0.465 -17.27   0
       278    732.4155    296.9617 300.3121138 +22.6918633     1949.947     72.34718      1.373     2.79     4.951246     20.40614     226.9373        19     1.147     0.892  58.34   0
       279    540.9835    291.7126 300.2541610 +22.6330575     383.8962     72.25502      1.452     2.70     4.954127     20.40614     50.32062         7     0.826     0.581  23.32   0
       280    947.6437    289.9224 300.3815278 +22.7542303     632.9518     72.31033      1.277     3.57     5.179844     20.40614     92.68453        11     1.033     0.842  21.82   0
       281    801.0516    283.6131 300.3378450 +22.7085615     197.5744     72.36559      1.152     3.33     5.081064     20.40614     33.95579         5     0.866     0.481  -5.90   0
       282    394.1268    281.4115 300.2117712 +22.5861275     2189.115     72.34718      1.536     3.23     5.303166     20.40614     259.8488        22     1.389     0.859  56.66   0
       283    606.4684    280.6901 300.2781377 +22.6494907     297.3033     72.47599      1.033     2.36     4.993382     20.40614     49.89171         5     0.675     0.474 -71.02   0
       284    833.3729    274.4772 300.3508886 +22.7156036     605.7991     72.32875      1.319     2.82      5.13511     20.40614     92.03638        13     1.009     0.860  58.96   0
       285    825.8184    275.6184 300.3481622 +22.7136718     214.7298     72.32875      1.169     2.58     5.124368     20.40614     42.70787         5     0.744     0.419  23.60   0
       286    715.8723    272.3442 300.3149419 +22.6798330     329.4995     72.34718      1.116     2.81     5.041262     20.40614     55.52921         7     0.812     0.584 -22.84   0
       287    684.4444    271.7231 300.3053467 +22.6702495     272.2517     72.31033      1.293     2.82      5.03772     20.40614     38.68777         5     0.701     0.481 -75.74   0
       288    470.0856    260.9161 300.2420687 +22.6029798     1226.963     72.43921      1.296     2.30      5.25108     20.40614     183.6884        14     0.944     0.834 -68.68   0
       289    981.3418    257.1863 300.4026627 +22.7548893      402.503      72.2919      1.418     4.91     5.197754     20.40614     39.77152         9     1.315     0.520  53.03   0
       290    853.8145    254.5885 300.3637155 +22.7159973     256.7667     72.25502      1.370     3.34     5.228175     20.40614     39.33055         5     0.864     0.486   6.03   0
       291    714.9211    252.8302 300.3209746 +22.6739361     2161.716     72.32875      1.348     2.45     5.143216     20.40614     332.8799        22     1.093     0.954 -89.36   0
       292    976.3020    247.3088 300.4042935 +22.7505395     3166.702     72.51275      1.509     2.72     5.197822     20.40614     430.5832        30     1.230     1.151  61.23   0
       293    523.0298    245.7610 300.2634727 +22.6144728     329.9088     72.32875      1.613     3.05     5.245095     20.40614     33.40468         5     0.785     0.493  54.65   0
       294    423.2689    236.6747 300.2353530 +22.5819953     684.3293      72.4024      1.374     2.92     5.351804     20.40614     90.53595        10     0.918     0.735  43.31   0
       295    128.9639    231.0086 300.1456197 +22.4922280     512.4632     72.32875      1.230     2.71     5.550417     20.40614     88.72369        10     0.931     0.748  -5.96   0
       296     98.2922    230.7150 300.1361784 +22.4829552     1447.163     72.49437      1.757     4.01       5.5583     20.40614     148.0463        20     1.427     0.895 -30.26   0
       297    571.5294    229.6972 300.2837904 +22.6243712     6244.481      72.4576      1.005     3.88     5.312301     20.40614     1706.877        13     1.028     0.419 -66.93   0
       298    992.0386    227.6478 300.4155814 +22.7495875     488.5809     72.36559      1.404     3.40     5.200316     20.40614     65.63905         9     0.930     0.751  -4.14   0
       299    846.1390    228.6333 300.3697392 +22.7062339      282.771     72.34718      1.319     3.37      5.35084     20.40614     36.79653         5     0.757     0.434 -19.72   0
       300    835.5889    224.5746 300.3677647 +22.7019103     240.8739     72.32875      1.108     3.39     5.369832     20.40614     43.94447         5     0.751     0.459  17.97   0
       301    182.5265    222.6934 300.1649729 +22.5058839     545.6066      72.4576      1.408     2.90     5.541547     20.40614     71.15525         8     0.835     0.729 -22.24   0
       302    977.5364    220.7927 300.4132783 +22.7432778     311.9739     72.31033      1.052     2.88     5.225504     20.40614     53.37124         5     0.722     0.471  72.72   0
       303     37.6269    219.9152 300.1208219 +22.4616780     291.2758     72.32875      1.350     3.34     5.898298     20.40614     41.92289         6     0.745     0.629 -42.82   0
       304    858.1865    216.6265 300.3773908 +22.7063831     322.0181     72.32875      1.410     2.67     5.376576     20.40614     36.73329         5     0.730     0.441 -19.95   0
       305    786.4878    214.4232 300.3557437 +22.6843011     722.6243     72.25502      1.461     2.79     5.364315     20.40614     91.63589        11     1.016     0.685  31.88   0
       306    377.1451    213.8624 300.2283917 +22.5616288     437.0981      72.4024      1.183     2.05     5.462934     20.40614     69.92062         8     0.770     0.614  53.98   0
       307     61.0430    205.6261 300.1327336 +22.4645895     241.5165     72.34718      1.754     4.89     5.785772     20.40614     38.92725         6     1.390     0.487  39.94   0
       308    884.7437    203.3965 300.3899655 +22.7105199     2125.853      72.2919      1.378     2.31     5.351601     20.40614     293.8671        23     1.171     0.993 -67.40   0
       309    303.2092    200.5623 300.2096931 +22.5356679     2153.691     72.34718      1.410     2.57     5.415662     20.40614     273.2177        21     1.068     0.997  12.67   0
       310    190.4096    200.9913 300.1744616 +22.5020100     210.4882     72.21813      1.680     4.11     5.531221     20.40614     27.87081         5     0.798     0.605  -1.09   0
       311    381.1231    195.5682 300.2355618 +22.5575616     968.4815     72.32875      1.465     2.89     5.451323     20.40614     125.3316        16     1.004     0.942  79.09   0
       312    783.4009    195.3398 300.3609692 +22.6778877     521.8787      72.2919      1.160     2.26     5.383738     20.40614     90.73737         9     0.914     0.574  -6.17   0
       313    890.6774    192.0845 300.3954847 +22.7090396     471.8396     72.43921      1.291     3.33     5.360365     20.40614     63.75386         7     0.889     0.596 -35.28   0
       314    428.1295    191.7953 300.2514191 +22.5705499     243.7984     72.27346      1.556     4.76     5.395977     20.40614     38.92455         5     1.313     0.488  62.58   0
       315    198.0075    187.8536 300.1810843 +22.5005110     626.1352     72.32875      1.371     2.83     5.520561     20.40614     96.92361        13     0.972     0.856 -81.38   0
       316    315.9972    186.7600 300.2181477 +22.5355304     331.6565     72.34718      1.617     4.41     5.405415     20.40614     36.77032         6     0.946     0.587 -89.93   0
       317    800.6545    184.3976 300.3698976 +22.6799010     614.8315     72.27346      1.259     2.59     5.404398     20.40614     91.16086        10     0.864     0.741  32.50   0
       318    735.8565    184.8023 300.3495616 +22.6606327     1624.452      72.2919      1.268     2.36     5.374265     20.40614     264.8106        17     0.997     0.891 -56.52   0
       319    219.3188    181.2374 300.1898584 +22.5049925     633.2335      72.2919      1.425     3.09     5.501806     20.40614     75.45632        13     1.097     0.791  -4.38   0
       320   1007.2669    177.4937 300.4365981 +22.7397058     892.7277     72.47599      1.480     3.27     5.590261     20.40614     111.3896        12     1.066     0.816  72.95   0
       321    509.4187    177.3317 300.2814225 +22.5907245     291.0201     72.32875      1.223     3.50     5.373897     20.40614     40.30009         7     0.824     0.679 -15.45   0
       322    740.1410    176.3703 300.3536314 +22.6594889     811.6041     72.34718      1.311     2.41      5.39412     20.40614     110.6687         9     0.848     0.650   6.20   0
       323    660.4417    175.5025 300.3290689 +22.6353939      1079.97     72.32875      1.260     2.35     5.353941     20.40614     175.2209        16     1.038     0.852 -69.24   0
       324    481.6442    171.6217 300.2746236 +22.5807694     294.7963       72.384      1.416     2.93     5.395191     20.40614     62.73303         7     0.874     0.832 -78.00   0
       325    855.8978    166.9573 300.3927823 +22.6914069     1398.607     72.32875      1.339     3.37     5.418731     20.40614     179.9792        17     1.072     0.889  88.89   0
       326    868.0001    166.2433 300.3967889 +22.6948211     829.9399     72.31033      1.413     2.92     5.418141     20.40614     116.5253        12     0.973     0.776 -67.57   0
       327    586.8754    166.8278 300.3089569 +22.6108854     919.7532     72.34718      1.361     3.22     5.402946     20.40614     125.8984        17     1.504     0.908 -39.07   0
       328    914.5215    165.2650 300.4116198 +22.7084526     224.6971     72.42081      1.136     3.42     5.398379     20.40614     38.86502         5     0.741     0.457 -69.76   0
       329    984.7684    156.5731 300.4363589 +22.7269569     1000.232     72.32875      1.401     2.50     5.614851     20.40614     153.1964        19     1.108     0.970 -22.01   0
       330      8.2488    152.7073 300.1334802 +22.4335733     555.6617     72.36559      1.745     5.96     6.177351     20.40614     48.64786        11     1.140     0.876 -16.36   0
       331    218.9310    149.4606 300.2000393 +22.4957452     697.4035     72.36559      1.457     3.47      5.48364     20.40614     76.44253        13     1.088     0.809 -19.36   0
       332     80.4739    143.9369 300.1587731 +22.4526900     2203.511     72.36559      1.610     2.98       5.7872     20.40614     280.1883        27     1.267     1.164  43.08   0
       333    903.8572    141.2231 300.4160869 +22.6983444     835.2496     72.32875      1.444     3.77     5.424948     20.40614     97.93743        12     1.118     0.884 -65.74   0
       334     30.3631    140.9538 300.1441632 +22.4368221     519.2681     72.36559      1.327     3.24     6.046084     20.40614     61.01304         9     0.948     0.650 -29.61   0
       335    237.9213    137.2971 300.2098897 +22.4979365       5696.4     72.43921      1.456     2.74     5.431643     20.40614     705.7899        34     1.272     1.114  64.01   0
       336    219.5665    138.6711 300.2037345 +22.4928350     287.6288     72.32875      1.065     3.84     5.482718     20.40614     39.55709         6     0.901     0.469   1.48   0
       337     22.0889    131.5843 300.1446285 +22.4316521     1265.869     72.25502      1.622     3.04     6.078639     20.40614     157.1232        20     1.304     1.001  45.05   0
       338    221.4116    128.3965 300.2076389 +22.4904349     594.1323     72.14429      1.459     3.84     5.481757     20.40614     57.60825         9     0.953     0.698 -37.38   0
       339    882.0979    119.1122 300.4164661 +22.6854739     3639.023     72.49437      1.401     2.93     5.441037     20.40614     499.6091        30     1.281     1.041  75.17   0
       340    985.7288    117.9400 300.4491828 +22.7161234      2639.53     72.36559      1.460     2.90     5.454548     20.40614     299.4932        28     1.248     1.090  73.20   0
       341    431.4735    114.1137 300.2776431 +22.5492180     748.1773      72.4576      1.540     3.33     5.403379     20.40614     77.68313        13     1.027     0.850  69.17   0
       342    545.7792    112.4957 300.3137666 +22.5829621     280.5444     72.23658      1.326     3.83     5.388036     20.40614     48.43998         7     0.984     0.487  -7.51   0
       343    355.9948    106.1844 300.2567161 +22.5243449     589.5375     72.25502      1.284     2.59     5.473563     20.40614     78.95805        10     0.859     0.736 -76.36   0
       344    359.8318    104.7901 300.2583623 +22.5250927     357.2952     72.32875      1.360     2.61     5.468475     20.40614     55.56649         5     0.886     0.340 -41.68   1
       345    121.7529    102.7619 300.1849529 +22.4532240     529.6408     72.36559      1.410     3.05     5.757916     20.40614     74.61342        10     0.987     0.718 -58.94   0
       346    483.0050    101.5292 300.2977687 +22.5610226     1640.496     72.27346      1.357     2.39     5.437006     20.40614     254.6008        22     1.065     0.999 -44.17   0
       347    410.9347    102.2309 300.2750999 +22.5396539     432.5235     72.32875      1.177     2.49     5.403608     20.40614     71.85992         8     0.765     0.677  35.52   0
       348    544.4023    100.7287 300.3171516 +22.5791660     326.4391     72.27346      1.126     4.00     5.393583     20.40614     50.83306         6     0.872     0.525  43.58   0
       349    226.3226     97.1355 300.2192988 +22.4829213     300.2445     72.42081      1.177     3.95     5.473861     20.40614     65.09592         6     0.794     0.596  -7.02   0
       350    771.2687     90.9249 300.3910357 +22.6442167     343.8365      72.4024      1.280     4.43     5.445198     20.40614     47.78949         7     0.982     0.648  74.50   0
       351    256.9192     81.1848 300.2339868 +22.4874979     6087.049     72.31033      1.497     2.90     5.461709     20.40614      705.619        38     1.345     1.154  62.40   0
       352    372.5482     81.3900 300.2699044 +22.5221719     178.6752     72.32875      0.888     4.06     5.435839     20.40614     33.15103         5     0.965     0.489 -83.55   0
       353    108.2005     80.6021 300.1879206 +22.4427980     654.8157     72.10734      1.462     3.53     5.938172     20.40614     80.92187        14     1.118     0.880 -12.09   0
       354    886.2930     79.2282 300.4307024 +22.6752492      388.028     72.27346      1.263     3.06     5.623897     20.40614     56.51132         7     0.905     0.514  24.22   0
       355    228.7211     75.3550 300.2271035 +22.4773796     389.3372     72.32875      1.165     2.93     5.672452     20.40614     47.95345         7     0.927     0.470   6.39   0
       356    272.3724     72.7485 300.2415288 +22.4896995     418.7628     72.34718      1.644     3.95     5.413039     20.40614     38.09476         8     0.959     0.603  20.48   0
       357     18.4878     71.5648 300.1629609 +22.4133318     445.6097     72.31033      1.579     4.17     6.100734     20.40614     48.62764         5     0.996     0.498  87.43   0
       358    503.0578     66.5933 300.3153363 +22.5569768     6268.328     72.31033      1.410     2.74     5.738355     20.40614     882.6323        35     1.250     1.104 -83.76   0
       359    388.3569     66.2731 300.2797245 +22.5225575     587.2289     72.31033      1.345     3.33     5.410907     20.40614     85.73627        13     1.025     0.857  44.10   0
       360    559.8781     61.5361 300.3346745 +22.5725243     332.4852     72.42081      1.300     2.17     5.809549     20.40614     47.25192         5     0.696     0.463  20.97   0
       361    523.9357     60.8120 300.3237127 +22.5615615     294.1815     72.27346      1.273     3.90     5.794168     20.40614     40.45926         6     0.906     0.480  31.61   0
       362    696.8043     58.4833 300.3783338 +22.6126092     273.1852     72.25502      1.202     3.55     5.724181     20.40614     40.86311         5     0.827     0.578 -46.71   0
       363    755.6548     56.5262 300.3973153 +22.6296483     868.1923     72.32875      1.688     2.67     5.476985     20.40614     96.69522        14     1.075     0.761 -63.87   0
       364    848.0253     55.3860 300.4264916 +22.6569440     435.8466     72.32875      1.243     3.60     5.754966     20.40614      70.5616         9     1.032     0.653  63.10   0
       365    196.0105     50.4238 300.2250073 +22.4604201     434.7071     72.32875      1.409     3.21     6.008768     20.40614     56.41387         8     0.973     0.572 -21.36   0
       366    631.4570     46.8229 300.3617452 +22.5897067     6215.195     72.32875      1.429     2.57     6.005237     20.40614     750.4911        36     1.229     1.085  76.92   0
       367    554.3017     49.2358 300.3369232 +22.5673178     373.4298     72.32875      1.543     3.60     5.930294     20.40614      56.1129         8     1.016     0.631  -0.25   0
       368    406.3391     45.7334 300.2919784 +22.5220337     1561.066     72.36559      1.452     2.54     5.392092     20.40614     186.7083        20     1.114     0.986  79.67   0
       369    672.6215     44.3385 300.3753796 +22.6013059     857.7678     72.31033      1.186     2.40      6.00851     20.40614     116.0635        14     0.952     0.837 -75.49   0
       370    742.4527     41.6997 300.3980036 +22.6214333     465.5406     72.42081      1.773     4.01     5.492826     20.40614       42.547         9     1.058     0.857 -23.08   0
       371    688.4171     40.3902 300.3815825 +22.6048946     644.9001     72.27346      1.413     3.07     5.917324     20.40614     83.16891         8     0.939     0.687 -44.76   0
       372    958.1954     38.0279 300.4664896 +22.6848867      433.239      72.2919      1.141     2.44     5.715608     20.40614     81.22453         8     0.813     0.619  40.46   0
       373    155.1231     37.9347 300.2163373 +22.4445882     643.4394     72.42081      1.547     4.57     6.211824     20.40614      62.1851        11     1.077     0.890 -42.15   0
       374      2.7590     38.4745 300.1687946 +22.3991141     241.2351     63.75082      1.336     4.92     6.161452     20.40614     39.92179         7     1.093     0.675 -32.38  24
       375    727.0959     35.8634 300.3951069 +22.6151610       530.89     72.42081      1.358     3.08     5.591364     20.40614     67.69592         8     0.978     0.531 -57.15   0
       376    675.6146     31.6930 300.3804101 +22.5985628     2612.294     72.25502      1.400     2.57     6.093835     20.40614     342.3484        24     1.153     1.034  65.30   0
       377    316.3728     32.3089 300.2683246 +22.4912461     448.2609     72.27346      1.526     3.75     5.388165     20.40614     51.91463        10     0.999     0.869  40.32   0
       378    690.8661     30.6718 300.3854950 +22.6028309     798.8488     72.36559      1.720     4.31     5.956237     20.40614     87.59329        17     1.585     0.901  50.70   0
       379    762.1674     23.2399 300.4101320 +22.6220172     1653.702     72.36559      1.438     2.74     5.514485     20.40614     212.9287        22     1.194     1.030 -88.01   0
       380    922.6260     21.6668 300.4606917 +22.6695428     328.5349     72.31033      1.391     5.03     6.166067     20.40614     32.31559         8     0.873     0.819 -73.01   0
       381    261.5241   1011.7665 299.9332544 +22.7560751     996.5262     72.32875      2.960    10.14     41.37737     20.40614     37.64611        12     2.229     1.287  27.92  18
       382    258.0983   1017.2502 299.9304047 +22.7566202     1463.717      72.4024      3.772    10.54     48.72934     20.40614     48.33944        22     2.483     1.246 -11.41  18
       383    314.9879   1018.8151 299.9475943 +22.7741342     581.8239     72.25502      3.692     3.42     5.786522     20.40614      25.9575         5     1.560     0.216 -27.32  16
       384     78.6870     15.5144 300.1998345 +22.4152567     544.8726      72.4576      1.362     5.04     6.225897     20.40614     52.14396        11     1.269     0.700 -30.82   0
       385    791.9728     12.8518 300.4227921 +22.6279407     441.3609     72.34718      1.382     2.48     5.520983     20.40614     61.77814         6     0.766     0.635 -11.38   0
       386    164.1708   1017.1274 299.9012330 +22.7284055     552.5117     72.32875      2.190     7.04     99.03805     20.40614     33.70832        10     1.439     0.965   7.99  16
