#   1 NUMBER                 Running object number                                     
#   2 X_IMAGE                Object position along x                                    [pixel]
#   3 Y_IMAGE                Object position along y                                    [pixel]
#   4 ALPHA_J2000            Right ascension of barycenter (J2000)                      [deg]
#   5 DELTA_J2000            Declination of barycenter (J2000)                          [deg]
#   6 FLUX_APER              Flux vector within fixed circular aperture(s)              [count]
#   7 FLUXERR_APER           RMS error vector for aperture flux(es)                     [count]
#   8 FLUX_RADIUS            Fraction-of-light radii                                    [pixel]
#   9 FWHM_IMAGE             FWHM assuming a gaussian core                              [pixel]
#  10 BACKGROUND             Background at centroid position                            [count]
#  11 THRESHOLD              Detection threshold above background                       [count]
#  12 FLUX_MAX               Peak flux above background                                 [count]
#  13 ISOAREA_IMAGE          Isophotal area above Analysis threshold                    [pixel**2]
#  14 A_IMAGE                Profile RMS along major axis                               [pixel]
#  15 B_IMAGE                Profile RMS along minor axis                               [pixel]
#  16 THETA_IMAGE            Position angle (CCW/x)                                     [deg]
#  17 FLAGS                  Extraction flags                                          
         1    507.2049     16.3913 300.3326044 +22.5432708      1001.05     72.01755      1.321     2.78     5.426193     20.35987     122.8392        13     0.961     0.826  50.62   0
         2    410.7021     14.2120 300.3032643 +22.5137617     758.1965     72.05437      1.393     3.85     5.460132     20.35987     87.94415        11     1.010     0.756  33.59   0
         3    182.2793      4.1020 300.2354702 +22.4424691     3694.414     69.12287      1.616     2.97     5.467867     20.35987     344.0762        35     1.350     1.254  60.16  24
         4    750.0252      5.0430 300.4119385 +22.6126547     623.0324     71.61118      1.395     3.35     5.770557     20.35987     76.75806        10     0.922     0.818  41.07  16
         5    604.7325      1.4554 300.3678210 +22.5681578     265.7119     56.93778      1.153     4.05     5.377582     20.35987     38.79925         7     1.151     0.407 -15.48  24
         6    230.3514    985.2399 299.9319432 +22.7385667       5786.6      72.2015      9.496    37.78     57.50267     20.35987     102.4351       501     8.311     5.863 -82.29  19
         7    261.6183   1018.7838 299.9307557 +22.7575682     1292.738     72.14636      3.901    12.71     42.82809     20.35987     42.97487        29     3.302     1.361 -60.97  19
         8    257.6709   1017.2271 299.9300344 +22.7559373     1398.103     72.14636      3.403     9.52     47.33822     20.35987      39.6455        18     2.461     1.027   1.48  19
         9    258.4935   1012.0000 299.9319907 +22.7546850     1401.661     72.03596      4.124    10.25     45.10881     20.35987     42.09277        16     3.055     0.959 -40.35  19
        10     97.6984   1012.0434 299.8819844 +22.7064453     4752.766     72.16474     15.218    93.27     86.56973     20.35987     152.5655      2016    17.891    15.239  49.34  27
        11     87.2501    944.2663 299.9007813 +22.6838769     5886.929     72.14636     30.054   118.40     21.55279     20.35987     1328.104      4940    22.412    17.353 -63.54  19
        12    210.9202    986.6720 299.9254349 +22.7331472     4175.324      72.2933      8.619    41.08     65.97719     20.35987     98.73219       427     9.250     5.062  84.21  19
        13    174.6573    979.7858 299.9163996 +22.7202914     671.7272     72.14636     11.836    11.58     65.80656     20.35987     46.72936        17     3.649     1.022  53.00   3
        14    175.2072    970.8395 299.9194803 +22.7178910      1288.95      72.2015      6.118    10.88     58.00912     20.35987      52.9886        31     2.791     1.182  71.10   3
        15    178.0795    977.3103 299.9182687 +22.7206084     1806.365      72.2933      3.553     9.88     62.69025     20.35987     64.51552        23     1.902     1.433 -66.54   3
        16    557.6584    992.0839 300.0315762 +22.8387033     2312.866     72.27495      1.889     4.66      4.31776     20.35987     142.2572        28     1.428     1.262   7.90   0
        17    508.7567    976.1587 300.0215286 +22.8194695     383.4765     72.25659      2.080     3.44     3.933658     20.35987     38.19233         5     0.992     0.344  42.35   0
        18    936.9987    971.7863 300.1564150 +22.9465725     781.4756     71.99912      2.204     8.02     4.319767     20.35987      47.7365        16     1.385     1.300 -26.32   0
        19    248.8003    974.5885 299.9411451 +22.7410470     8393.659      71.9807     12.143    41.74     35.19955     20.35987     173.5603      1110    13.617     6.022  71.10  19
        20    152.9762    956.0952 299.9173641 +22.7069920     1749.577     72.05437      6.909    13.94      46.1569     20.35987     60.85093        41     2.566     2.107  43.86   3
        21    662.4719    954.4191 300.0764771 +22.8593152     6824.397     72.18312      1.940     4.55     4.135611     20.35987     383.1109        48     1.577     1.408   8.50   0
        22    183.6031    996.9596 299.9135949 +22.7279006     2766.097     72.18312      6.425    26.11     79.13952     20.35987     73.25449       171     4.999     3.785  73.66  18
        23    814.2618    947.9430 300.1258931 +22.9029486     427.8154     72.21986      2.080     6.12     4.216485     20.35987      38.6499         8     1.356     0.777  45.32   0
        24    542.2724    947.5801 300.0412602 +22.8213172     477.4503     72.18312      1.958     4.45      4.23695     20.35987     30.75241         5     1.187     0.475  -7.13   0
        25    570.8027    945.0850 300.0509569 +22.8291549     1383.693     72.09118      1.845     4.99     4.220711     20.35987     98.63412        26     1.393     1.264  23.84   0
        26    748.7643    943.0120 300.1070789 +22.8819043     240.3333     72.14636      1.160     3.81     4.069821     20.35987     32.23096         5     1.231     0.338 -23.84   0
        27    464.7585    941.6312 300.0190605 +22.7963674     934.5422     72.18312      1.813     5.06      4.18908     20.35987     78.59135        17     1.348     0.987  46.23   0
        28    395.4686    939.4973 299.9981875 +22.7749757     6486.991      72.2933      1.864     4.13      4.55169     20.35987     464.0755        44     1.477     1.370 -23.94   0
        29      4.4465    994.1265 299.8588361 +22.6733191     2790.959     70.13258      9.282    22.26    -24.08206     20.35987      60.4182       119     4.422     3.111   6.15  27
        30    428.2765    925.9964 300.0127889 +22.7809407     648.7978     72.07278      1.872     5.43     4.543239     20.35987     55.85815        10     1.249     0.667  39.77   0
        31    745.7277    988.2476 300.0914185 +22.8939828     508.1363     72.14636      1.384     4.29     3.971893     20.35987     43.72964         7     1.352     0.387 -72.67   2
        32    941.7553    918.4811 300.1752367 +22.9326847      2312.03     72.14636      2.073     5.27     4.327741     20.35987     107.9096        35     1.513     1.469 -10.91   0
        33    439.9815    914.4517 300.0201866 +22.7811378     264.9975     72.14636      1.338     5.21     4.513464     20.35987     26.57994         6     0.959     0.799  80.95   0
        34    730.4805    907.4193 300.1129555 +22.8662042     807.8644     72.14636      2.254     7.97     4.180522     20.35987     46.78941        16     1.608     1.127  49.78   0
        35    591.6917    915.8795 300.0669612 +22.8270338     330.7242     72.27495      1.715     3.78     4.165685     20.35987     46.06685         7     1.050     0.835  31.68   0
        36    765.5717    901.5104 300.1258148 +22.8750232     1017.621     72.14636      1.847     4.92     4.245992     20.35987     69.34225        24     1.429     1.181 -49.32   0
        37    542.9249    902.1217 300.0562467 +22.8084648     460.0572     72.27495      1.612     5.66     4.221852     20.35987     43.41847         9     1.268     0.711 -54.50   0
        38    222.3457    902.1949 299.9564604 +22.7123458     717.0807     72.16474      5.592     5.06     9.033202     20.35987     31.32183         5     1.259     0.576  60.53   1
        39    787.6440    895.1803 300.1347539 +22.8798193     11345.99     72.18312      1.860     4.05      4.29196     20.35987     650.4775        54     1.489     1.452 -25.29   0
        40    978.7231    894.9479 300.1944232 +22.9369970     589.7369     72.18312      1.952     6.84     4.332618     20.35987     32.54502         9     1.166     1.126  89.06   0
        41    833.4434    895.1953 300.1490283 +22.8935465      438.758     72.18312      1.809     4.49     4.335158     20.35987     32.31967         5     1.285     0.446  56.80   0
        42    223.9300    895.5724 299.9591064 +22.7109215      855.754     72.14636      4.506     4.63     8.223969     20.35987     30.47885         5     1.001     0.609  76.94   1
        43    217.2818    895.0400 299.9572121 +22.7087743     918.2111     72.12798      7.449     7.42      8.98032     20.35987     31.61985         9     1.327     1.162 -28.18   1
        44    743.1956    987.5037 300.0908712 +22.8930103     459.5464     72.07278      1.684     4.73     3.960179     20.35987     39.69692         7     1.370     0.464  79.88   2
        45    191.2271    890.1121 299.9507126 +22.6995445     337.8762     72.14636      4.879     5.54     11.22328     20.35987     31.14875         5     1.494     0.580  70.44   0
        46     98.7781    887.1064 299.9229503 +22.6709452     1230.001     72.09118      8.062     8.01     7.599389     20.35987     61.12157        25     1.911     1.339  73.48   1
        47    492.9082    882.8408 300.0469418 +22.7879351     598.5113     72.16474      2.321     5.93     4.456187     20.35987     38.40095        12     1.241     0.796  16.34   0
        48    796.2846    877.3437 300.1432475 +22.8772855     1354.235     72.25659      1.849     4.52     4.360562     20.35987     88.86211        25     1.418     1.155  12.46   0
        49    644.3038    987.5545 300.0600385 +22.8633811     8958.814     72.18312      2.063     5.15      4.23609     20.35987     478.5651        48     1.651     1.479  16.40   3
        50    978.3918    877.4603 300.2000064 +22.9318731     350.2589     72.14636      1.735     4.86     4.377816     20.35987     31.60017         6     0.976     0.686  30.72   0
        51    648.4399    874.6645 300.0980412 +22.8322111      482.745     72.12798      1.699     6.49     4.103977     20.35987     42.54367        13     1.159     1.021  73.05   0
        52    834.0385    871.0138 300.1570769 +22.8867789     1041.777     72.18312      3.827     6.75      4.38838     20.35987     175.6543        19     1.453     1.210  50.85   0
        53    942.9712    867.7327 300.1921186 +22.9184688      410.061     72.16474      1.746     5.36     4.402823     20.35987      36.5339         8     1.078     0.753 -59.69   0
        54    882.8301    862.1144 300.1751861 +22.8988395     528.5426     72.16474      1.627     5.46     4.407004     20.35987     55.42585        11     1.182     0.711 -18.12   0
        55    734.0952    861.2246 300.1291028 +22.8540214     668.1336     72.09118      1.608     4.27     4.402555     20.35987     58.44223        10     1.029     0.814  24.26   0
        56    446.6702    857.1241 300.0409084 +22.7666906     4256.802     72.23824      1.746     3.51     4.576616     20.35987     330.6507        36     1.363     1.294 -68.85   0
        57    745.0217    858.1918 300.1334945 +22.8564245     572.5833     72.16474      1.760     4.71     4.415891     20.35987     57.77332        11     1.340     0.609  16.63   0
        58    225.1886    846.1366 299.9755699 +22.6971174     519.5731     72.12798      1.811     4.76     5.250237     20.35987     52.07281         9     1.347     0.756 -58.05   0
        59    489.8286    845.4782 300.0581303 +22.7762872     272.2203     72.16474      1.419     3.94     4.521166     20.35987     42.07072         5     0.909     0.490  -7.34   0
        60    649.5911    984.8416 300.0625683 +22.8641874      9494.01     72.16474      2.002     4.87     4.217852     20.35987     515.0763        51     1.587     1.460  46.26   3
        61    172.1396    842.9684 299.9601044 +22.6802955     929.6964      72.2015      2.117     3.96     6.510337     20.35987     75.07591        14     1.202     0.827 -37.42   0
        62    148.9051    839.8932 299.9538805 +22.6724433     1687.234     72.32999      1.982     4.25     6.357749     20.35987     155.3112        27     1.379     1.352  23.44   0
        63     81.3240    841.4077 299.9323819 +22.6526024     416.7487     72.12798      1.304     3.98     5.159058     20.35987     40.61018         6     0.856     0.530 -45.12   0
        64   1020.8010    829.3082 300.2288957 +22.9307369     2156.621     69.25707      2.024     4.71     4.500362     20.35987     133.1844        32     1.435     1.394 -60.91  16
        65     24.4697    829.5406 299.9185719 +22.6321400      445.345      72.2015      1.562     3.78      4.86066     20.35987     41.35822         6     0.914     0.448 -74.04   0
        66    975.0805    827.7147 300.2151471 +22.9165869     2258.488     72.32999      1.936     4.82       4.4962     20.35987     126.4627        33     1.446     1.398 -12.48   0
        67    681.3587    827.0461 300.1237794 +22.8284026     544.0103     72.21986      1.855     4.07      4.27358     20.35987     38.30626         7     1.304     0.363 -75.49   0
        68    758.7499    821.5394 300.1496894 +22.8500106     649.3162     72.21986      1.650     4.96     4.415867     20.35987     52.05339        15     1.177     0.943  10.02   0
        69    180.9965    821.2805 299.9699079 +22.6767308     490.2596     72.07278      1.889     6.06      5.44619     20.35987     46.84196         9     1.285     0.804 -86.25   0
        70    626.6552    815.4105 300.1105178 +22.8086676     4709.333     72.16474      1.660     3.46     4.343915     20.35987      420.608        37     1.348     1.217  18.52   0
        71    116.3941    815.9576 299.9515544 +22.6558245     415.1525      72.2015      1.708     5.43     5.013595     20.35987     34.04483         8     1.421     0.584  27.35   0
        72    428.9566    812.2832 300.0499712 +22.7485092     506.2437     72.12798      1.469     3.80     4.517919     20.35987     52.56784        10     0.997     0.824 -14.48   0
        73    177.0428    809.0895 299.9726410 +22.6720476     1326.305     72.18312      1.872     4.19     4.996659     20.35987     104.8678        22     1.301     1.178 -45.60   0
        74    647.3538    808.1555 300.1193247 +22.8127873     670.5129      72.2015      1.566     3.27     4.360006     20.35987     81.56361        13     1.042     0.907  30.07   0
        75    445.3219    807.0032 300.0567815 +22.7519000     214.8741     72.07278      1.441     4.04     4.511397     20.35987     33.58888         7     0.724     0.710  83.44   0
        76    196.9468    806.2025 299.9797681 +22.6771896     302.1241     72.14636      1.499     2.89     4.855503     20.35987     42.12608         5     0.773     0.495  61.42   0
        77    563.1479    799.0388 300.0960575 +22.7849330     295.9131     72.14636      1.723     4.43     4.416346     20.35987      26.4591         6     0.818     0.683 -86.42   0
        78    802.7944    795.1568 300.1719960 +22.8556275     4318.885     72.16474      1.734     3.71     4.435349     20.35987     298.1295        39     1.393     1.303  31.66   0
        79   1019.5974    795.4464 300.2395279 +22.9206444      1222.33     72.16474      1.917     5.86     4.567283     20.35987     73.17799        20     1.271     1.220  21.20  16
        80    520.0091    787.7839 300.0862813 +22.7687715      700.517     72.09118      1.744     3.71     4.447859     20.35987     62.95168        13     1.040     0.908 -89.56   0
        81      4.8412   1014.2985 299.8523973 +22.6792197     3400.664     71.18388     17.240    68.31    -31.02976     20.35987     72.54648       715    18.246     7.096 -84.65  26
        82    166.1366    785.4185 299.9769434 +22.6619854     1101.918     72.12798      1.903     4.11     4.609835     20.35987     91.50227        18     1.236     0.980   6.37   0
        83    581.5310    781.2725 300.1075575 +22.7853412     571.7674     72.23824      1.861     6.15     4.416346     20.35987     45.42094        12     1.256     0.912  -3.73   0
        84    315.7212    777.5313 300.0260287 +22.7045832     53734.34     72.27495      1.734     3.57     4.710196     20.35987     4575.521        96     1.519     1.444  27.09   0
        85    573.6080    776.7072 300.1065735 +22.7816557      1615.95     72.07278      1.607     3.70     4.416346     20.35987     145.7768        20     1.191     1.011  14.11   0
        86    986.6161    776.4053 300.2354252 +22.9052958      779.107     72.09118      1.627     4.66     4.568774     20.35987     67.43509        16     1.229     1.026 -24.60   0
        87    244.5621    775.9653 300.0044027 +22.6827948     484.4865     72.23824      1.695     3.63     4.725272     20.35987     48.29828         7     0.873     0.665 -13.95   0
        88    602.5620    772.6473 300.1169117 +22.7891671     915.5638      72.2015      1.688     3.85     4.416346     20.35987     90.91572        19     1.208     1.091 -76.72   0
        89      2.7841    771.8495 299.9305839 +22.6090885     640.1247     63.75207      1.745     4.65     4.503548     20.35987     61.16859        12     1.230     0.807  75.55  24
        90    613.5278    771.2597 300.1207786 +22.7920549       559.03      72.2015      1.409     2.85     4.413052     20.35987     69.52648        11     0.903     0.819  82.34   0
        91    932.9362    769.3401 300.2209739 +22.8871902     358.4205      72.2015      1.597     3.23     4.611014     20.35987     32.23531         5     0.868     0.470   4.43   0
        92    718.6370    767.2995 300.1548168 +22.8224124     454.9727     72.16474      1.772     4.39     4.457496     20.35987     46.42394         8     1.011     0.764  57.93   0
        93    756.6191    757.6101 300.1698044 +22.8310082     851.6694     72.12798      1.617     5.07     4.516216     20.35987     89.92849        15     1.241     0.900  54.92   0
        94    365.4950    754.8256 300.0488944 +22.7129903     31806.91     72.09118      1.653     3.29     4.518301     20.35987     3262.735        73     1.419     1.372  10.37   0
        95    376.6927    749.4343 300.0541310 +22.7147999     731.9367     72.10958      2.335     4.25     4.503527     20.35987     52.92894        12     1.080     0.843  89.70   2
        96    888.6880    750.9612 300.2131450 +22.8686570     2833.297     72.14636      1.751     3.73     4.680057     20.35987     197.8716        30     1.303     1.249   5.70   0
        97    646.4086    747.0267 300.1388977 +22.7949481     913.9525     72.16474      1.576     3.44     4.391969     20.35987     84.14664        12     1.005     0.812  34.65   0
        98    482.9992    746.5579 300.0881556 +22.7458417     430.6998     72.16474      1.756     5.94     4.474482     20.35987      39.4492         9     1.045     0.950 -52.13   0
        99    248.1018    746.4382 300.0150988 +22.6753834     799.2903     72.16474      1.861     4.11     4.593974     20.35987      71.2937        19     1.328     1.098  23.30   0
       100     53.0497    742.8539 299.9556242 +22.6158523     456.4283      72.2015      2.015     4.57     4.462776     20.35987     50.87044         6     1.183     0.501 -33.85   0
       101    493.6388    741.5294 300.0931023 +22.7475870     733.9339     72.12798      1.496     3.50      4.46216     20.35987     91.87509        17     1.097     1.007 -66.79   0
       102    894.8878    738.7440 300.2190490 +22.8670029      506.027     72.21986      1.571     5.24       4.7171     20.35987     49.77916        15     1.158     1.073  36.68   0
       103    395.6538    738.1128 300.0637108 +22.7172345     331.2499      72.2015      1.594     5.02     4.482667     20.35987     37.04654         5     0.985     0.724 -19.02   0
       104    648.1705    735.6946 300.1431292 +22.7922213     314.5354     72.07278      1.426     5.37     4.398595     20.35987     30.67204         8     1.221     0.667 -67.29   0
       105    439.2910    736.5439 300.0778028 +22.7298653     500.4427     72.21986      1.626     5.47     4.471318     20.35987     43.92709        10     1.101     0.767  18.33   0
       106    379.7692    755.4052 300.0531481 +22.7174362     2065.471     72.14636      1.654     3.46     4.507365     20.35987     178.4271        25     1.270     1.104  78.75   2
       107     81.1950    736.3311 299.9664905 +22.6224242     487.9135     72.12798      1.528     3.76     4.464828     20.35987     49.03028         6     1.176     0.345 -48.93   0
       108    872.6168    733.8886 300.2136808 +22.8589378     414.5103     72.09118      1.631     5.41      4.77136     20.35987     38.14293         9     1.137     0.727 -45.44   0
       109    245.6346    730.8712 300.0193897 +22.6701762     636.7965     72.16474      2.151     6.04     4.578841     20.35987     42.07657        12     1.314     0.934  25.74   0
       110    569.2958    721.5402 300.1231579 +22.7645213     259.4489     72.23824      1.096     3.77     4.485957     20.35987     57.72126         6     0.919     0.456 -89.59   0
       111    538.7099    719.8785 300.1141721 +22.7548782     638.3636      72.2933      1.533     3.45       4.4525     20.35987     62.15762        11     0.979     0.832  85.29   0
       112    448.5338    718.4659 300.0865540 +22.7274455     247.3588     72.21986      1.415     3.75     4.530195     20.35987     30.84472         6     0.941     0.428 -72.21   0
       113    955.0923    716.2773 300.2451303 +22.8785744     4628.127     72.31165      1.735     3.40     4.709679     20.35987     379.7197        41     1.415     1.333   2.79   0
       114    560.4084    717.1044 300.1218312 +22.7605841     1358.848     72.05437      1.602     3.31     4.488636     20.35987     130.1894        22     1.149     1.133 -33.59   0
       115    480.2788    717.1502 300.0968644 +22.7365827     278.6264     72.16474      1.364     3.95     4.493504     20.35987     49.00094         6     0.971     0.573 -28.12   0
       116    642.5266    712.4232 300.1489325 +22.7838460     278.7556     72.21986      1.536     4.87     4.596569     20.35987      37.2785         7     0.995     0.676 -40.57   0
       117    943.6234    707.6695 300.2443493 +22.8726662     1681.738     72.18312      1.747     4.06     4.774328     20.35987     123.4909        24     1.274     1.188  49.16   0
       118    306.3304    701.4219 300.0478380 +22.6799233     852.6375     72.16474      1.618     3.70     4.753996     20.35987     90.88775        16     1.075     1.020  36.39   0
       119    769.9280    698.9584 300.1930120 +22.8181442     2542.479     72.14636      1.607     3.20     4.843002     20.35987     242.1674        28     1.315     1.122  -4.28   0
       120    974.5427    697.7902 300.2572059 +22.8790843     1720.342     72.12798      1.843     4.00     4.701358     20.35987     120.2728        27     1.358     1.216   8.60   0
       121    852.0042    685.0571 300.2231193 +22.8387317     652.8895     72.12798      1.880     4.57     5.060503     20.35987      60.6198        11     1.195     0.867  67.36   0
       122    155.0148    685.0610 300.0060939 +22.6298553     559.8093     72.12798      1.732     4.52     4.714243     20.35987      70.8689         9     1.075     0.804  73.97   0
       123    888.3514    675.8988 300.2374305 +22.8469841     149434.4      72.2015      1.633     3.35     5.083293     20.35987     12023.07       153     1.489     1.475 -16.89   0
       124    651.2668    679.5892 300.1623235 +22.7770331     369.5446     72.16474      1.513     4.25     4.835943     20.35987     39.08983         7     0.919     0.590 -56.33   0
       125    740.4390    676.1912 300.1912167 +22.8027697     701.2222     72.18312      1.525     4.46     4.986247     20.35987     75.76696        14     1.189     0.898 -20.76   0
       126    921.2271    668.8386 300.2499789 +22.8547989     426.7118     72.18312      1.474     2.83     5.016432     20.35987     49.07728         6     0.890     0.557  18.82   0
       127    574.5596    664.7173 300.1432587 +22.7497788      1618.72     72.12798      1.482     2.76      4.81374     20.35987     188.5131        19     1.096     0.979 -15.49   0
       128    755.7749    661.9752 300.2006154 +22.8032785     9435.501     72.12798      1.499     3.13     5.024551     20.35987     925.0002        38     1.240     1.169   6.15   0
       129    257.2016    656.8193 300.0470447 +22.6523914     4917.865     72.09118      1.626     3.18     4.823305     20.35987      535.304        37     1.354     1.218  26.47   0
       130    339.3763    655.0008 300.0731996 +22.6765046     1143.288     72.10958      1.470     3.14     4.789042     20.35987     127.9356        15     1.069     0.867  26.10   0
       131    214.7005    652.6213 300.0351901 +22.6384435     480.9077     72.09118      1.548     5.38     4.687474     20.35987     53.14856        13     1.294     0.889 -10.66   0
       132    547.5195    650.6105 300.1394194 +22.7376249     898.7015     72.14636      1.644     3.02     4.820747     20.35987     101.1637        14     1.067     0.808  22.43   0
       133    539.3068    642.7070 300.1394290 +22.7328940     3284.268     72.32999      1.480     2.87     4.897437     20.35987     384.3176        27     1.156     1.093 -27.73   0
       134     64.8486    639.6856 299.9928057 +22.5897941     310.0694     72.14636      1.953     5.57     4.704958     20.35987     29.65424         6     1.171     0.748 -32.47   0
       135    529.3408    636.3316 300.1383962 +22.7280767     1395.097     72.18312      1.547     3.39      4.95637     20.35987     147.3308        19     1.232     0.969  53.73   0
       136    922.8054    634.2585 300.2617047 +22.8453314     416.7887     72.12798      1.480     5.30     5.011337     20.35987     49.88429         9     1.252     0.634  48.85   0
       137    192.6797    632.6782 300.0348198 +22.6261171     657.9089      72.2933      1.609     4.06     4.600944     20.35987     70.36337        15     1.237     0.984  -3.32   0
       138    440.2269    633.5187 300.1115641 +22.7005645     146.0918     72.14636      1.225     4.86     4.819757     20.35987     38.04202         6     0.946     0.707  16.82   0
       139    206.8992    631.0850 300.0397590 +22.6299233     652.7236     72.32999      1.597     4.21      4.58995     20.35987     60.89331        11     1.018     0.765 -13.60   0
       140     93.1488    630.1865 300.0046864 +22.5955559     461.2394      72.2015      2.074     4.68     4.568985     20.35987     28.76847         7     1.222     0.508  53.13   0
       141    976.4051    627.9361 300.2804807 +22.8595604     433.6239     72.14636      1.839     4.72     4.582587     20.35987     39.76854         7     1.057     0.687 -49.28   0
       142    264.0740    628.0408 300.0585297 +22.6461911      295.262     72.14636      1.189     3.83     4.783637     20.35987      45.6429         5     0.828     0.507 -19.82   0
       143    232.9186    627.9254 300.0488770 +22.6368175     644.3823     72.27495      1.812     3.59     4.616661     20.35987     62.20776        11     1.007     0.769 -42.40   0
       144    553.6151    626.5493 300.1491333 +22.7325402     453.3776     72.18312      1.489     4.91     5.100088     20.35987      51.2816         8     0.998     0.765 -32.19   0
       145    454.4035    626.0869 300.1183912 +22.7026788     1836.029     72.09118      1.471     3.03     4.868468     20.35987     176.7206        22     1.148     0.985  -5.57   0
       146    487.9969    625.3978 300.1290737 +22.7125478     159.5988     71.94383      1.175     4.14     4.948321     20.35987     38.72594         6     1.111     0.440  74.24   0
       147    108.1957    620.9388 300.0123668 +22.5974147     19987.27     72.14636      1.735     3.35     4.531833     20.35987     2038.241        62     1.523     1.371  16.00   0
       148     28.9530    622.8390 299.9871224 +22.5741946     530.4153      72.2015      1.631     4.34     5.002393     20.35987      85.8744        15     1.338     0.884   9.93   0
       149    539.1121    621.6451 300.1462094 +22.7267862     1099.234     72.14636      1.538     2.96     5.148897     20.35987     110.5149        17     1.154     0.927 -11.89   0
       150    575.1904    620.9551 300.1576701 +22.7373975     397.0727     72.18312      1.970     2.26     5.125033     20.35987     58.29344         5     0.755     0.475  60.06   2
       151    292.5428    612.8314 300.0723251 +22.6503594     377.2626     72.18312      1.432     2.39     4.888265     20.35987     42.86759         5     0.709     0.447  66.48   0
       152    957.1802    607.7827 300.2810284 +22.8480111     1171.689     72.14636      1.638     3.89     4.707745     20.35987     92.05061        22     1.257     1.114  11.79   0
       153     54.1417    605.0375 300.0007307 +22.5766415     1478.192     72.16474      2.073     4.86     4.901312     20.35987     114.8784        27     1.576     1.144  80.88   0
       154    824.0550    606.0768 300.2400599 +22.8076630     474.8267      72.2015      1.398     3.35     5.083138     20.35987      59.9307        11     1.027     0.697  -1.08   0
       155    120.1880    606.1705 300.0208906 +22.5967728     518.7242     72.16474      2.081     5.17     4.512289     20.35987     45.19984         8     1.188     0.762   4.58   0
       156    502.3740    602.0913 300.1411197 +22.7101620     484.7225     72.10958      1.698     4.79     5.147644     20.35987     48.41618        10     1.127     0.879  39.39   0
       157    897.7311    600.4679 300.2648587 +22.8281106      998.125     72.21986      2.388     5.81     5.059165     20.35987     84.53214        17     1.425     1.041  18.25   2
       158    295.2981    601.1832 300.0769651 +22.6478413      325.468     72.09118      1.368     4.42     4.809263     20.35987     36.29333         7     0.907     0.612 -55.53   0
       159    641.5679    598.4151 300.1856687 +22.7508073     252.3585     72.14636      1.438     4.19     5.022825     20.35987     49.09348         7     0.944     0.797  31.58   0
       160    459.3799    594.3820 300.1302372 +22.6950648     765.0368     72.16474      1.653     2.88     4.976452     20.35987     75.32626        12     0.934     0.840   4.65   0
       161    607.5448    593.0875 300.1767992 +22.7390848     547.4932      72.2015      1.677     4.34     5.077534     20.35987     50.10497         9     0.996     0.654  36.88   0
       162    654.6210    591.5666 300.1919599 +22.7527496     392.4147     72.16474      1.228     2.57     4.991152     20.35987     64.93282         9     0.846     0.738  61.06   0
       163    624.8386    591.1823 300.1828055 +22.7437179     664.9243     72.18312      1.589     3.12     5.044118     20.35987     75.37977        11     0.974     0.805 -69.20   0
       164    503.3216    590.3613 300.1452242 +22.7070768     945.3229     72.14636      1.543     3.76     5.156026     20.35987     92.37927        14     1.081     0.915   2.62   0
       165    937.3698    585.9190 300.2819488 +22.8357948     3312.134     72.16474      1.567     3.34     4.916126     20.35987     323.4395        33     1.284     1.218 -82.49   0
       166    469.1227    585.5831 300.1361278 +22.6954572     1846.501     72.16474      1.452     2.60     5.017695     20.35987     220.6216        25     1.163     1.093 -75.38   0
       167    834.1764    583.3622 300.2505931 +22.8041648     410.4753     72.18312      1.729     3.45     5.045863     20.35987     40.16653         5     0.790     0.436  17.96   0
       168    445.0473    581.3486 300.1300078 +22.6870268     280.3378      72.2015      1.177     3.34     4.933875     20.35987     43.42023         5     0.764     0.424  20.06   0
       169     31.0320    579.0672 300.0019825 +22.5622590     5118.689     72.16474      1.814     3.64     5.093833     20.35987      481.949        42     1.445     1.354   4.14   0
       170    498.1072    576.4918 300.1481045 +22.7015306     345.7078     72.32999      1.167     4.14     5.138873     20.35987     47.56865         8     0.981     0.630 -39.78   0
       171    976.4449    575.8209 300.2974196 +22.8445883     322.7558     72.21986      1.453     4.51     4.720806     20.35987     41.05418         6     0.887     0.688  -0.34   0
       172    589.4546    575.1461 300.1769903 +22.7285111     242.3557      72.2015      1.386     4.22      5.15831     20.35987     28.69339         5     0.925     0.548 -42.31   0
       173    332.4751    572.3014 300.0979105 +22.6506923     9262.147      72.2933      1.497     2.86     4.665427     20.35987     1040.703        44     1.279     1.190  18.22   0
       174   1007.0035    572.0110 300.3081925 +22.8526395     2817.519      71.9807      0.420   -33.24     4.610544     20.35987     2453.722         9     0.317     0.274  85.00   0
       175    454.9628    569.4434 300.1369605 +22.6865787     8997.863     72.23824      1.431     2.71      4.97744     20.35987     1051.216        40     1.194     1.160   9.23   0
       176    866.6398    563.5336 300.2671561 +22.8081846     1786.522     72.12798      1.495     2.90     5.047286     20.35987     210.6527        21     1.146     1.022  62.30   0
       177    951.3172    560.9676 300.2944030 +22.8327960     12565.61     72.14636      1.590     3.17      4.88338     20.35987     1082.566        50     1.351     1.291  -3.40   0
       178    515.5458    559.0330 300.1592038 +22.7017404     11655.39     72.18312      1.421     2.69     5.223931     20.35987     1421.131        47     1.241     1.200  47.33   0
       179    684.9858    555.0294 300.2132866 +22.7513455     507.8961     72.18312      1.205     2.94      4.85954     20.35987     80.93855        10     0.936     0.681  57.58   0
       180    243.0191    554.3967 300.0758955 +22.6187382     1478.723     72.12798      1.580     3.20     4.318356     20.35987     137.5691        18     1.126     0.940  30.29   0
       181    489.4926    552.2476 300.1532946 +22.6919857     511.1646     72.18312      1.592     3.84     5.106841     20.35987     49.50433         9     1.061     0.594  26.92   0
       182    447.2258    547.1854 300.1417791 +22.6778676     4446.576     72.18312      1.434     2.74     4.966546     20.35987     450.2295        30     1.150     1.121  35.52   0
       183    790.0800    547.5963 300.2484581 +22.7806807     878.3575     72.07278      1.451     2.71     4.899928     20.35987       106.22        14     0.929     0.892  53.21   0
       184    425.4769    545.5983 300.1355242 +22.6708949     1328.536     72.07278      1.383     2.40      4.89882     20.35987      176.867        20     1.131     0.972   1.46   0
       185    867.0533    542.9302 300.2739753 +22.8023853     1468.208     72.18312      1.516     3.53      5.00221     20.35987     144.6723        20     1.201     1.051 -30.95   0
       186    179.7464    544.7688 300.0593447 +22.5970067     788.2672     72.18312      1.678     4.46     4.267703     20.35987     72.47169        14     1.051     1.006 -75.34   0
       187    113.8471    542.8807 300.0394699 +22.5767075     234.6354     72.16474      0.926     3.11     4.767969     20.35987     54.74655         5     1.067     0.317 -80.38   0
       188    563.8671    534.7873 300.1821249 +22.7092511     207135.9     72.14636      1.433     2.64     5.261796     20.35987     26808.79       188     1.470     1.373  -8.99   0
       189    747.4106    540.0016 300.2376222 +22.7657211     867.3174      71.9807      1.467     2.52     4.848936     20.35987      114.726        15     0.960     0.935  -1.59   0
       190    387.6723    540.8785 300.1252899 +22.6582110     344.9978     72.27495      1.408     3.81     4.839474     20.35987     55.78381         9     1.147     0.551 -49.01   0
       191    951.9020    536.9554 300.3023826 +22.8260666     322.8932     72.16474      1.269     3.61      4.90565     20.35987     37.08053         5     0.965     0.389  28.72   0
       192    249.8766    534.6207 300.0844491 +22.6151161     3562.756     72.16474      1.570     2.95     4.275939     20.35987     384.5208        28     1.214     1.140 -12.23   0
       193    332.8551    533.8108 300.1105261 +22.6397537     341.0796     72.16474      2.290     5.19     4.635976     20.35987     34.18389         6     1.100     0.691  -4.54   0
       194    815.8701    530.9109 300.2619168 +22.7836064      511.542     72.32999      1.826     4.46     4.931752     20.35987     43.59997         9     0.959     0.702  72.12   0
       195    454.5171    515.0713 300.1544753 +22.6708278     2811.536      72.2933      1.459     2.60     5.001082     20.35987     316.8459        31     1.239     1.132 -88.59   2
       196    298.6748    517.2634 300.1052637 +22.6247583     355.1287      72.2015      1.449     4.17     4.373628     20.35987      53.3457         8     0.945     0.605  37.08   0
       197    866.0943    511.7099 300.2838129 +22.7931224     368.7874     72.34832      1.354     3.84      5.00338     20.35987     43.31099         6     0.991     0.427   9.87   0
       198    685.3659    511.0048 300.2276989 +22.7388075     246.7019     72.16474      1.114     4.47     4.880477     20.35987      35.9288         6     0.841     0.676 -58.90   0
       199    772.0084    503.9968 300.2569797 +22.7627373     292.0052      71.9807      1.259     3.68     4.905276     20.35987     37.36663         5     0.698     0.557   0.01   0
       200    851.5242    501.4357 300.2826045 +22.7858068     1664.305     72.12798      1.462     2.66     4.987228     20.35987     205.3417        20     1.087     1.018  79.97   0
       201    722.6688    499.0272 300.2432131 +22.7465354     2540.132     72.14636      1.409     2.63     4.897958     20.35987     309.2467        25     1.097     1.063  41.30   0
       202     81.9905    499.6060 300.0436161 +22.5547355     394.2709     72.01755      1.748     4.00     4.906857     20.35987     38.54819         6     1.029     0.444 -12.72   0
       203    966.7118    496.9287 300.3199988 +22.8189890     438.3244     72.32999      1.531     2.85     4.766228     20.35987     61.99374         8     0.943     0.581  22.66   0
       204    931.9670    496.1560 300.3094096 +22.8083679     318.3684      72.2015      1.426     2.79      4.89768     20.35987     45.71718         6     0.884     0.451 -37.28   0
       205    627.3101    495.7250 300.2145696 +22.7170298     387.4886     72.32999      1.243     2.40     5.094025     20.35987     50.04615         6     0.713     0.545 -40.66   0
       206    510.0240    494.7530 300.1783536 +22.6816201     694.9761     72.18312      1.415     3.87     5.158496     20.35987     115.7629        14     1.150     0.854 -27.54   0
       207    980.1720    493.1036 300.3254405 +22.8219173     1231.182     72.09118      1.478     3.46     4.700132     20.35987      114.022        20     1.193     0.989 -33.76   0
       208    965.6611    492.4027 300.3211403 +22.8173730     732.5034     72.14636      1.627     3.34     4.754141     20.35987     69.11673        11     1.034     0.723  28.06   0
       209    851.5461    491.5676 300.2858149 +22.7829762     2132.376     72.18312      1.653     3.72     4.987769     20.35987      220.776        27     1.370     1.116  65.54   0
       210    605.0856    489.7157 300.2095965 +22.7086468      572.645     72.27495      1.515     4.27     5.183248     20.35987     60.27024        11     1.140     0.763 -40.02   0
       211    390.8898    489.4527 300.1429861 +22.6444052     325.1725      72.2015      1.244     3.20      4.81904     20.35987     39.76904         7     0.855     0.595 -78.23   0
       212    889.8231    486.5905 300.2993686 +22.7930029     4300.357     72.16474      1.463     2.81     4.966538     20.35987     504.5344        30     1.177     1.113  71.46   0
       213    443.6236    488.3551 300.1597567 +22.6598898     352.2919      72.2015      1.153     3.05     4.969879     20.35987     56.68155         7     0.803     0.678 -23.17   0
       214    530.9058    486.4568 300.1875494 +22.6854917     272.3071     72.21986      1.297     4.85     5.186713     20.35987     46.06527         8     1.150     0.739 -41.67   0
       215    604.7869    485.5937 300.2108416 +22.7073728     479.0141     72.03596      1.460     3.35     5.189942     20.35987     44.71011         5     0.725     0.467  15.87   0
       216    551.0110    482.6924 300.1950328 +22.6904324     462.9156     72.10958      1.442     3.75     5.202468     20.35987     53.41273         7     0.867     0.676 -60.96   0
       217    981.3788    477.1003 300.3310122 +22.8176760     842.7698     72.10958      1.714     4.20     4.643854     20.35987     67.45873        17     1.290     0.953  24.58   0
       218    121.7660    476.7981 300.0633829 +22.5601133     944.5351     72.12798      1.572     3.64     4.641385     20.35987     109.3308        16     1.195     0.917 -11.98   0
       219    782.8158    470.9010 300.2710926 +22.7564589     316.3016     72.07278      1.406     2.39     4.924178     20.35987     46.44285         6     0.731     0.546  50.20   0
       220    168.5828    468.9974 300.0804700 +22.5719080     321.4647     72.07278      1.629     4.07     4.370913     20.35987     29.12088         5     0.770     0.616   0.41   0
       221    114.5459    466.9473 300.0643356 +22.5551210     407.6209      72.2015      1.677     5.51     4.734612     20.35987     46.61334         9     1.018     0.840  35.55   0
       222    977.9444    466.3284 300.3334372 +22.8135501     326.2311     72.18312      1.300     4.81     4.658934     20.35987     38.30367         8     1.011     0.649  -5.05   0
       223    722.0378    461.0047 300.2553589 +22.7354173     483.8079      72.2015      1.321     3.43     4.915986     20.35987     51.17112         9     0.802     0.760  37.29   0
       224    663.1476    457.2309 300.2382310 +22.7166991     771.0681     72.18312      1.353     3.62     4.917099     20.35987     100.5616        14     1.102     0.954 -31.20   0
       225    610.7377    458.5111 300.2214862 +22.7013722     314.1168     72.25659      1.239     4.02      5.10602     20.35987     53.25269         6     1.091     0.424  32.30   0
       226    642.3657    455.0170 300.2324741 +22.7098396     278.9134     72.16474      1.545     4.57     4.984767     20.35987     32.19444         5     1.031     0.577 -18.27   0
       227    977.8187    449.9362 300.3387188 +22.8087979      523.384     72.12798      1.342     2.07     4.658934     20.35987     84.18127         6     0.723     0.512  28.38   0
       228    724.0822    449.3193 300.2597889 +22.7326704     685.5065     72.31165      1.292     2.68     4.912817     20.35987     96.00956        14     0.987     0.838   0.44   0
       229    881.4737    445.4460 300.3101198 +22.7786727     928.5127     72.16474      1.404     3.00     5.011038     20.35987     117.4852        18     1.090     0.993  59.33   0
       230    839.7288    443.4097 300.2977616 +22.7655922     339.3419     72.14636      1.332     3.45     5.000002     20.35987     33.54506         5     0.744     0.463 -16.59   0
       231    865.7173    441.9011 300.3063561 +22.7729373     596.3774     72.32999      1.277     3.03     5.047502     20.35987     80.31303        10     0.975     0.737  30.44   0
       232    845.7145    442.2365 300.3000090 +22.7670466     347.2813     72.14636      1.403     2.86     5.012478     20.35987     38.81607         6     0.712     0.636  36.90   0
       233    609.9376    439.6857 300.2273469 +22.6957224     3250.583      72.2933      1.378     2.42     5.036635     20.35987     463.7981        29     1.157     1.086 -54.53   0
       234    970.1897    438.9116 300.3399166 +22.8033441     480.7829     72.10958      1.419     2.50     4.699149     20.35987     63.07306         8     0.814     0.605  52.24   0
       235     86.3577    430.9214 300.0672652 +22.5363289     402.5984     72.14636      1.622     4.11     4.917606     20.35987      34.0694         6     0.777     0.621  44.69   0
       236    449.8643    426.9808 300.1816194 +22.6441277     362.7141     72.12798      1.296     2.51     5.048411     20.35987     59.26771         7     0.717     0.667 -65.96   0
       237    381.6310    427.1490 300.1603259 +22.6237349     203.4856      72.2015      1.023     3.24     4.875188     20.35987     36.27467         6     0.733     0.629  28.63   0
       238   1021.2809    419.0228 300.3623149 +22.8129109     1262.115     67.62909      1.531     3.41     4.442782     20.35987     111.2082        19     1.114     1.058  16.98  24
       239    893.3463    418.9011 300.3224382 +22.7745925     514.6541     72.25659      1.465     3.40     5.001448     20.35987     85.30072        12     1.212     0.701  49.15   0
       240    979.5732    417.6444 300.3497468 +22.8000348     994.8174     72.18312      1.581     3.08      4.64888     20.35987     118.5679        16     1.046     0.989 -51.62   0
       241    720.5243    413.7100 300.2702367 +22.7213685     1103.376     72.32999      1.460     2.56     4.890964     20.35987     164.6644        17     1.047     0.973  35.20   0
       242    516.3408    414.1361 300.2064859 +22.6603490     409.7274      72.2015      1.218     2.35     5.142469     20.35987     71.09908         9     0.847     0.660 -15.95   0
       243    224.3904    411.8104 300.1163831 +22.5722140      728.307     72.05437      1.591     3.59     4.778934     20.35987     83.71612        13     1.112     0.771 -14.96   0
       244    286.8429    407.4442 300.1372259 +22.5896746     3764.802     72.23824      1.456     2.70     4.736223     20.35987     452.6681        27     1.171     1.058  30.93   0
       245   1020.0607    406.1837 300.3661008 +22.8088524     4409.989     71.31419      1.574     2.98      4.45048     20.35987     485.4767        34     1.251     1.232  12.89  16
       246    234.0313    402.2247 300.1224920 +22.5723503     7662.694     72.16474      1.487     2.86      4.78601     20.35987      757.923        40     1.263     1.208  36.52   0
       247    612.2573    401.7488 300.2403810 +22.6855137     322.5056     72.21986      1.342     4.17     4.913157     20.35987     56.47248         6     0.950     0.633  59.42   0
       248    999.9907    397.2959 300.3627217 +22.8002907     1825.203     72.09118      1.519     2.93     4.547641     20.35987     205.0056        26     1.194     1.178 -56.32   0
       249    374.9041    396.4437 300.1681961 +22.6128990     4874.013     72.18312      1.401     2.57     4.882744     20.35987     648.9656        36     1.205     1.144  11.69   0
       250    619.0995    393.2964 300.2452553 +22.6851330     18738.62     72.36665      1.361     2.49      4.88519     20.35987         2476        52     1.227     1.138  67.18   0
       251    636.6505    393.3658 300.2507010 +22.6904082     921.1815     72.18312      1.981     5.80       4.8609     20.35987     69.52091        17     1.536     0.897 -39.60   0
       252    862.5731    389.8218 300.3222766 +22.7570198     223.2487     72.14636      1.463     3.36     5.061565     20.35987     40.32238         5     0.942     0.372  -5.86   0
       253    816.1251    384.0255 300.3096728 +22.7414513     358.4558     72.18312      1.268     3.78     4.923791     20.35987     43.54612         5     0.827     0.495  27.25   0
       254    239.0255    380.1619 300.1312039 +22.5675107     376.4427     72.18312      1.819     4.84     4.811833     20.35987     37.94771         9     1.166     0.569 -24.68   0
       255    952.8148    375.7515 300.3549922 +22.7799778     840.5599      72.2015      1.596     4.66     4.756374     20.35987     84.24461        17     1.309     1.075 -33.73   0
       256    489.6210    375.2624 300.2107794 +22.6411756     377.0728     72.12798      1.466     3.78     5.122724     20.35987     48.74792         6     0.876     0.467  50.32   0
       257    173.7121    373.1415 300.1131699 +22.5459221     2207.778     72.23824      1.628     3.39     4.902314     20.35987     212.3576        28     1.350     1.089  36.40   0
       258    662.5120    374.5599 300.2648612 +22.6927455     379.0479     72.14636      1.404     2.81     4.819743     20.35987     58.69719         6     0.857     0.483   9.25   0
       259    973.6495    363.2319 300.3655552 +22.7826103     1232.386      72.2015      1.490     3.67     4.657625     20.35987     128.6959        22     1.297     1.100 -41.35   0
       260    559.7626    362.7295 300.2366892 +22.6585795     6624.637     72.12798      1.379     2.41     4.977009     20.35987     950.8084        38     1.201     1.100  73.36   0
       261    274.5320    362.3210 300.1480366 +22.5730255     781.2298     72.27495      1.680     2.75     4.784566     20.35987     72.35913         9     0.921     0.636 -10.10   0
       262    132.2173    355.2633 300.1060686 +22.5283526     518.2507     72.14636      1.444     3.46      4.94861     20.35987     59.97515        10     0.986     0.781 -44.71   0
       263    819.7161    354.5818 300.3203459 +22.7340589     332.5056     72.12798      1.525     4.02     4.904767     20.35987     52.29058         6     1.054     0.439 -54.72   0
       264    673.7780    353.3639 300.2752488 +22.6900249     420.0045     72.18312      1.424     3.20     4.811736     20.35987     63.72758         9     0.968     0.632 -50.02   0
       265    764.0585    351.8160 300.3038901 +22.7166051     1246.344     72.14636      1.511     2.90     4.800675     20.35987     127.3886        18     1.099     0.963  79.89   0
       266    466.3904    348.9077 300.2120967 +22.6266447     6135.105     72.10958      1.390     2.62     5.085755     20.35987      747.413        34     1.141     1.102  59.04   0
       267    955.7625    343.8611 300.3662590 +22.7716861     636.8383     72.18312      1.469     3.16     4.728127     20.35987     79.47665        11     1.014     0.706  41.14   0
       268    858.3829    343.5236 300.3359918 +22.7424505     1400.586     72.16474      1.408     2.65     5.017323     20.35987     177.7309        18     1.065     0.961  75.45   0
       269    451.0912    337.7931 300.2109393 +22.6188687     380.1565     72.07278      1.337     2.47     5.033155     20.35987     73.86729         9     0.830     0.779  17.25   0
       270    533.8293    335.3138 300.2375065 +22.6429341     464.5084     72.16474      1.325     3.62     4.973381     20.35987     58.03953         8     0.938     0.627  31.10   0
       271    831.1285    330.9575 300.3315691 +22.7306802     464.2034     72.12798      1.310     2.91     4.914297     20.35987     72.21112        10     0.896     0.753 -68.80   0
       272    112.7088    330.3243 300.1080938 +22.5153447     289.3559     72.31165      1.167     3.69     4.936723     20.35987     40.15741         5     0.877     0.447 -45.64   0
       273    354.0155    328.0545 300.1838829 +22.5869938      2606.42     72.16474      1.416     2.83     4.746966     20.35987      294.966        26     1.156     1.086  79.79   0
       274     72.3382    325.5042 300.0971086 +22.5018613     1075.006     72.25659      1.683     3.55      4.91458     20.35987      95.5218        15     1.032     0.968  42.02   0
       275    702.0034    322.8410 300.2939472 +22.6896988     214.1998     72.18312      1.291     2.94     4.758482     20.35987     46.13835         6     0.842     0.754  69.15   0
       276    301.2042    322.0116 300.1694106 +22.5694373    -147.0632     72.01755      1.154     4.35     4.746643     20.35987     29.49913         5     1.057     0.510 -50.08   0
       277     16.2921    321.1117 300.0811159 +22.4838015     326.2661     72.32999      1.759     4.76      4.88069     20.35987     38.02614         5     1.135     0.567 -20.19   0
       278    323.2819    317.4875 300.1777472 +22.5747515     29864.24      72.2933      1.462     2.62     4.741074     20.35987     3680.749        70     1.342     1.239  56.79   0
       279    858.0740    315.3136 300.3450471 +22.7342442     1391.342      72.2933      1.375     2.56     4.981852     20.35987     186.4484        20     1.087     0.962  49.74   0
       280    813.8612    313.1039 300.3319763 +22.7203779     262.5642     72.25659      1.305     5.41     4.840312     20.35987     51.03915         8     1.365     0.605 -37.43   0
       281     19.5774    305.2494 300.0872816 +22.4802321     5012.332     72.16474      1.707     3.41     4.907229     20.35987     508.5973        40     1.480     1.244  34.73   0
       282    773.1190    304.2239 300.3221538 +22.7056310     560.6848     72.12798      1.327     3.15     4.740437     20.35987     70.36659        11     1.024     0.745  50.14   0
       283    897.3566    303.9542 300.3609842 +22.7427310     372.2626      72.2015      1.581     4.68     4.915062     20.35987     28.34045         5     1.057     0.588 -16.71   0
       284    197.8801    303.6061 300.1432415 +22.5331941     507.9402     72.09118      1.682     3.10     4.862924     20.35987      53.2892         8     0.864     0.669 -51.12   0
       285    421.5796    303.1800 300.2129799 +22.6000835     449.6851     72.16474      1.273     2.75     4.837337     20.35987     78.30241        10     0.931     0.723  12.11   0
       286    733.6927    297.4321 300.3120663 +22.6918778     1956.206     72.09118      1.358     2.46     4.668058     20.35987     289.0127        20     1.080     0.951  69.59   0
       287    542.2084    292.2480 300.2540855 +22.6330646     384.7718     72.18312      1.260     3.60     4.855859     20.35987     44.34366         7     0.946     0.635  -6.75   0
       288    948.7808    290.5517 300.3813741 +22.7542607      648.388     72.18312      1.585     4.02     4.757086     20.35987     68.58186        11     0.973     0.870 -59.41   0
       289    395.5574    281.9388 300.2117694 +22.5861860     2142.827     72.14636      1.587     3.34     4.819289     20.35987     226.1864        27     1.407     1.017  63.84   0
       290    608.0898    281.1194 300.2782165 +22.6495899     229.0544     72.27495      1.058     2.85     4.817307     20.35987     50.46986         6     0.740     0.549  26.51   0
       291    834.8450    274.8872 300.3509156 +22.7156652     638.0683     72.14636      1.406     3.64     4.833806     20.35987     86.12055        12     1.027     0.861 -82.19   0
       292    734.2463    272.2656 300.3204015 +22.6848063     312.9395     72.16474      1.877     4.86     4.655375     20.35987     37.15853         7     0.975     0.687  11.21   0
       293    716.7402    272.5353 300.3148574 +22.6796444     358.5235      72.2015      1.307     3.04     4.697697     20.35987     66.24902         6     0.981     0.531  29.86   0
       294    185.7543    262.9991 300.1526401 +22.5178973     364.4724     72.16474      1.579     4.68       4.9024     20.35987     32.78845         8     1.025     0.607 -20.26   0
       295    471.4000    261.2589 300.2420860 +22.6029552     1153.359     72.10958      1.395     2.64     4.845101     20.35987     132.8613        17     1.055     1.046  -9.06   0
       296    278.7653    261.7183 300.1819846 +22.5453938     318.5918     72.12798      1.328     2.94      4.79681     20.35987     48.06152         6     0.729     0.616 -49.64   0
       297     44.5905    261.5653 300.1092214 +22.4751857     299.5727     72.14636      1.328     4.13     5.158776     20.35987     41.77655         5     0.994     0.490 -87.29   0
       298    982.6568    257.6111 300.4026280 +22.7549167     378.6888     72.12798      1.252     3.56     4.636572     20.35987     47.73261         7     0.967     0.596  23.68   0
       299    716.2329    253.3509 300.3209210 +22.6739756     2163.459      72.2015      1.325     2.30     4.714643     20.35987     308.3103        24     1.103     1.012  53.56   0
       300    854.8505    254.3166 300.3638260 +22.7157339     362.8291     72.18312      1.274     3.15     4.798983     20.35987     45.51183         6     0.768     0.568 -45.58   0
       301    977.6565    247.6633 300.4042939 +22.7505585     3300.061     72.21986      1.584     3.17      4.65508     20.35987      351.711        28     1.249     1.142 -77.01   0
       302    523.5956    246.0132 300.2632832 +22.6142013     199.7928     72.01755      1.400     4.56     4.827865     20.35987     27.83572         5     1.054     0.559  13.07   0
       303    424.8387    237.0142 300.2354525 +22.5820443      591.583     72.18312      1.329     2.74     5.230672     20.35987     79.64374        10     0.913     0.739  45.46   0
       304    129.9882    231.3148 300.1455748 +22.4920880     608.9791     72.10958      1.462     3.13     5.003684     20.35987     69.12305        11     0.987     0.782  -7.20   0
       305     99.4643    231.1369 300.1361434 +22.4828910      1466.79      72.2015      1.833     3.80     5.047288     20.35987     118.2614        23     1.281     1.130 -15.23   0
       306    993.1355    228.4964 300.4153398 +22.7496730     473.7999     72.27495      1.376     2.72     4.640518     20.35987     58.66653         7     0.890     0.598  25.96   0
       307    837.1995    225.1579 300.3677771 +22.7020645     400.9315     72.18312      1.608     3.46      4.67216     20.35987     43.18796         6     0.780     0.528  54.75   0
       308    183.5402    223.0737 300.1648977 +22.5057652      559.498      72.2015      1.324     4.57     4.964849     20.35987     66.61721         8     1.118     0.557  49.65   0
       309    978.6923    220.6306 300.4133833 +22.7430895     473.7946     72.10958      2.086     6.15     4.675495     20.35987     39.10641        10     1.199     0.886  76.50   0
       310     39.1345    219.9480 300.1210201 +22.4615996     335.8837      72.2015      1.668     5.56     5.521441     20.35987     39.62653         7     1.013     0.860  86.71   0
       311    859.5918    217.1784 300.3773479 +22.7064684     390.0014     72.16474      1.346     2.56     4.684033     20.35987     53.90209         6     0.699     0.614  44.85   0
       312    787.7570    214.6279 300.3557744 +22.6842419     751.8672     72.18312      1.392     2.47     4.654222     20.35987     100.7234        12     0.933     0.773 -60.09   0
       313    378.0364    214.3352 300.2282383 +22.5615110     450.5849     72.16474      1.412     2.72     5.424628     20.35987     54.73563         7     0.816     0.580  28.81   0
       314    878.5245    207.8273 300.3862850 +22.7094421     251.7105     72.14636      1.468     5.12     4.728252     20.35987     46.29498         6     1.216     0.610  50.49   0
       315    886.0613    203.7739 300.3899502 +22.7105305     2072.106     72.16474      1.439     2.90      4.76002     20.35987      258.362        24     1.124     1.057  40.96   0
       316    304.5617    200.8595 300.2097435 +22.5356340     2101.618     72.18312      1.432     2.77     5.144285     20.35987     271.5487        23     1.189     0.976  68.55   0
       317    382.2686    195.9314 300.2355223 +22.5574891     1116.942     72.21986      1.551     3.48     5.432638     20.35987     105.2045        20     1.169     1.057  38.93   0
       318    784.7535    195.4000 300.3610724 +22.6778122     621.4905     72.14636      1.525     4.11     4.657136     20.35987      81.5107        12     1.144     0.822 -48.37   0
       319    134.2506    196.5786 300.1581619 +22.4833875     389.3422     72.16474      1.486     3.39     5.206833     20.35987      39.6692         5     0.802     0.416 -22.85   0
       320    891.6263    192.7222 300.3952693 +22.7090154     474.6345     72.16474      1.534     2.66     4.819705     20.35987     58.41933         7     0.887     0.517  30.83   0
       321    428.8214    192.3768 300.2511651 +22.5704070     331.6451     72.16474      1.896     4.31     5.383175     20.35987      27.6481         5     0.982     0.538  49.46   0
       322    199.2297    188.3521 300.1810337 +22.5004904     724.8862     72.18312      1.401     3.83     5.189559     20.35987      90.6109        15     1.170     0.904   9.31   0
       323    316.7944    187.9256 300.2177427 +22.5355808      355.799     72.09118      1.790     4.59     5.268619     20.35987     37.75274         6     0.942     0.635 -48.42   0
       324     51.2960    186.4347 300.1356644 +22.4556191     332.2905     72.16474      1.749     4.84     5.509665     20.35987     35.86671         6     0.949     0.699 -19.26   0
       325    737.1351    185.2406 300.3495212 +22.6606415     1721.028     72.12798      1.326     2.51     4.673347     20.35987     200.9299        19     1.080     0.909  66.29   0
       326    802.0734    185.1428 300.3697982 +22.6800436     581.7355      72.2015      1.281     2.27     4.654091     20.35987     82.38159         8     0.782     0.644 -32.91   0
       327    220.3111    181.3646 300.1898553 +22.5047977     611.4079     72.14636      1.567     3.83     5.223865     20.35987     62.03439        14     1.073     0.939  29.46   0
       328   1008.5486    177.8183 300.4365817 +22.7396979     954.3958     72.14636      1.627     3.13     4.606775     20.35987     101.3731        16     1.132     0.914  37.88   0
       329    741.1876    176.2839 300.3536882 +22.6592777     930.9332     72.10958      1.807     4.06     4.676776     20.35987      88.1254        13     1.195     0.804  82.11   0
       330    661.6384    175.7689 300.3290621 +22.6353248      1388.73     72.16474      1.378     2.29     4.921099     20.35987     217.5421        20     1.136     0.962  85.47   0
       331    510.6245    177.6370 300.2814136 +22.5906609     284.9239     72.18312      1.117     3.34     5.080406     20.35987     51.71216         6     0.908     0.423  16.53   0
       332    483.1658    172.6414 300.2744826 +22.5810044       379.03     72.21986      1.716     3.28     5.272311     20.35987     40.00978         7     0.851     0.593  29.19   0
       333    857.2653    167.4319 300.3927512 +22.6914598     1513.909     72.16474      1.458     3.20     4.682485     20.35987     178.6196        16     1.179     0.807  57.82   0
       334    587.7800    167.5178 300.3087251 +22.6108468     1003.892     72.12798      1.343     3.21     4.919929     20.35987     133.9718        16     1.092     0.925  33.01   0
       335    869.1848    166.5591 300.3967517 +22.6947743     954.6263     72.18312      1.610     2.76     4.719887     20.35987     120.0012        13     0.983     0.822  76.60   0
       336    915.6381    165.8193 300.4114817 +22.7084566     285.8633     72.18312      1.432     3.44      5.11749     20.35987     29.77473         5     0.767     0.447  73.52   0
       337    986.0885    156.9345 300.4363430 +22.7269703     1095.173     72.27495      1.511     3.78     4.826501     20.35987     104.1899        17     1.311     0.826  34.74   0
       338      9.8993    153.6009 300.1334430 +22.4337849     532.4464     71.99912      1.520     3.05     5.547735     20.35987      58.2547         9     0.869     0.730 -16.10   0
       339    219.9111    149.4562 300.2000742 +22.4955098     677.6935      72.2015      1.601     3.39     5.366164     20.35987     98.19113        16     1.231     0.923  61.87   0
       340     81.8325    144.2978 300.1588140 +22.4526654     2245.312     72.14636      1.697     3.47     5.567686     20.35987     219.2197        29     1.376     1.195  51.86   0
       341    905.1345    141.7865 300.4159958 +22.6983991     722.8828     72.10958      1.403     2.80     5.129169     20.35987     107.2653        14     0.991     0.869   9.24   0
       342     31.6842    141.0998 300.1442645 +22.4367220     511.2872     72.32999      1.863     4.70     5.531887     20.35987     43.52764        10     1.003     0.872 -40.99   0
       343    239.3216    137.7670 300.2099002 +22.4979645     5600.688     72.14636      1.483     2.62     5.367431     20.35987     714.2693        37     1.266     1.159  54.79   0
       344     23.4491    132.1215 300.1446152 +22.4316758      1367.77     72.16474      1.670     4.36     5.507573     20.35987     131.3216        24     1.412     1.086 -39.48   0
       345    222.6452    128.6320 300.2076740 +22.4903450     651.8048     72.21986      1.574     3.81     5.376378     20.35987     80.53609        16     1.142     1.092  22.20   0
       346    883.4203    119.5636 300.4164257 +22.6855092     3588.315     72.18312      1.528     2.64     5.144784     20.35987     435.9008        32     1.251     1.185 -17.56   0
       347    987.0984    118.3653 300.4491604 +22.7161711     2879.632     72.14636      1.595     2.80     5.145158     20.35987      327.355        32     1.338     1.181  78.40   0
       348    432.9250    114.9096 300.2775535 +22.5493663     610.8654     72.32999      1.277     2.81     5.475296     20.35987     90.50926         9     0.846     0.725  65.37   0
       349    185.8263    115.3165 300.2005389 +22.4754912     408.4594     72.14636      1.678     3.58     5.460708     20.35987      47.8746         9     1.083     0.599 -15.97   0
       350    357.0234    106.4128 300.2566822 +22.5241996     585.5136     72.16474      1.332     4.19     5.424531     20.35987     72.79744        10     1.063     0.674  62.75   0
       351    361.0710    105.1682 300.2583452 +22.5250537     386.6255     72.16474      1.288     2.75     5.428332     20.35987     60.29692         7     0.888     0.568 -17.86   1
       352    123.1727    103.8567 300.1847716 +22.4534319     514.5598     72.16474      1.466     4.17     5.578807     20.35987      64.8931        10     1.251     0.583 -13.15   0
       353    484.1226    101.8525 300.2977253 +22.5609383     1890.983      72.2015      1.496     2.67     5.468034     20.35987     211.6465        23     1.160     0.998  74.81   0
       354     21.5218    102.9627 300.1534661 +22.4227230     286.6729     72.14636      1.427     4.70     5.448173     20.35987     32.59834         5     1.006     0.623  -1.64   0
       355    411.9596    102.4041 300.2750800 +22.5394947     415.5111     72.18312      1.389     2.72     5.476891     20.35987     55.58136         7     0.815     0.587  26.22   0
       356    546.0215    101.3985 300.3171490 +22.5793348     378.0029     72.09118      1.329     3.51     5.373025     20.35987     47.67556         7     0.856     0.576 -28.70   0
       357    227.9758     97.5128 300.2194172 +22.4829989     473.8602     72.12798      1.403     2.25     5.391343     20.35987     53.14863         6     0.742     0.499   3.30   0
       358    772.4596     91.2732 300.3909922 +22.6441776     431.0587      72.2015      1.565     4.68     5.285562     20.35987     43.77316         8     0.934     0.665  26.38   0
       359    918.0208     86.3140 300.4379952 +22.6862884     341.1536     72.09118      1.474     4.39     5.342499     20.35987     39.65346         6     0.828     0.675  16.00   0
       360    669.7728     83.4125 300.3615322 +22.6111944     281.3655     72.16474      1.121     3.45     5.318222     20.35987     29.20334         5     0.764     0.449 -19.04   0
       361    258.2628     81.6126 300.2339906 +22.4874993      5824.29     72.14636      1.533     2.75     5.376992     20.35987     709.4755        34     1.300     1.135  59.11   0
       362    764.2886     82.6610 300.3912358 +22.6392553     314.7974     72.23824      1.300     3.14     5.340482     20.35987     48.26412         5     0.723     0.465  -9.26   0
       363    109.2222     80.7012 300.1879382 +22.4426004     781.8984     72.09118      1.887     5.82     5.581422     20.35987     73.34367        12     1.384     0.971  73.81   0
       364    229.7090     75.7766 300.2269998 +22.4772714     381.7984     72.09118      1.399     3.66     5.387645     20.35987     34.38599         5     0.940     0.409  -5.23   0
       365     19.9815     72.0171 300.1630149 +22.4133724      434.951     72.14636      1.544     4.43       5.4383     20.35987     44.81864         8     1.018     0.673  15.38   0
       366    504.3297     66.9921 300.3153144 +22.5569624     6254.455     72.14636      1.439     2.67     5.444802     20.35987     677.8688        37     1.294     1.107  64.95   0
       367    389.9564     67.0350 300.2796925 +22.5227392      592.022     72.21986      1.326     2.76     5.430017     20.35987     79.18697        10     0.891     0.704 -13.24   0
       368    561.6256     61.9891 300.3347802 +22.5726710     286.1176     72.16474      1.395     3.22     5.366336     20.35987     46.10271         5     0.973     0.409 -24.17   0
       369    698.0632     58.1274 300.3785425 +22.6123847     336.0092      72.2015      1.403     2.64     5.399056     20.35987     41.70439         5     0.615     0.589 -74.31   0
       370    849.1968     56.1754 300.4262942 +22.6570312      476.438     72.12798      1.232     2.89     5.499511     20.35987     71.76571         9     0.911     0.666  77.89   0
       371    756.8836     56.7533 300.3973226 +22.6295858     894.7654     72.14636      1.774     3.29     5.490243     20.35987     78.91254        13     1.004     0.877  39.47   0
       372    197.3775     50.5303 300.2251244 +22.4603337     456.6754     72.18312      1.512     3.29     5.451924     20.35987     52.03625        10     0.960     0.797  20.37   0
       373    556.1216     49.9017 300.3369824 +22.5675475     305.0436     72.27495      1.223     3.18     5.364571     20.35987     43.97542         5     0.771     0.517  31.73   0
       374    632.7636     47.1516 300.3617498 +22.5896901     6280.383     72.18312      1.419     2.65     5.345607     20.35987     807.1085        35     1.234     1.137  85.44   0
       375    407.6786     46.2302 300.2919499 +22.5220629     1421.452     72.16474      1.508     2.92      5.45852     20.35987     160.5531        23     1.203     1.098  88.00   0
       376    674.1061     44.9675 300.3753402 +22.6014312     811.4615     72.10958      1.294     2.65     5.350471     20.35987     120.1831        10     0.945     0.666  -5.69   0
       377    689.9290     40.4262 300.3817428 +22.6048585      564.955     72.16474      1.343     2.48     5.413441     20.35987     95.92142        10     0.888     0.729  76.93   0
       378    959.5639     38.3755 300.4664908 +22.6849122     538.1867     72.18312      1.490     4.47      5.41714     20.35987     71.20848        12     1.293     0.839  10.41   0
       379    156.2408     38.7058 300.2161633 +22.4446161     678.1686     72.18312      1.619     3.17     5.527639     20.35987     78.47475        13     1.126     0.749  -1.05   0
       380    728.0514     36.3644 300.3949411 +22.6150944     460.0328     72.18312      1.270     3.66     5.570929     20.35987     61.37405         7     0.863     0.556  26.50   0
       381    691.9583     31.0558 300.3854113 +22.6027697      850.473     72.12798      1.583     4.81     5.439083     20.35987     92.07832        16     1.424     0.814  47.39   0
       382    676.9361     32.1338 300.3803803 +22.5985857     2633.932     72.21986      1.394     2.62     5.373867     20.35987     326.4575        26     1.150     1.066 -83.95   0
       383    317.9708     33.1032 300.2682842 +22.4914336     362.2911     72.09118      1.236     2.52     5.288861     20.35987     57.43364         8     0.832     0.654   1.24   0
       384    763.4111     23.6557 300.4100815 +22.6220146     1654.794     72.16474      1.501     2.68     5.671959     20.35987     195.6411        21     1.207     0.979  82.37   0
       385    923.7888     22.2232 300.4605623 +22.6695654      218.529     72.16474      1.428     4.01       5.4614     20.35987     34.03884         5     0.989     0.466 -45.25   0
       386    166.0597   1017.4022 299.9014908 +22.7284979     616.1857     72.14636      2.403     8.58     99.10224     20.35987     38.13993        10     1.546     1.329  75.79  16
       387    701.4471     16.7781 300.3929944 +22.6015004     781.7146     72.18312      1.449     3.19     5.514472     20.35987     99.97225        14     1.058     0.898 -14.03   0
       388     80.0351     16.2792 300.1997372 +22.4153482     559.0076     72.10958      1.777     4.93     5.490656     20.35987      51.0341        10     1.087     0.838 -18.96   0
       389    366.8251    998.7717 299.9699948 +22.7833904     456.6508     72.14636      1.750     4.13     3.700525     20.35987     35.39105         5     0.929     0.608  29.25   0
       390    793.0073     13.1629 300.4227085 +22.6278473     506.0598     72.18312      1.498     3.26     5.746423     20.35987     52.79449         8     0.831     0.659  44.83   0
       391    305.8643   1012.5461 299.9465476 +22.7690541     1759.772      72.2015      5.593     5.39     5.578718     20.35987     101.4408        34     1.603     1.496  24.82   0
       392    143.0336   1009.6198 299.8968642 +22.7193563     1551.481     72.16474      3.588    14.64     91.22282     20.35987     58.32961        39     2.862     2.082 -36.10  18
