#   1 NUMBER                 Running object number                                     
#   2 X_IMAGE                Object position along x                                    [pixel]
#   3 Y_IMAGE                Object position along y                                    [pixel]
#   4 ALPHA_J2000            Right ascension of barycenter (J2000)                      [deg]
#   5 DELTA_J2000            Declination of barycenter (J2000)                          [deg]
#   6 FLUX_APER              Flux vector within fixed circular aperture(s)              [count]
#   7 FLUXERR_APER           RMS error vector for aperture flux(es)                     [count]
#   8 FLUX_RADIUS            Fraction-of-light radii                                    [pixel]
#   9 FWHM_IMAGE             FWHM assuming a gaussian core                              [pixel]
#  10 BACKGROUND             Background at centroid position                            [count]
#  11 THRESHOLD              Detection threshold above background                       [count]
#  12 FLUX_MAX               Peak flux above background                                 [count]
#  13 ISOAREA_IMAGE          Isophotal area above Analysis threshold                    [pixel**2]
#  14 A_IMAGE                Profile RMS along major axis                               [pixel]
#  15 B_IMAGE                Profile RMS along minor axis                               [pixel]
#  16 THETA_IMAGE            Position angle (CCW/x)                                     [deg]
#  17 FLAGS                  Extraction flags                                          
         1    677.0635     16.3750 300.3929203 +22.6014887     712.3454     72.25215      1.492     3.69     6.629619     20.38972     86.63976        11     1.042     0.726  45.34   0
         2    482.8598     15.7289 300.3326064 +22.5432157     1073.479     72.30737      1.601     2.71     6.617482     20.38972      125.656        17     1.098     0.956 -37.75   0
         3     56.1156     15.6300 300.1998238 +22.4154674     560.6448     72.27056      1.760     5.07     7.714575     20.38972     43.83545        11     1.202     0.710 -79.40   0
         4    386.4960     13.5660 300.3032944 +22.5137624     843.2073     72.27056      1.720     4.47     6.018879     20.38972     92.34368        15     1.306     0.928  60.83   0
         5    725.9067      4.6807 300.4119383 +22.6127287     646.1767     71.00777      1.479     3.57     6.808215     20.38972     67.84089        11     0.987     0.856  39.90  16
         6    157.9541      3.5344 300.2354142 +22.4424794     3686.402     67.05708      1.740     3.15     6.433212     20.38972     365.3283        36     1.422     1.292   2.89  24
         7    483.9966      1.1744 300.3376750 +22.5393690     261.1153     55.17144      0.986     3.59     6.624772     20.38972     42.06173         5     1.093     0.339   9.46  24
         8    116.0656   1006.6599 299.8967955 +22.7179447     417.3402     72.30737      1.712     3.66     89.84516     20.38972     44.98667         5     1.048     0.488   1.33   3
         9     71.8489   1008.9815 299.8822923 +22.7053446     5566.123     72.28897     16.665    98.59     71.05128     20.38972     156.8278      2547    18.895    17.432 -83.99  27
        10     64.2801    947.3913 299.8999689 +22.6854119      5427.15     72.21532     27.655     6.13     28.46045     20.38972     1251.504      4339    22.094    16.695 -57.88  19
        11    186.7579    985.9973 299.9255015 +22.7332246     4036.228     72.28897      9.126    35.98     67.97948     20.38972     80.88721       338     7.127     5.041 -89.23  19
        12    626.4970    984.9512 300.0627576 +22.8647659     6045.115     72.30737      1.735     4.43     4.819842     20.38972     426.6393        36     1.623     1.046  87.81   3
        13    623.6837    984.9995 300.0618651 +22.8639367      4229.95     72.14159      1.791     6.22      4.80513     20.38972     344.9735        24     1.926     0.766 -87.83   3
        14    204.6234    985.1838 299.9313235 +22.7383499      4800.72     72.27056      8.921    36.19     65.08554     20.38972     92.95956       388     8.200     4.433 -54.91  19
        15    719.2628    986.8333 300.0910625 +22.8931042     529.7161     72.27056      2.045     4.46     4.663291     20.38972     41.65388         7     1.079     0.971  70.33   0
        16    620.5721    987.0338 300.0602337 +22.8635882      10183.5     72.28897      2.433     6.19     4.788576     20.38972     449.5359        53     1.883     1.604  16.55   3
        17    153.0807    976.2463 299.9181981 +22.7203260     2061.027     72.25215      8.121    17.86     61.74152     20.38972     55.96661        80     3.650     2.429  71.08   3
        18    106.5942    969.9634 299.9057850 +22.7045792      1316.06     72.30737      7.787     9.54     56.30211     20.38972      39.7621        19     2.128     1.193 -76.68   3
        19    911.3705    970.6804 300.1562383 +22.9460132     552.3163     72.27056      2.254     7.46     4.552476     20.38972     32.60812        10     1.712     0.910 -81.49   2
        20    342.4129    998.8015 299.9697709 +22.7835799     699.7333      72.1047      3.004     5.46     5.593484     20.38972     37.35981         8     1.422     0.591 -78.07   2
        21    130.6658    957.0649 299.9174650 +22.7081007     2187.049     72.32577     11.131    16.88     44.51671     20.38972     75.35262        64     3.537     2.240 -18.69   3
        22    150.0481    948.8396 299.9261674 +22.7115553     1114.549     72.30737      5.233     8.08     37.26416     20.38972     42.25714        16     2.050     0.891  19.23   3
        23    546.4590    944.4461 300.0509907 +22.8291498     1621.144     72.30737      2.128     5.50     4.701691     20.38972     110.6072        34     1.575     1.429  75.59   0
        24    440.2151    940.9694 300.0190286 +22.7963064     1028.427     72.27056      2.259     7.76     4.877614     20.38972     55.55759        26     1.522     1.352 -20.81   0
        25    370.9837    938.9230 299.9981383 +22.7749641     6479.374     72.27056      2.094     4.72     5.144812     20.38972     413.5553        51     1.608     1.538   1.17   0
        26    114.1132    938.2902 299.9184226 +22.6977506     715.1784     72.43604      4.641     4.63      27.2919     20.38972     33.63141         5     1.373     0.443  34.69   1
        27    638.0595    953.8557 300.0764747 +22.8593025     7002.825     72.34415      2.156     4.92     4.743466     20.38972     367.0446        51     1.642     1.576 -11.85   0
        28    404.1637    925.9288 300.0126937 +22.7811821     505.4838     72.27056      1.842     6.20     5.021512     20.38972     34.99755        10     1.360     0.795 -22.66   0
        29    917.5261    918.0076 300.1752895 +22.9327229     2207.324     72.23373      2.242     5.66      4.54824     20.38972     103.7515        39     1.644     1.565  -6.72   0
        30    415.4084    914.4855 300.0199158 +22.7812685     325.4878     72.21532      1.627     5.43     5.018223     20.38972     28.78438         6     1.666     0.499   1.06   0
        31    224.3441    973.2521 299.9413389 +22.7408420     7133.704     72.30737      7.415    30.22     51.61713     20.38972     156.9896       646     9.604     5.008  61.76  18
        32    706.3087    907.1158 300.1129489 +22.8663289     891.1005     72.43604      2.091     7.21     4.585675     20.38972     56.12499        22     1.635     1.269  57.80   0
        33    740.8279    900.9077 300.1257304 +22.8748869     1135.916     72.21532      2.055     5.59     4.596282     20.38972     76.33178        24     1.497     1.179  46.62   0
        34    763.3038    894.7390 300.1347450 +22.8798476      11415.5     72.36254      2.030     4.59     4.556871     20.38972     651.6046        62     1.645     1.592  25.16   0
        35    159.6998    996.8624 299.9135517 +22.7282245      3037.76     72.34415      6.922    28.49     80.77947     20.38972     75.51683       239     5.788     3.982  81.28  16
        36    216.7337    999.7885 299.9303408 +22.7461715     798.6028     72.25215      1.692     5.45      77.9379     20.38972     54.87186        14     1.354     0.753  81.24   0
        37    808.0175    894.6395 300.1487228 +22.8932122     497.0211     72.28897      2.184     6.27     4.500594     20.38972     32.05682         7     1.563     0.706  35.05   2
        38    533.1750    991.3921 300.0315840 +22.8386449     2433.211     72.27056      2.158     5.27     4.702421     20.38972     126.6965        37     1.559     1.484  47.77   0
        39    131.3377    889.3649 299.9396859 +22.6888830     852.9248     72.28897      8.100     7.55     13.26528     20.38972     42.64056         9     1.654     1.203  37.62   1
        40     75.0883    885.7495 299.9233706 +22.6709747      881.781     72.28897      3.169     6.01     11.76506     20.38972     56.79286        14     1.590     0.712  73.47   0
        41    468.7993    882.5581 300.0469228 +22.7881071     410.0329     72.27056      1.735     5.12     4.816497     20.38972     39.44152         7     1.080     0.686 -65.14   0
        42    771.9152    876.7607 300.1432758 +22.8772625     1443.653     72.25215      2.011     5.38      4.52836     20.38972     85.22939        28     1.497     1.289  24.15   0
        43    955.8648    876.6555 300.2007006 +22.9323198     407.3424     72.32577      1.765     4.12     4.556317     20.38972     40.38726         5     1.025     0.472 -60.19   0
        44    624.8890    874.3956 300.0982073 +22.8325382     362.8029     72.17846      1.782     4.80     4.648574     20.38972     32.06687         6     0.979     0.668 -82.50   0
        45    810.2865    870.3882 300.1573153 +22.8869245     739.7439     72.21532      1.938     5.69     4.470256     20.38972     49.63174        16     1.358     0.970  -5.44   0
        46    858.7440    862.2628 300.1750733 +22.8991021     496.0779     72.32577      2.079     5.38     4.690847     20.38972     40.39169         7     1.152     0.710  38.47   0
        47    709.5332    860.3475 300.1291598 +22.8538616     755.2466     72.28897      1.890     6.00     4.643188     20.38972     49.63069        16     1.294     1.128  51.58   0
        48    721.0082    857.7963 300.1335669 +22.8565662     676.3124     72.08624      1.858     5.35      4.66474     20.38972     60.32576        15     1.391     0.882 -22.80   0
        49    422.1971    856.6209 300.0408420 +22.7666935     4297.958     72.21532      1.918     4.37     5.106225     20.38972     347.2976        41     1.517     1.416 -11.04   0
        50    200.6575    845.7129 299.9754367 +22.6971473     244.5856     72.34415      0.997     3.52     6.789476     20.38972      40.2722         5     1.198     0.298 -36.77   0
        51    148.0302    842.0738 299.9602499 +22.6803219     591.5944     72.28897      1.531     4.80      8.22386     20.38972     73.82146        11     1.268     0.874  70.20   0
        52    124.6424    839.3176 299.9538722 +22.6725175     1530.395     72.23373      2.064     4.83     8.046924     20.38972     118.5612        29     1.605     1.279  23.89   0
        53    996.4010    828.7964 300.2289127 +22.9307002      2222.13     72.04932      2.057     4.94      4.60355     20.38972      107.701        33     1.474     1.402  48.83   0
        54    950.6711    827.2010 300.2151570 +22.9165514     2299.763     72.17846      2.168     4.76     4.501791     20.38972      120.495        35     1.576     1.406  27.22   0
        55    734.1043    820.8701 300.1496539 +22.8498810     697.5891     72.38093      1.806     5.96     4.874999     20.38972     45.78447        15     1.263     0.863   9.11   0
        56    157.6552    821.1213 299.9700534 +22.6771966     303.6161     72.30737      1.410     2.16     6.847613     20.38972     47.10131         5     0.816     0.474 -86.83   0
        57    602.3104    814.8723 300.1105198 +22.8086786      4873.72     72.43604      1.863     3.99     4.959131     20.38972      345.048        41     1.434     1.397 -30.94   0
        58     92.0056    814.9698 299.9516368 +22.6557446     438.1531     72.27056      1.778     5.31     6.441042     20.38972     36.25154        10     1.285     0.620  72.98   0
        59    404.7582    811.8785 300.0499550 +22.7486221     665.0627     72.25215      1.747     4.36     5.137649     20.38972     52.40372        11     1.057     0.839  27.27   0
        60    152.3091    808.5128 299.9724884 +22.6719757     1291.176     72.43604      2.013     5.19     6.068583     20.38972     99.75942        27     1.518     1.333  -5.23   0
        61    622.8686    807.5062 300.1193209 +22.8127219     835.6519     72.41768      2.119     6.29     4.992628     20.38972     61.07853        17     1.406     1.224  52.84   0
        62    995.3898    795.1493 300.2395338 +22.9207254     1006.533     72.28897      1.994     6.23      4.52757     20.38972     68.86229        21     1.523     1.268 -57.09   0
        63    778.3674    794.7021 300.1719625 +22.8556191     4248.639     72.25215      1.880     4.10     4.670813     20.38972     272.7596        37     1.486     1.314  23.02   0
        64    187.2634    788.6313 299.9898218 +22.6767515     447.6361     72.28897      1.625     5.06     5.544176     20.38972      43.9159        10     1.006     0.897 -12.36   0
        65    495.2656    787.2288 300.0861527 +22.7686674     678.4852     72.28897      1.842     4.54     4.751395     20.38972     49.01344        12     1.135     0.856 -79.70   0
        66    141.5493    785.0545 299.9767652 +22.6620183     1176.394     72.30737      2.128     6.29     5.549983     20.38972     85.82569        21     1.336     1.300 -64.22   0
        67    291.3013    776.9451 300.0259898 +22.7045871     53930.31     72.36254      1.904     3.86     5.186903     20.38972      4379.13       107     1.651     1.567  -5.00   0
        68    556.6729    780.4789 300.1074767 +22.7851278     478.2789     72.38093      1.471     5.23     4.997123     20.38972     47.74526        12     1.075     0.903   9.03   0
        69    962.2064    775.6368 300.2355172 +22.9051830     850.6048     72.27056      1.938     6.37      4.60511     20.38972     56.25959        20     1.362     1.101  37.46   0
        70    549.3805    776.3964 300.1065313 +22.7817704     1573.391     72.23373      1.768     3.90     4.983071     20.38972      128.716        22     1.338     1.034 -16.46   0
        71    220.6735    775.5948 300.0044517 +22.6830270     422.4076     72.21532      1.777     3.85     5.544176     20.38972     38.08387         6     0.908     0.468  87.57   0
        72    577.7954    772.4386 300.1166712 +22.7891466      752.193     72.28897      1.665     4.76      5.00377     20.38972     77.43159        18     1.273     1.045 -10.88   0
        73    589.2322    770.9568 300.1207166 +22.7921472     612.3473     72.30737      1.644     5.84     5.014069     20.38972     48.51892        12     1.234     0.777  30.74   0
        74    694.7762    767.2031 300.1548338 +22.8226835     417.2914     72.21532      1.410     3.88     5.045803     20.38972     32.69909         6     0.769     0.561 -45.61   0
        75    489.2812    762.8134 300.0922228 +22.7598629     287.3408     72.25215      2.042     4.47     4.717326     20.38972     32.33012         5     1.252     0.454  59.80   0
        76    732.2156    757.1164 300.1697848 +22.8309983     664.7061     72.23373      1.627     5.13     5.020119     20.38972     65.04839        15     1.298     0.831  11.18   0
        77    341.0690    754.2162 300.0488655 +22.7129795     31496.48     72.28897      1.829     3.63     5.146841     20.38972     2793.975        79     1.535     1.488 -16.50   0
        78    355.3365    754.6405 300.0531689 +22.7173775     1962.454     72.25215      1.868     3.94     5.129547     20.38972      166.468        28     1.395     1.221  10.27   0
        79    864.3074    750.5298 300.2131256 +22.8686583      2817.37     72.39931      1.847     3.98     4.953697     20.38972     195.4987        36     1.421     1.374 -18.10   0
        80    352.4615    748.9439 300.0541249 +22.7148803     677.7371     72.34415      2.224     4.95     5.137525     20.38972     53.59361        13     1.078     0.908 -36.47   1
        81    622.1822    746.3333 300.1389867 +22.7949444     925.2892     72.25215      1.720     4.36     5.045407     20.38972      93.9498        21     1.328     1.124  36.04   0
        82    459.2145    746.2424 300.0882426 +22.7460953     444.6961     72.28897      1.787     4.90     4.738812     20.38972     42.82209         8     1.044     0.652  13.33   0
        83    223.4757    745.8920 300.0149748 +22.6753421     767.9306     72.41768      1.862     4.80     5.544176     20.38972     73.03181        15     1.425     0.894 -17.38   0
        84    469.2512    740.8306 300.0931269 +22.7475484      799.186     72.30737      1.652     4.70     4.710419     20.38972     75.42243        15     1.185     1.017  49.77   0
        85    870.3406    738.2341 300.2190034 +22.8669305     480.4856     72.28897      1.736     4.31     4.965991     20.38972     35.99213         9     1.031     0.835  19.45   0
        86    371.4558    736.9631 300.0639308 +22.7171330     379.4007     72.27056      1.730     5.15     5.038484     20.38972     30.42057         7     1.051     0.712  -8.75   0
        87    416.0323    736.2274 300.0780490 +22.7302800     451.8851     72.27056      1.871     3.12     4.796939     20.38972     41.01287         5     0.786     0.496 -58.90   0
        88     57.1791    735.3373 299.9666843 +22.6224537     578.7965     72.23373      2.170     5.97     5.662252     20.38972     33.50121         8     1.310     0.765 -36.63   0
        89    847.9355    733.0834 300.2136869 +22.8587423     358.1141     72.38093      1.475     5.09     5.075289     20.38972      38.8133         6     0.988     0.741  33.90   0
        90    221.5055    730.7310 300.0192876 +22.6703999      418.327     72.41768      1.564     4.02     5.521794     20.38972     50.16076         5     0.852     0.594  40.63   0
        91    544.7266    721.5892 300.1228900 +22.7646345     467.1645     72.28897      1.832     4.32     4.982671     20.38972     54.26512        11     1.224     0.689  63.95   0
        92    513.9443    719.2533 300.1140589 +22.7547419      591.941     72.30737      1.643     4.92     4.862921     20.38972     63.38238        15     1.231     0.964  77.07   0
        93    930.7117    715.8778 300.2451062 +22.8785764     4499.707     72.41768      1.864     4.08     5.014308     20.38972     274.5702        42     1.443     1.375 -36.99   0
        94    536.0486    716.4028 300.1218713 +22.7605451     1321.591     72.27056      1.661     3.59     4.976517     20.38972     128.9664        22     1.246     1.110 -35.20   0
        95    455.8299    715.7975 300.0970801 +22.7363381      303.904     72.23373      1.510     4.57     4.755686     20.38972     32.93185         6     0.942     0.630  76.29   0
        96    617.9578    711.9254 300.1488495 +22.7837944     320.7749     72.25215      1.400     4.78     5.107244     20.38972     40.71893         8     1.216     0.532   4.31   0
        97    919.1857    707.1934 300.2443307 +22.8726298     1843.341     72.16003      1.908     4.17     5.136873     20.38972     118.5191        28     1.394     1.250  37.65   0
        98    282.1569    700.6342 300.0479376 +22.6799401      909.071     72.32577      1.703     4.11     5.188709     20.38972     83.67694        17     1.204     1.029  26.28   0
        99    745.5842    698.4297 300.1930217 +22.8181377     2538.704     72.27056      1.846     3.96      5.17398     20.38972     201.2077        34     1.596     1.188  -1.58   0
       100    950.2776    697.2801 300.2572551 +22.8790861     1543.528     72.38093      1.843     4.71     5.060955     20.38972     105.8039        26     1.400     1.223 -20.63   0
       101    827.7557    683.8623 300.2233831 +22.8385533     510.4151     72.28897      1.761     5.10     5.534613     20.38972      51.4981        10     1.338     0.710  80.68   0
       102    131.2199    684.2458 300.0063042 +22.6299921     529.7432     72.30737      1.973     5.01     5.658909     20.38972     61.51727         8     1.150     0.783  46.32   0
       103    863.9796    675.3849 300.2374380 +22.8469604     147721.6     72.25215      1.800     3.71      5.65295     20.38972      10752.1       160     1.644     1.559 -33.90   0
       104   1010.7363    677.4329 300.2825757 +22.8914735     1374.741     72.27056      2.042     4.99     4.609508     20.38972     84.01919        22     1.362     1.167  80.06   0
       105    626.6593    679.1118 300.1622215 +22.7769732     340.2097     72.34415      1.412     4.81     5.202198     20.38972     35.11127         6     1.144     0.573  24.27   0
       106    716.2487    675.9271 300.1911845 +22.8028869     842.5172     72.27056      1.909     3.39     5.213453     20.38972     88.26988        14     1.089     0.949  82.91   0
       107    897.1414    668.8621 300.2499043 +22.8550116     331.7588     72.32577      1.485     4.92     5.569304     20.38972     48.47537         7     1.365     0.502  15.04   0
       108    550.0722    664.0179 300.1432580 +22.7496980     1554.733     72.27056      1.617     3.51     5.319899     20.38972     143.4963        26     1.318     1.108 -12.92   0
       109    731.4568    661.5021 300.2006124 +22.8032951      9547.98     72.36255      1.710     3.44     5.270202     20.38972     856.4605        48     1.380     1.329   5.97   0
       110    232.8834    656.2448 300.0470235 +22.6524287     5012.637     72.23373      1.828     3.63     5.309395     20.38972     416.0056        41     1.416     1.370  12.39   0
       111    314.8750    654.4453 300.0731236 +22.6764841     1184.148     72.25215      1.606     3.78     5.174822     20.38972     120.6296        19     1.221     1.036 -57.35   0
       112    191.0348    652.5408 300.0352069 +22.6388222     554.5933     72.28897      1.614     3.09     5.460738     20.38972     58.05553         7     0.760     0.676   4.49   0
       113    523.2674    650.0436 300.1394457 +22.7376546     703.0109     72.25215      1.625     4.83     5.310309     20.38972     62.60485        15     1.286     0.958  -6.22   0
       114    514.9152    642.1126 300.1394197 +22.7328745     3254.376     72.39931      1.612     3.30     5.353876     20.38972     263.0449        29     1.262     1.166  19.33   0
       115    505.0427    635.9443 300.1383475 +22.7281453     1549.196     72.27056      1.626     3.25     5.387591     20.38972     149.0586        22     1.165     1.088 -79.61   0
       116    898.6506    634.2120 300.2616302 +22.8455013     459.3609     72.30737      1.899     4.99     5.739283     20.38972     32.77339         7     0.934     0.755  32.93   0
       117    168.7380    631.5381 300.0350920 +22.6261100     706.6744     72.30737      1.908     4.67     5.552596     20.38972     58.98561        15     1.242     1.072 -57.76   0
       118    182.6089    630.5484 300.0397281 +22.6299834     623.6328     72.28897      1.733     5.72     5.511164     20.38972     53.44835        13     1.229     0.823 -24.38   0
       119    952.0591    627.5319 300.2804680 +22.8595645     411.5468     72.28897      1.406     4.62     5.467547     20.38972     41.66344         8     1.255     0.482   6.33   0
       120    429.9194    625.5046 300.1183398 +22.7026427     1828.234     72.38093      1.699     3.34     5.430302     20.38972     159.8325        25     1.333     1.100 -49.58   0
       121    208.6366    627.0044 300.0489760 +22.6367670     425.7242     72.28897      1.423     5.06     5.440113     20.38972     45.00094         9     1.096     0.662  49.78   0
       122    529.3164    626.4069 300.1490070 +22.7326761     335.3334     72.19689      1.482     3.89     5.529267     20.38972       41.545         6     0.876     0.494 -41.04   0
       123   1005.5889    623.2343 300.2985737 +22.8743471     822.5624     72.25215      1.804     4.78     5.212022     20.38972     61.60586        20     1.251     1.153  11.21   0
       124     83.8219    620.2600 300.0123457 +22.5974184     19861.07     72.23373      1.933     3.91     5.730868     20.38972     1721.359        66     1.615     1.501  10.25   0
       125      5.7541    622.1322 299.9874676 +22.5745507     573.4773     72.25215      1.390     3.01     5.738163     20.38972     49.99764         6     0.850     0.482 -59.09  16
       126    550.4428    619.5601 300.1578128 +22.7370366     471.9254     72.36254      2.430     5.57     5.576653     20.38972     44.52095         8     1.272     0.689 -87.25   0
       127    885.9748    616.4255 300.2634516 +22.8365935     284.1038     72.23373      1.553     4.69     5.910181     20.38972     27.55032         5     1.001     0.624  89.00   0
       128    932.8007    607.6080 300.2809280 +22.8480721     1005.294     72.08624      1.841     4.20     5.665788     20.38972     70.35683        17     1.241     0.935  -8.60   0
       129    799.9369    605.7803 300.2400670 +22.8077804     464.8193     72.25215      1.519     3.97     6.075765     20.38972     51.06388         7     0.977     0.713 -59.54   0
       130     29.9641    604.3467 300.0007685 +22.5767052      1493.65     72.28897      2.238     5.56     5.726884     20.38972     98.42056        27     1.552     1.279  60.11   0
       131    514.9515    621.0219 300.1462806 +22.7268264     1107.164     72.27056      1.815     3.59     5.561662     20.38972     88.54372        18     1.119     1.030 -36.08   0
       132    478.0631    601.4653 300.1411406 +22.7101591     446.5767     72.30737      1.617     4.80     5.756039     20.38972     52.11463        11     1.113     0.813  21.70   0
       133    873.1736    600.4174 300.2646561 +22.8281595     865.4926     72.28897      1.901     5.97     6.039546     20.38972     54.05422        16     1.394     1.117  76.97   2
       134    868.9868    600.3120 300.2633840 +22.8268762     356.9774     72.21532      1.398     3.56     6.061569     20.38972     35.28904         5     1.220     0.299  33.07   2
       135    659.0043    600.9641 300.1976852 +22.7642032     3639.438     72.28897      0.521     2.87     5.566364     20.38972       2111.5         9     0.554     0.438  51.95   0
       136    271.0324    600.8253 300.0768919 +22.6479496     397.1129     72.27056      1.480     3.65     5.291239     20.38972     49.31127         6     0.927     0.436 -39.26   0
       137    435.1959    593.7640 300.1302904 +22.6951061     676.8977     72.28897      1.456     3.59     5.691206     20.38972     77.95517        15     1.090     0.935   6.22   0
       138    583.1006    592.4946 300.1767782 +22.7390404     472.5002     72.45441      1.528     5.80     5.739298     20.38972      49.8466        11     1.098     0.863   5.65   0
       139    600.8434    591.1356 300.1827488 +22.7439632     585.7193     72.27056      1.532     3.92        5.738     20.38972     58.07095         9     0.950     0.798  -2.45   0
       140    630.2269    590.8572 300.1919971 +22.7526819     387.2282     72.27056      1.562     4.80     5.683954     20.38972     43.09781         8     1.004     0.649  54.69   0
       141    479.2073    589.6704 300.1453270 +22.7071134     853.7253     72.23373      1.507     3.41      5.81858     20.38972     98.95829        17     1.147     0.999  17.99   0
       142    913.0324    585.4139 300.2819661 +22.8357742     3228.722     72.27056      1.729     3.58     5.888805     20.38972     250.2526        32     1.312     1.266  61.23   0
       143    444.6183    585.0116 300.1360668 +22.6954144     1625.691     72.23373      1.547     3.56     5.744448     20.38972     143.0351        24     1.192     1.120  12.20   0
       144   1010.9127    584.0179 300.3129717 +22.8646612     660.1641     72.21532      1.678     3.98     5.306533     20.38972      67.5497        11     1.112     0.784  23.43   0
       145      6.5984    578.4774 300.0019046 +22.5622758     5004.353     72.17846      2.006     3.86     5.874897     20.38972     417.9284        44     1.530     1.486  24.13  16
       146    474.2974    575.6559 300.1483483 +22.7016166     372.0598     72.36254      1.656     5.10     5.877785     20.38972     36.46971         6     0.980     0.752 -71.98   0
       147    952.8915    575.2413 300.2977094 +22.8447764     424.8322     72.27056      1.689     4.84     5.710988     20.38972     34.94344         7     1.475     0.451 -29.27   0
       148    308.1324    571.7438 300.0978809 +22.6507150     9169.634     72.30737      1.647     3.22     5.345127     20.38972     972.9244        49     1.407     1.313  51.19   0
       149    430.5598    568.8585 300.1369334 +22.6865631     8947.667     72.27056      1.619     3.21     5.739821     20.38972     938.0809        42     1.319     1.258  50.89   0
       150     75.0179    565.0038 300.0275495 +22.5789191     381.1764     72.19689      1.704     3.76     5.624062     20.38972      26.0271         5     0.648     0.625  -0.13   0
       151    842.4023    563.1182 300.2671674 +22.8082255      1767.92     72.17846      1.635     3.49     6.087417     20.38972      171.952        25     1.252     1.152 -37.13   0
       152    927.0117    560.5109 300.2944151 +22.8327961     12336.54     72.21532      1.747     3.56     5.974426     20.38972     1009.951        52     1.440     1.381 -35.64   0
       153    491.1628    558.4641 300.1591835 +22.7017287     11688.48     72.27056      1.558     2.92     6.002297     20.38972     1271.873        45     1.301     1.252  -3.04   0
       154    660.4661    554.5204 300.2132214 +22.7512928     446.4054     72.38093      1.392     3.86     5.786145     20.38972     53.68069        10     0.980     0.738   9.59   0
       155    218.8447    554.0765 300.0758315 +22.6188876     1347.232     72.25215      1.635     3.11     5.415778     20.38972     158.8268        19     1.102     1.050  79.76   0
       156    376.7968    553.2122 300.1252725 +22.6659637     238.8549      72.1047      1.107     3.72     5.639568     20.38972     33.37201         6     0.754     0.570 -49.18   0
       157    465.6068    551.6901 300.1534225 +22.6921284     402.1476     72.17846      1.620     5.62     5.960642     20.38972     44.79818         9     0.997     0.892 -22.11   0
       158    422.8835    546.5737 300.1417780 +22.6778619     4603.578     72.25215      1.633     3.15     5.746948     20.38972      438.967        35     1.292     1.230  35.85   0
       159    765.6481    546.8760 300.2484994 +22.7805827     689.4217     72.27056      1.408     3.60     6.060378     20.38972     78.46516        12     1.052     0.807  38.17   0
       160    401.1292    545.1272 300.1354735 +22.6709301     1265.955     72.34415      1.511     3.16     5.698493     20.38972     127.1285        20     1.202     0.993 -13.93   0
       161    155.3018    544.4886 300.0591768 +22.5970924      759.296     72.43604      1.790     4.53     5.413589     20.38972     67.17983        13     1.274     0.883 -13.29   0
       162    842.7753    542.3367 300.2740312 +22.8023618       1610.6     72.25215      1.689     3.76     6.089278     20.38972     134.3087        24     1.305     1.144 -79.86   0
       163     90.2135    542.3680 300.0396229 +22.5769761     295.7549     72.25215      2.536     3.39     5.488485     20.38972     31.08946         5     0.758     0.438  18.97   0
       164    363.4667    540.2521 300.1253298 +22.6582478     340.5718     72.28897      1.270     4.95     5.669309     20.38972     61.66478         8     1.211     0.574 -59.06   0
       165    723.3212    539.3342 300.2377484 +22.7657446     762.2964     72.38093      1.424     3.38     5.982521     20.38972     89.38784        14     1.083     0.835  46.83   0
       166    539.4932    534.2244 300.1821096 +22.7092377     206165.8     72.19689      1.576     2.97     6.096494     20.38972     21487.35       198     1.586     1.477 -21.91   0
       167    225.6011    534.0463 300.0844361 +22.6151604     3571.434     72.27056      1.725     3.19     5.439596     20.38972     340.4929        33     1.392     1.257  56.46   0
       168    308.5150    534.2130 300.1101845 +22.6400508     275.0845     72.21532      2.058     2.78     5.478858     20.38972     36.53661         5     0.724     0.467 -71.12   0
       169    791.2952    530.7486 300.2617344 +22.7836225     501.0955     72.34415      1.656     3.70     6.080741     20.38972     58.00492         9     0.907     0.854 -79.80   0
       170    430.1039    514.6429 300.1543922 +22.6708513     2760.833     72.28897      1.646     2.83     5.856925     20.38972     286.8425        33     1.480     1.175 -82.85   0
       171    274.7010    517.1093 300.1052126 +22.6250079     328.0215     72.43604      1.086     2.34     5.491232     20.38972     63.94724         6     0.819     0.454 -49.46   0
       172    841.7218    511.7164 300.2836432 +22.7932416     307.6866     72.38093      1.467     4.72     6.089278     20.38972     38.81417         6     1.070     0.589  20.62   0
       173    747.1772    503.2321 300.2569075 +22.7625065     422.7854     72.27056      1.487     5.37     6.016137     20.38972     43.91512         9     1.150     0.707  42.16   0
       174    827.1662    500.8112 300.2826424 +22.7857498     1692.683     72.25215      1.587     3.70     6.089278     20.38972     131.5867        24     1.237     1.133 -81.66   0
       175    698.3011    498.4711 300.2432125 +22.7465080     2566.167     72.41768      1.529     2.81     5.946835     20.38972     287.9576        28     1.182     1.152  18.14   0
       176    603.4847    495.5624 300.2146004 +22.7172872     470.3297     72.25215      1.441     3.42     6.195068     20.38972     49.86245         8     0.988     0.572 -42.79   0
       177    485.5563    494.2974 300.1782673 +22.6816127      684.104     72.27056      1.548     3.27     6.085284     20.38972     65.60052        12     0.968     0.892  34.46   0
       178    955.7017    492.4498 300.3254657 +22.8218049     1275.688     72.34415      1.734     3.62     5.823914     20.38972     125.2157        22     1.221     1.141  -1.16   0
       179    941.8820    492.3791 300.3211752 +22.8176500     972.3137     72.23373      2.404     5.24     5.972098     20.38972     58.00218        12     1.212     0.795   6.40   0
       180    827.3282    490.7768 300.2859501 +22.7829128     2247.751     72.30737      1.932     4.62     6.089278     20.38972     195.3395        34     1.716     1.190  78.51   0
       181    581.0181    489.1948 300.2096657 +22.7087306     539.4051     72.23373      1.444     2.62     6.191146     20.38972     61.56026         8     0.800     0.698  15.62   0
       182    366.8369    488.7353 300.1431016 +22.6444586     359.6442     72.27056      1.551     4.17       5.8169     20.38972     47.62401         6     1.096     0.639  10.24   0
       183    865.6182    486.0984 300.2994147 +22.7930252      4306.23     72.19689      1.615     3.22     6.089669     20.38972     414.1146        32     1.256     1.217 -52.73   0
       184    419.0135    487.5406 300.1597356 +22.6597430     394.5627     72.25215      1.629     6.57      5.88246     20.38972     36.42823         9     1.254     0.966 -89.35   0
       185    507.0032    486.0058 300.1876395 +22.6856524     262.2752     72.08624      1.144     3.66     6.122718     20.38972     33.46554         5     1.005     0.383 -31.77   0
       186    581.2200    485.1989 300.2110256 +22.7076426     498.4771     72.19689      1.721     3.92     6.194424     20.38972     41.82345         6     0.812     0.543  49.06   0
       187    526.2075    482.1492 300.1948742 +22.6902946     377.2154     72.27056      1.710     4.27     6.160795     20.38972     38.34423         7     1.050     0.495 -22.00   0
       188    957.5116    477.0149 300.3310408 +22.8179066     760.9861     72.21532      1.684     4.78     5.793491     20.38972     59.30144        16     1.271     0.870   5.93   0
       189     97.6510    476.0525 300.0634603 +22.5601664     1007.939     72.30737      1.884     5.05     5.622422     20.38972       74.468        18     1.360     1.227 -51.67   0
       190    758.2579    470.5850 300.2709599 +22.7564361     333.4163     72.23373      1.283     4.47     5.981635     20.38972     37.86039         5     1.159     0.491   2.17   0
       191     90.0935    466.0501 300.0643563 +22.5550297     370.1369     72.32577      1.595     5.32     5.743522     20.38972     28.91851         8     1.219     0.656 -13.48   0
       192    697.9734    460.5974 300.2554031 +22.7355215     420.4711     72.21532      1.466     4.68     5.930566     20.38972     55.77746         9     1.113     0.611  -1.64   0
       193    586.9872    457.9293 300.2216734 +22.7015312     272.7517     72.27056      1.410     4.53      6.19838     20.38972     37.00547         7     1.059     0.551  60.53   0
       194    307.2197    458.6225 300.1343161 +22.6179505     289.9171     72.27056      1.284     3.46     5.770063     20.38972     26.08708         5     0.772     0.449 -16.98   0
       195    639.0153    456.5349 300.2383416 +22.7167057     738.6887     72.25215      1.438     3.50     6.073285     20.38972     81.67356        13     1.015     0.930   9.66   0
       196    953.4456    449.1765 300.3388070 +22.8086821     541.2943     72.28897      1.644     4.77     5.737507     20.38972     54.56421         9     1.020     0.633  32.15   0
       197    699.9442    448.7741 300.2598547 +22.7327120     760.0067     72.27056      1.419     3.20     5.901278     20.38972     87.81463        13     1.079     0.789  -7.71   0
       198    857.1405    444.7770 300.3101810 +22.7786044     963.3796     72.25215      1.590     4.94      5.94066     20.38972     87.09501        17     1.371     1.030 -80.93   0
       199    841.3596    441.6306 300.3062785 +22.7729776     656.7542     72.28897      1.499     3.84     5.933845     20.38972     77.87407        16     1.136     1.002 -21.88   0
       200    814.9623    442.4774 300.2977687 +22.7653226     348.4578     72.25215      1.578     4.17     5.942896     20.38972     41.18094         5     0.935     0.531  43.72   0
       201    585.6223    439.1655 300.2273374 +22.6957291     3333.729     72.28897      1.544     2.97     6.198996     20.38972     332.3347        30     1.200     1.156 -42.05   0
       202     61.7240    430.8487 300.0669578 +22.5364210     309.0669     72.27056      1.330     4.14     6.043651     20.38972     37.91551         6     0.780     0.627  -8.80   0
       203    946.4904    438.5836 300.3400738 +22.8035542     589.2264     72.19689      1.761     5.11     5.764042     20.38972     43.58877        11     0.996     0.830  10.53   0
       204    425.6011    425.8756 300.1817991 +22.6439974     324.4206     72.16003      1.675     5.33     5.936498     20.38972     38.05242         8     1.028     0.779  50.75   0
       205    997.1156    418.4651 300.3624058 +22.8129093      1319.82     72.38093      1.627     3.30     5.235694     20.38972     132.3267        21     1.290     0.996  -8.89   0
       206    955.3812    417.0964 300.3498218 +22.8000322      943.301     72.17846      1.750     3.62     5.595948     20.38972     94.31969        16     1.129     1.011 -89.67   0
       207    868.9776    418.2874 300.3224706 +22.7745268     583.5119     72.19689      1.702     4.37     5.824725     20.38972     50.52471         8     0.957     0.713 -10.50   0
       208    605.1605    415.6374 300.2410613 +22.6948145     424.4753     72.34415      1.856     3.14     6.191473     20.38972     41.46753         5     0.755     0.429 -20.47   0
       209    696.3079    413.2488 300.2702492 +22.7214094     1124.657     72.30737      1.567     3.21     5.826438     20.38972     97.54711        18     1.123     0.950 -28.60   0
       210    492.2652    413.7349 300.2065020 +22.6604697     402.4709     72.32577      1.312     4.66     6.201071     20.38972      51.5044        10     1.171     0.689 -77.90   0
       211    200.2077    411.0354 300.1164572 +22.5722246     701.7974     72.28897      1.723     4.19     5.813916     20.38972     58.50936        14     1.090     0.950 -36.37   0
       212     40.5624    408.8725 300.0675088 +22.5237695     297.4986     72.23373      1.471     4.49     6.095813     20.38972     38.36068         5     1.156     0.495  88.02   0
       213    995.7823    405.7805 300.3661056 +22.8088609     4479.148     72.27056      1.701     3.45     5.407316     20.38972     364.1623        37     1.402     1.227 -47.11   0
       214    262.5441    406.7951 300.1372292 +22.5896801      3670.96     72.23373      1.627     3.16     5.845362     20.38972     403.9546        32     1.278     1.213  42.50   0
       215    209.6666    401.5755 300.1224693 +22.5723411     7785.225     72.25215      1.700     3.21     5.864539     20.38972     811.6089        46     1.369     1.358 -50.18   0
       216    350.5129    395.9476 300.1681296 +22.6129113     5013.374     72.30737      1.583     3.05     5.990589     20.38972     520.7986        37     1.283     1.264   5.85   0
       217    975.7695    396.8432 300.3627580 +22.8003036     1895.639     72.30737      1.727     3.92     5.633518     20.38972     149.2552        26     1.343     1.137 -54.10   0
       218    594.7577    392.7422 300.2452479 +22.6851187     18776.11     72.25215      1.526     2.91     6.051021     20.38972     2140.754        57     1.321     1.282  18.43   0
       219    612.4297    392.9594 300.2506851 +22.6904709     836.9993     72.28897      1.896     6.12     6.026277     20.38972     66.11146        18     1.613     0.767 -37.67   0
       220    838.6250    389.2281 300.3224297 +22.7570873     168.1783     72.25215      1.139     3.32      5.76717     20.38972      41.7392         5     0.850     0.581  39.67   0
       221    791.7370    383.1451 300.3097766 +22.7413090     392.1317     72.32577      1.519     3.86     5.810776     20.38972     46.15002         7     0.982     0.736 -18.22   0
       222    215.7613    379.0541 300.1316721 +22.5676976     347.1144     72.27056      1.835     3.93     5.951108     20.38972     28.32037         6     0.947     0.466 -51.76   0
       223    928.3752    375.5560 300.3548714 +22.7800029     788.3524     72.28897      1.620     3.78     5.871772     20.38972     77.34717        17     1.180     0.991  63.19   0
       224    149.2419    372.4669 300.1131155 +22.5458785     2184.493     72.25215      1.892     3.57     5.971103     20.38972     226.7215        30     1.382     1.282  50.15   0
       225    535.5008    362.1387 300.2367115 +22.6585829     6716.189     72.34415      1.508     2.85      6.00896     20.38972      693.938        41     1.262     1.228 -58.73   0
       226    949.1459    362.7780 300.3655000 +22.7825392      1185.86     72.28897      1.591     3.42     5.940344     20.38972     129.0226        21     1.183     1.104 -49.81   0
       227    250.3961    361.4543 300.1481584 +22.5730161     677.5706     72.23373      1.720     3.91     5.945881     20.38972     66.42535        11     1.129     0.775 -16.18   0
       228    108.3040    354.6952 300.1061479 +22.5285096     586.0415     72.43605      1.629     4.48     6.089077     20.38972     54.08291        11     1.067     0.888 -46.57   0
       229    649.0060    352.9335 300.2750713 +22.6899099      493.584     72.27056      1.472     4.17     5.774703     20.38972     58.67265        10     1.107     0.750 -27.39   0
       230    739.6694    351.3257 300.3038606 +22.7165782      1264.92     72.34415      1.590     2.89      5.76771     20.38972     138.0826        18     1.125     0.933  42.40   0
       231    442.1539    348.3444 300.2121080 +22.6266723     6210.781     72.30737      1.504     2.71     6.272814     20.38972     701.0275        39     1.306     1.187 -88.69   0
       232    834.0236    342.9148 300.3360193 +22.7423885     1491.794     72.21532      1.606     3.27     5.706744     20.38972     151.4771        26     1.287     1.100  55.85   0
       233    148.0036    344.4141 300.1218301 +22.5374500     140.6715     72.12315      1.632     4.40     6.044734     20.38972     27.70575         5     1.583     0.348 -28.03   0
       234    931.6317    343.3596 300.3663330 +22.7717135      501.738     72.32577      1.312     3.96     5.816871     20.38972     69.94543         9     0.990     0.762 -43.24   0
       235    426.9601    337.3608 300.2109389 +22.6189665     425.4895     72.34415      1.373     3.16     6.242045     20.38972     54.28598         7     0.873     0.661   1.00   0
       236    509.4412    335.3689 300.2372763 +22.6430866     416.6476     72.28897      1.424     4.02     6.089535     20.38972     41.72623         7     0.952     0.643  -0.04   0
       237    490.5202    332.9805 300.2321566 +22.6367359     265.7646     72.27056      1.322     4.35     6.162654     20.38972     38.12269         7     0.919     0.649 -24.87   0
       238    806.8480    330.7050 300.3315023 +22.7307464     632.0383     72.28897      1.586     4.82     5.770852     20.38972     59.13932        13     1.138     0.921  53.39   0
       239    329.6820    327.4686 300.1838591 +22.5869961     2585.874     72.38093      1.569     2.96     6.183061     20.38972     304.8915        28     1.209     1.168  38.17   0
       240     48.0625    324.6420 300.0971636 +22.5018298     1050.777     72.25215      1.780     3.80     5.972581     20.38972     99.62762        18     1.181     1.142 -20.75   0
       241    298.9542    316.9156 300.1777171 +22.5747620     30155.76     72.25215      1.583     3.06     5.975046     20.38972      2822.13        73     1.420     1.374  44.65   0
       242    833.7613    314.8661 300.3450358 +22.7342411     1452.262     72.25215      1.592     3.29      5.74546     20.38972     137.7903        21     1.205     0.997  -2.50   0
       243    748.8659    303.8856 300.3221167 +22.7056851     642.2324     72.36254      1.427     2.95     5.778585     20.38972      64.6541        12     0.936     0.827 -85.01   0
       244    397.3942    302.6822 300.2129796 +22.6001473      514.876     72.19689      1.605     3.82     6.135308     20.38972     43.47757         9     0.974     0.682  28.49   2
       245    173.1195    302.9937 300.1430766 +22.5330752     361.1442     72.19689      1.502     4.06     6.009457     20.38972     49.68487         8     0.963     0.741  16.73   0
       246    709.5290    296.9722 300.3120922 +22.6919273     1954.098     72.25215      1.491     2.85     5.779566     20.38972     205.4353        24     1.108     1.097  39.73   0
       247    518.4603    291.7271 300.2542408 +22.6332400      353.226     72.30737      1.395     4.11     6.057442     20.38972      57.3886         9     1.152     0.600  -3.46   0
       248    924.6431    290.1431 300.3814132 +22.7543107     636.8386     72.23373      1.687     3.89     5.309034     20.38972     61.14354        11     1.014     0.818 -19.93   0
       249    778.1333    283.3494 300.3379050 +22.7085336     207.1619     72.25215      1.284     4.20     5.781496     20.38972      26.1342         6     0.774     0.650 -54.49   0
       250    371.1142    281.3382 300.2117187 +22.5861446      2122.66     72.39931      1.742     3.71     6.238147     20.38972     208.9086        26     1.348     1.107  49.07   0
       251    583.4807    281.0922 300.2779499 +22.6496423     284.8276     72.39931      1.289     2.88     5.916595     20.38972     53.43061         6     0.745     0.624 -38.47   0
       252    810.2482    274.7326 300.3507170 +22.7156616     573.1581     72.27056      1.309     3.30     5.774587     20.38972     79.13116        11     1.122     0.708  42.99   0
       253    692.7379    272.0464 300.3149404 +22.6797342     350.7122     72.28897      1.292     3.93     5.808509     20.38972     50.82197         9     1.077     0.638 -49.96   0
       254    447.0216    260.8631 300.2419962 +22.6029833     1274.422     72.25215      1.515     2.97     6.017952     20.38972     142.3755        20     1.100     1.024 -40.45   0
       255    958.1047    257.1818 300.4025469 +22.7548317     428.0954     72.17846      1.400     3.62      5.67512     20.38972     45.54855         7     1.064     0.515  38.94   0
       256    692.0181    252.6652 300.3210008 +22.6739442     2361.057     72.25215      1.558     3.07     5.840325     20.38972     247.2066        24     1.198     1.133 -81.00   0
       257     91.1873    251.4889 300.1342949 +22.4937380     331.9737     72.21532      1.481     3.69     6.018069     20.38972     27.20686         5     1.037     0.377  84.08   0
       258    953.3453    247.2829 300.4042712 +22.7505596     3144.813     72.32577      1.698     3.29     5.792233     20.38972     294.1244        35     1.352     1.283 -51.44   0
       259    400.5247    236.5972 300.2353840 +22.5820890     506.8918     72.17846      1.263     3.65     6.053783     20.38972     70.01537         9     0.978     0.758   6.12   0
       260   1022.5616    235.3623 300.4297452 +22.7678239     1480.862     62.26315      1.588     3.58     6.125455     20.38972     151.8269        20     1.279     0.953  63.79  24
       261     75.3689    230.4711 300.1361902 +22.4829622     1398.919     72.27056      1.805     4.60      5.96427     20.38972     131.6716        24     1.683     0.934 -33.14   0
       262    105.7193    230.6964 300.1455553 +22.4921178     640.7977     72.39931      1.704     3.94     6.037704     20.38972     76.11879        11     1.361     0.720  12.89   0
       263    969.2286    228.3371 300.4153725 +22.7498560     464.6879     72.27056      1.348     2.85      6.07684     20.38972     63.00367         7     0.877     0.557  52.70   0
       264    812.6878    224.6293 300.3677248 +22.7019759     278.9958     72.27056      1.376     3.45     5.757095     20.38972     40.66824         5     0.748     0.461  14.27   0
       265    159.3261    223.3253 300.1646184 +22.5060555     488.7249     72.34415      1.481     2.78     6.050702     20.38972     61.26421         7     0.943     0.454  -8.09   0
       266    835.4127    216.3156 300.3775098 +22.7063804     400.8003     72.21532      1.498     4.01     5.807533     20.38972     38.27616         6     1.078     0.551 -41.91   0
       267    763.5443    214.2863 300.3557493 +22.6843009     525.9019     72.34415      1.475     3.62     5.814411     20.38972     61.51189        14     1.018     0.919  17.50   0
       268    354.0939    213.6383 300.2283707 +22.5615900     336.8441     72.25215      1.512     4.19     6.298382     20.38972     43.33158         7     1.065     0.471 -46.97   0
       269    861.8196    203.3689 300.3899462 +22.7105522     2128.909     72.27056      1.565     2.73     5.869435     20.38972     258.7293        26     1.228     1.138 -89.60   0
       270    280.2490    200.1251 300.2097647 +22.5355980     2066.468     72.27056      1.632     3.33     6.048307     20.38972     222.3185        25     1.279     1.126  88.07   0
       271    358.1600    195.5948 300.2354859 +22.5576205     1091.077     72.28897      1.591     3.08     6.187195     20.38972     106.9417        17     1.073     1.038  37.60   0
       272    110.1282    195.9362 300.1581950 +22.4834519     385.7769     72.30737      1.506     5.30     6.207839     20.38972     34.33231         8     1.053     0.753 -73.48   0
       273    760.4210    194.7193 300.3611189 +22.6777371     596.5758     72.23373      1.607     2.96     5.823582     20.38972     63.55019        11     0.908     0.816 -21.98   0
       274    405.5770    192.7243 300.2511807 +22.5709889     355.1566     72.30737      1.216     3.38     5.992771     20.38972     35.87925         5     0.754     0.439  68.32   0
       275    867.6349    192.0783 300.3954211 +22.7090420     300.3761     72.21532      1.230     3.45     5.881756     20.38972     41.42102         8     0.964     0.585 -24.73   0
       276    174.6995    187.5793 300.1809886 +22.5003883     681.3478     72.19689      1.685     4.28     6.279835     20.38972     81.41568        14     1.304     0.919  22.12   0
       277    293.0984    186.9612 300.2180313 +22.5356615     230.5448     72.28897      1.178     3.38     6.027809     20.38972     39.22528         6     0.912     0.455  55.98   0
       278    777.7366    184.2871 300.3699015 +22.6799146     534.3204     72.38093      1.444     4.20     5.782314     20.38972     68.11254        10     1.265     0.569  44.07   0
       279    713.0173    184.6003 300.3496163 +22.6606465     1666.214     72.17846      1.497     3.20     5.882092     20.38972     197.7052        19     1.143     1.047 -52.40   0
       280    196.8615    180.6159 300.1901405 +22.5050236     470.8716     72.21532      1.417     4.87     6.345257     20.38972     61.62673        11     1.192     1.020  37.88   0
       281    984.2284    177.3919 300.4365719 +22.7396762      783.436     72.27056      1.495     3.76     6.189164     20.38972      90.5241        15     1.124     0.966  87.10   0
       282    716.9708    176.2324 300.3535617 +22.6594216     692.0278     72.27056      1.394     4.12     5.881128     20.38972     71.34123        12     1.164     0.808  50.77   0
       283    637.6052    175.3964 300.3290887 +22.6354392     1146.988     72.08624      1.471     3.16     5.892754     20.38972      136.614        22     1.278     0.980 -52.33   0
       284    486.2298    176.7346 300.2814839 +22.5905301     308.3338     72.28897      1.509     4.39      5.94844     20.38972     36.57946         9     1.150     0.662 -38.30   0
       285    458.4691    172.0376 300.2743591 +22.5808716     471.8007     72.23373      1.713     3.51     5.951621     20.38972     70.48862         8     1.193     0.628 -49.37   0
       286    832.9970    167.0279 300.3927345 +22.6914747     1489.742     72.23373      1.511     2.94     5.802948     20.38972     146.2674        22     1.131     1.026  62.18   0
       287    563.5669    167.1299 300.3086928 +22.6109100     936.0926     72.27056      1.398     2.63     5.901481     20.38972     128.8231        14     0.939     0.904  40.49   0
       288    845.0549    166.0568 300.3968112 +22.6948011     811.0548     72.32577      1.569     3.47      5.83046     20.38972     88.01067        11     0.944     0.896 -53.60   0
       289   1005.8687    156.9887 300.4499419 +22.7402718     1656.019     72.28897      1.718     3.61     6.281346     20.38972     158.6923        26     1.367     1.168 -62.53   0
       290    961.7066    156.2506 300.4363944 +22.7268572     1192.265     72.34415      1.719     3.87     6.111563     20.38972     132.1476        22     1.296     1.184  44.09   0
       291    196.1552    149.5205 300.1999994 +22.4958759     617.3077     72.25215      1.395     3.34     6.503935     20.38972     60.05354         9     0.853     0.750  19.50   0
       292     57.5532    143.8480 300.1587287 +22.4527407     2209.847     72.28897      1.869     3.56     6.421552     20.38972     217.4721        28     1.398     1.211  -6.67   0
       293    880.6738    141.4067 300.4159152 +22.6983573     740.1047     72.21532      1.441     3.77      5.88822     20.38972        76.42        12     1.018     0.946 -66.39   0
       294      7.7528    140.8460 300.1442187 +22.4369626     339.6404     72.28897      1.477     3.67     6.424286     20.38972     44.41623         7     0.877     0.598  11.40   0
       295    214.9451    137.0827 300.2098765 +22.4979271     5693.811     72.32577      1.687     3.26     6.560062     20.38972     523.5474        38     1.384     1.281  57.24   0
       296    196.2353    138.5440 300.2035817 +22.4927453     282.9881     72.28897      1.380     3.45     6.524366     20.38972     39.10506         5     0.837     0.411 -22.64   0
       297    198.5500    128.2797 300.2076283 +22.4904884     616.3893     72.28897      1.715     3.47     6.550273     20.38972     64.07053        10     1.002     0.690   3.43   0
       298   1014.0222    125.0374 300.4628438 +22.7335100     18461.33     72.28897      1.793     3.43     6.329862     20.38972     1746.733        66     1.574     1.437 -71.11  16
       299    859.1647    119.0688 300.4164434 +22.6854967     3512.281     72.27056      1.600     3.12     5.840606     20.38972     380.8006        36     1.317     1.282 -56.35   0
       300    962.9336    117.8756 300.4492153 +22.7161767     2596.731     72.36254      1.643     3.18     6.085239     20.38972     233.1019        31     1.350     1.240 -58.31   0
       301    408.5393    114.1228 300.2775791 +22.5492760     647.6267     72.32577      1.450     3.18     6.348164     20.38972     72.11556        13     1.097     0.842  34.92   0
       302    160.9004    114.1140 300.2005060 +22.4751446     413.4135     72.43604      1.686     4.87     6.499147     20.38972      36.7038         8     1.034     0.947 -20.33   0
       303    523.2147    112.3858 300.3138621 +22.5830913     284.6161     72.19689      1.424     3.23     6.093373     20.38972     31.89089         5     0.732     0.454  17.73   0
       304    333.8923    105.3413 300.2571826 +22.5244101     861.4761     72.32577      2.556     7.78      6.25118     20.38972     64.49613        17     2.179     0.777 -21.62   0
       305    868.1443    104.5916 300.4239370 +22.6840144       175.18     72.27056      1.486     4.43     5.846526     20.38972      25.0083         5     1.157     0.484   4.81   0
       306    459.9651    101.3223 300.2977435 +22.5609841     1600.412     72.23373      1.551     2.98     6.535325     20.38972     181.7731        24     1.226     1.094  74.61   0
       307     98.9814    103.0700 300.1848257 +22.4534305     635.9938     72.28897      1.423     3.06     6.460622     20.38972     70.57393        10     0.948     0.708 -25.03   0
       308    522.5577    100.9205 300.3173728 +22.5795970      438.849     72.25215      2.075     5.92     6.132631     20.38972     44.26253         8     1.177     0.875  52.18   0
       309    388.0116    102.3773 300.2749930 +22.5397553     338.9367     72.27056      1.164     2.59     6.448985     20.38972      58.4362         6     0.763     0.482  -4.88   0
       310    203.1607     96.9172 300.2192257 +22.4828547     301.6757     72.23373      1.562     3.95     6.618586     20.38972     38.89561         5     0.970     0.461 -42.68   0
       311    748.4266     91.4087 300.3908627 +22.6444226     317.3894     72.27056      1.125     2.66     6.042004     20.38972     56.05051         6     0.867     0.432 -18.17   0
       312    596.3258     87.7186 300.3446381 +22.5978683     229.1169     72.38093      1.381     4.10     6.096811     20.38972     27.86121         6     0.917     0.524  46.38   0
       313    894.0468     85.9272 300.4380682 +22.6863859     381.4147     72.27056      1.191     3.02     5.901835     20.38972      47.1988         7     0.875     0.507  40.94   0
       314   1023.2372     82.3994 300.4795389 +22.7239872     2079.031     58.58631      1.507     3.75     6.167127     20.38972      320.021        24     1.631     0.972 -79.77  24
       315    233.9793     80.9547 300.2339872 +22.4874925     6125.433     72.32577      1.716     3.27     6.325781     20.38972     516.1823        46     1.462     1.358  86.45   0
       316     85.0639     80.9071 300.1876787 +22.4428942     834.5739     72.38093      1.896     3.88     6.658049     20.38972     72.20483        11     1.154     0.824   2.53   0
       317    863.2529     78.9842 300.4307088 +22.6751810     393.5303     72.27056      1.542     3.80     6.003943     20.38972     38.43303         6     0.911     0.468  50.40   0
       318    206.4526     75.2245 300.2272787 +22.4776050      505.912     72.28897      2.199     2.58     6.372043     20.38972     42.50481         5     0.707     0.457  68.68   0
       319    480.0728     66.4560 300.3153045 +22.5569730     6408.854     72.28897      1.588     2.94     6.613671     20.38972     675.2527        44     1.364     1.282 -83.45   0
       320    365.6883     66.3850 300.2797044 +22.5227252     751.5546     72.21532      1.514     3.90     6.217514     20.38972     81.28587        11     1.075     0.821 -56.85   0
       321    732.5818     56.5189 300.3972264 +22.6296438     879.3848     72.25215      1.760     3.37     6.382905     20.38972     91.35534        16     1.211     0.897  21.18   0
       322    673.8922     57.9687 300.3784565 +22.6125095      265.778     72.21532      1.273     3.81     6.323828     20.38972     38.26318         5     0.811     0.514 -27.92   0
       323    825.0064     55.5669 300.4263634 +22.6570055     505.3342     72.27056      1.646     4.60     6.136084     20.38972     47.06308         9     1.113     0.712  13.76   0
       324    173.3944     50.4819 300.2250098 +22.4605965     364.3268     72.19689      1.203     3.10      6.35329     20.38972      56.8299         7     0.846     0.603 -70.43   0
       325    531.3741     49.2490 300.3368620 +22.5673716     529.2704     72.28897      1.410     3.42     6.409166     20.38972     56.09436         7     0.936     0.557  24.15   0
       326    608.4886     46.5609 300.3617643 +22.5896655     6291.761     72.25215      1.639     3.17     6.489237     20.38972     686.4089        40     1.367     1.251  83.76   0
       327    383.4930     45.5072 300.2920122 +22.5220496     1527.676     72.43605      1.623     3.26      6.17636     20.38972     162.1621        20     1.149     1.053 -67.38   0
       328    649.4765     44.2718 300.3752823 +22.6012661       808.21     72.36254      1.497     2.85     6.458471     20.38972     108.9678        16     1.025     0.945  -2.99   0
       329    665.2898     40.1072 300.3815614 +22.6047971     492.8875     72.43604      1.555     4.32      6.46412     20.38972     58.36457        11     1.075     0.879  29.46   0
       330    935.9676     38.2354 300.4666042 +22.6851868     535.5397     72.30737      1.531     3.74     5.701705     20.38972     56.08054         9     1.099     0.578  -3.47   0
       331    132.4125     38.1497 300.2162567 +22.4447828     602.4001     72.32577      1.340     3.75     6.734148     20.38972     67.88244        11     1.138     0.633 -22.76   0
       332    704.3391     35.9638 300.3950788 +22.6152826     445.5767     72.28897      1.252     2.06     6.521466     20.38972     73.24778         5     0.733     0.504  -4.87   0
       333    652.7487     31.5325 300.3804296 +22.5985790     2872.126     72.27056      1.621     3.03     6.544834     20.38972     322.6969        31     1.261     1.197  70.42   0
       334    668.1002     30.6705 300.3854948 +22.6029221     785.9362     72.39931      1.754     4.79     6.524771     20.38972     69.92244        16     1.367     1.016  30.38   0
       335    293.4910     32.5382 300.2681941 +22.4913861     398.2978     72.36255      1.367     3.78     5.669776     20.38972     48.05151         8     1.046     0.499   0.03   0
       336    739.2208     23.2652 300.4100701 +22.6220585     1557.857     72.25215      1.592     3.10     6.667158     20.38972     154.7057        22     1.260     1.056  65.76   0
       337    717.4850   1014.2220 300.0815991 +22.9004364     416.9289     72.21532      1.659     4.31     4.738356     20.38972     30.58104         6     1.082     0.489 -83.96   0
       338    282.8245   1012.3496 299.9468186 +22.7695971     442.7836     72.28897      1.381     4.84     14.06684     20.38972     68.29132        12     1.440     0.611  79.21   2
       339    279.5951   1011.5535 299.9460726 +22.7684002    -177.9644     72.25215      1.233     4.69     17.91894     20.38972     30.62054         7     0.938     0.665  81.31   3
       340    135.0779   1008.4222 299.9021346 +22.7241538     447.4857     72.25215      1.900     8.93     90.75173     20.38972     41.29182        14     1.912     1.164  -9.57   0
       341    769.2087     12.9819 300.4227541 +22.6280651      387.488     72.21532      1.434     2.78     6.608919     20.38972     47.63322         7     0.711     0.688  72.69   0
       342    119.6868   1004.9790 299.8984682 +22.7185490     831.5586     72.19689      2.122     7.17     88.03203     20.38972     45.73217        17     1.341     1.074  -9.38   3
       343    118.5482   1009.4418 299.8966627 +22.7194872     940.7053     72.27056      2.876     7.29      91.6583     20.38972     55.70479        13     1.542     0.964  -2.27   3
