#   1 NUMBER                 Running object number                                     
#   2 X_IMAGE                Object position along x                                    [pixel]
#   3 Y_IMAGE                Object position along y                                    [pixel]
#   4 ALPHA_J2000            Right ascension of barycenter (J2000)                      [deg]
#   5 DELTA_J2000            Declination of barycenter (J2000)                          [deg]
#   6 FLUX_APER              Flux vector within fixed circular aperture(s)              [count]
#   7 FLUXERR_APER           RMS error vector for aperture flux(es)                     [count]
#   8 FLUX_RADIUS            Fraction-of-light radii                                    [pixel]
#   9 FWHM_IMAGE             FWHM assuming a gaussian core                              [pixel]
#  10 BACKGROUND             Background at centroid position                            [count]
#  11 THRESHOLD              Detection threshold above background                       [count]
#  12 FLUX_MAX               Peak flux above background                                 [count]
#  13 ISOAREA_IMAGE          Isophotal area above Analysis threshold                    [pixel**2]
#  14 A_IMAGE                Profile RMS along major axis                               [pixel]
#  15 B_IMAGE                Profile RMS along minor axis                               [pixel]
#  16 THETA_IMAGE            Position angle (CCW/x)                                     [deg]
#  17 FLAGS                  Extraction flags                                          
         1    475.5111     17.5690 300.3326725 +22.5430974     1136.708     71.99938      1.667     3.03     6.336773     20.31839     144.8346        17     1.114     0.996  55.33   0
         2   1022.1452     12.9704 300.5046683 +22.7052594     2230.092     63.97422      1.775     3.70     6.223295     20.31839     201.2317        32     1.533     1.206  78.16  24
         3    718.8495      6.9245 300.4119730 +22.6128335      677.814     72.01773      1.538     3.45     6.858151     20.31839      81.4562        12     1.036     0.907 -12.75  16
         4    150.7746      5.4820 300.2354869 +22.4424161     3780.181     71.99938      1.871     3.55     7.435246     20.31839     366.7454        44     1.594     1.416  46.31  24
         5    477.0029      3.2310 300.3377816 +22.5394193     280.3116     65.56515      1.449     3.84     6.341113     20.31839     27.14663         5     0.829     0.510 -53.73  16
         6    198.8772    986.1336 299.9321668 +22.7384313     5270.427     72.10939      8.936    38.07     58.40123     20.31839     98.46802       454     8.096     4.968 -64.09  19
         7     56.9687    917.3231 299.9104060 +22.6761167     3143.433     71.99938     12.243    49.28     20.90969     20.31839       72.189       773    10.451     6.449 -35.26  19
         8     66.7940   1011.9864 299.8826773 +22.7062121     4804.253     71.88921     14.632    74.08     78.30369     20.31839     166.5997      1657    15.493     9.828  39.35  27
         9     57.9531    955.3149 299.8983590 +22.6873078     5125.141     71.99938     21.159     3.36     39.54424     20.31839     1209.781      3168    19.917    14.935 -19.18  19
        10    618.0502    986.8333 300.0624714 +22.8643393     9739.592     72.05441      2.566    14.40     4.596402     20.31839     430.2922        76     3.419     1.686  -8.53   3
        11    713.9706    990.7078 300.0911150 +22.8942029     395.4739     71.98103      1.270     3.78     4.596966     20.31839     35.33043         5     0.971     0.422  -6.94   3
        12    711.4079    988.8469 300.0909212 +22.8929004     479.4549     72.03607      1.995     5.00     4.595673     20.31839     31.96087         7     1.135     0.623 -53.23   2
        13    150.8392    995.8109 299.9140756 +22.7267939     2114.277     72.01773      6.128    11.43     79.69524     20.31839     58.09576        38     2.286     1.593  83.23   3
        14    142.8807    969.7736 299.9200681 +22.7169380     883.9192     71.99938      4.890     5.97     56.52609     20.31839     42.44209        10     1.872     0.756  56.95   3
        15    146.7439    979.9730 299.9179527 +22.7210226     1694.563     72.01773      3.950     9.64     65.35815     20.31839     68.02067        35     1.942     1.714 -39.17   3
        16    146.0585    974.6804 299.9194608 +22.7192989     1175.395     72.05441      3.711    10.97     60.90593     20.31839     47.39478        26     2.215     1.515 -15.16   3
        17    905.3288    972.5864 300.1567043 +22.9463376     715.6237     72.01773      2.073     7.53     4.706422     20.31839     39.63483        15     1.560     1.018  32.34   0
        18    217.1652    975.7631 299.9412295 +22.7409430     7488.369     72.09106      7.894    31.72     45.17968     20.31839     156.3769       723    10.323     5.041  60.73  18
        19    125.0321    956.4404 299.9188525 +22.7077585     1708.459     72.07274      7.105    14.04     44.92799     20.31839     44.56443        41     2.652     2.068 -77.81   2
        20    630.6940    955.9679 300.0764511 +22.8592672     6701.427     71.94431      2.116     4.96     4.588693     20.31839     330.1097        55     1.694     1.559  10.09   0
        21    152.1041    987.1957 299.9172710 +22.7247025     1105.342     71.92595      5.518     9.53     71.58507     20.31839     48.88158        15     1.957     1.294 -87.57   3
        22    334.5544   1000.0355 299.9698692 +22.7831203     734.9663     72.05441      3.089     6.49     5.151679     20.31839      41.5647        10     1.545     0.945  63.24   0
        23    144.9969    951.9789 299.9265130 +22.7124690     670.3224     71.96268      3.369     4.55     40.40138     20.31839     39.45667         5     1.196     0.491  19.48   0
        24    155.8120    990.0554 299.9174943 +22.7266352     941.2975     72.01773      6.396    11.45     74.27424     20.31839     56.76163        19     3.368     1.084  87.65   3
        25    540.3326    946.4633 300.0513810 +22.8294512     1114.218     72.07274      1.706     4.95     4.529316     20.31839      104.815        19     1.486     1.071  77.18   3
        26    537.3785    946.6966 300.0503847 +22.8286325     501.9522     71.92595      1.378     3.60     4.524492     20.31839     65.46355         8     1.069     0.498  87.45   3
        27    127.7709   1009.6721 299.9023923 +22.7238472     241.5809     72.01773      1.770     5.32     91.79359     20.31839     32.33905         5     1.233     0.647  70.36   0
        28    433.2631    942.8636 300.0191979 +22.7963162     984.1455     72.05441      1.943     5.77     4.479636     20.31839     69.74904        23     1.516     1.137  37.87   0
        29    363.6395    940.9611 299.9981362 +22.7748921      6494.49     72.09106      2.138     4.94     4.865067     20.31839     400.2331        55     1.683     1.605  -7.87   0
        30    191.4316    940.3322 299.9447450 +22.7230590     321.2372     72.01773      3.000     3.50     23.12687     20.31839     28.19878         5     1.094     0.323 -68.94   0
        31    526.5934    993.3732 300.0318436 +22.8387983     2089.092     72.01773      2.073     5.68     4.426289     20.31839     123.4106        24     1.701     0.979  54.75   3
        32    396.9518    927.6925 300.0128233 +22.7810737     668.2739     72.03607      2.573     5.62     4.639218     20.31839     40.65144        12     1.214     0.936  52.98   0
        33    524.3595    994.6687 300.0307262 +22.8385004     1050.014     71.99938      1.649     3.80     4.422515     20.31839     94.10046        10     1.144     0.572  59.20   3
        34    910.1868    920.0508 300.1753062 +22.9326985     2321.773     72.05441      2.369     5.92     4.741955     20.31839     102.7293        40     1.676     1.589  11.40   0
        35    560.5232    917.6626 300.0670379 +22.8272350     422.0664     72.07274      1.784     5.91     4.611724     20.31839      39.5195         7     1.285     0.765  59.56   0
        36     82.1363    912.3159 299.9198597 +22.6822321      623.008     72.10939      5.703     5.41     20.10025     20.31839     32.49361         5     1.201     0.689  80.42   1
        37    698.6709    908.3669 300.1131228 +22.8659704     792.1475     72.01773      2.188     8.20     4.711797     20.31839      45.4015        17     1.676     1.122   6.05   0
        38    734.6711    903.5361 300.1259196 +22.8753706     892.9101     72.05441      2.149     5.93     4.566226     20.31839     64.98977        14     1.402     0.799 -83.64   2
        39    732.0000    903.0623 300.1252407 +22.8744341     611.1649     71.96268      1.731     4.27      4.58272     20.31839     58.77082         9     1.242     0.583 -82.68   3
        40    510.4929    903.9191 300.0559180 +22.8082916      437.637     72.16433      2.091     6.03     4.586858     20.31839     28.37505         6     1.172     0.874 -54.86   0
        41    150.9738   1000.1371 299.9127104 +22.7280751     2632.874     72.01773      5.623    24.24     83.29633     20.31839     64.02102       140     5.452     2.993  27.16  19
        42    755.9016    896.7598 300.1347441 +22.8797855     11224.81     72.01773      2.062     4.83     4.631854     20.31839     586.1254        60     1.639     1.571 -31.46   0
        43    947.1032    897.3691 300.1942041 +22.9372383      404.093     71.96268      1.506     4.77      4.79681     20.31839     32.63145         5     1.405     0.458  -6.55   0
        44    801.4797    896.5909 300.1490156 +22.8933927     521.7744     71.96268      1.964     7.73     4.787636     20.31839     39.52295        12     1.435     1.165  38.12   0
        45    186.1994    895.3399 299.9577458 +22.7085818     688.7585     71.98103      4.414     4.59     11.16348     20.31839     30.87778         5     1.196     0.501  56.20   1
        46    132.3504    888.8415 299.9431078 +22.6905638     625.2863     72.03607      4.368     4.55     13.96027     20.31839     30.55659         5     1.258     0.468 -33.64   0
        47    613.5110    989.0364 300.0603399 +22.8636112     8207.655     71.99938      2.221     6.16     4.596994     20.31839     392.4848        31     1.521     1.459 -64.25   3
        48    807.8473    885.1064 300.1547361 +22.8920010     465.9351     72.03607      2.010     5.50     4.819768     20.31839     40.77485         5     1.191     0.716 -16.46   0
        49    946.1811    879.5639 300.1997056 +22.9318453     347.9124     72.01773      1.479     3.64      4.87062     20.31839     28.07553         5     1.014     0.376  84.87   0
        50    764.5726    878.9485 300.1432396 +22.8772669     1508.301     72.03607      2.063     4.55     4.697789     20.31839     94.16593        24     1.325     1.209  14.60   0
        51    616.6148    876.0849 300.0980376 +22.8321083     442.5092     71.98103      1.881     4.81     4.810913     20.31839      39.0093         7     1.128     0.581 -15.33   0
        52    802.4565    872.0576 300.1572969 +22.8866372     905.2534     72.09106      2.569     9.50     4.854578     20.31839     45.60542        23     1.872     1.346  75.90   0
        53    850.7607    864.3859 300.1748612 +22.8989032     469.6021     72.03607      1.827     5.13     4.877519     20.31839     37.92588         7     0.941     0.790 -44.13   0
        54    702.1395    862.4269 300.1291407 +22.8538146     755.7853     72.01773      2.178     6.66      4.98443     20.31839     41.29365        13     1.183     1.051  20.27   0
        55    713.7099    859.8844 300.1335752 +22.8565511     605.4545     72.16433      2.065     5.70     4.866859     20.31839      38.5603        11     1.191     0.770   9.97   0
        56    414.9888    858.6775 300.0408782 +22.7666719     4256.837     72.01773      1.913     4.18     4.847911     20.31839     309.9302        39     1.480     1.398   3.90   0
        57    141.0190    843.5804 299.9605168 +22.6801793     748.1766     72.01773      2.272     6.51     8.313224     20.31839     50.81724        14     1.543     1.082  55.49   0
        58    117.3256    841.1056 299.9539518 +22.6723620     1571.631     72.16433      2.054     4.52      8.53139     20.31839     123.0915        29     1.485     1.377 -16.18   0
        59    989.1652    830.7894 300.2289809 +22.9306992     2179.955     71.99938      2.151     5.72     5.046598     20.31839     112.2366        35     1.616     1.488  -4.98   0
        60    944.4726    830.4982 300.2151235 +22.9172321      1376.53     72.14602      1.687     5.27     5.034001     20.31839     112.3115        19     1.549     0.893 -76.22   3
        61    942.2874    829.0781 300.2149031 +22.9161696     1363.633     72.16433      1.658     4.46     5.036514     20.31839     104.9919        14     1.456     0.677 -64.40   3
        62    727.0519    823.2300 300.1496509 +22.8500189     649.8024     72.03607      1.906     6.85     4.873797     20.31839     55.44812        16     1.503     1.095  31.18   0
        63    150.1861    823.1703 299.9700019 +22.6770731     340.7845     72.03607      1.736     3.76      7.01388     20.31839     33.35785         5     0.942     0.432  44.58   0
        64    595.0301    816.9447 300.1105346 +22.8086549     4893.371     72.03607      1.833     3.93     5.158978     20.31839     336.4083        40     1.426     1.360 -64.11   0
        65    397.3659    813.7833 300.0499827 +22.7485005     623.1804     71.99938      1.818     4.55      5.01974     20.31839     51.31182        12     1.232     0.978 -37.40   0
        66    145.0187    810.5355 299.9725009 +22.6718979     1489.655     71.98103      2.187     5.50     6.382179     20.31839     99.88925        26     1.499     1.299  62.75   0
        67    615.2348    809.5601 300.1192323 +22.8125886     686.0795     72.05441      1.752     4.93      5.22843     20.31839     51.58492        15     1.153     1.071 -88.92   0
        68    413.7787    809.2003 300.0565834 +22.7521051     319.4233     71.94431      1.731     4.56      5.02465     20.31839     23.38165         5     1.296     0.455  29.08   0
        69    165.2040    807.9073 299.9796340 +22.6771980      394.939     71.90758      1.383     3.01     6.167147     20.31839     49.32522         6     0.770     0.529 -52.51   0
        70    771.0688    796.7627 300.1719816 +22.8556010     4200.241     71.99938      1.877     4.12     5.041203     20.31839     280.5118        37     1.411     1.358 -39.94   0
        71    988.0308    797.3206 300.2395056 +22.9207387      1137.74     72.01773      1.951     5.20     5.056045     20.31839      61.2145        24     1.419     1.197   7.61   0
        72    179.4679    790.5436 299.9897142 +22.6764934     601.0193     72.03607      1.722     6.54     5.872797     20.31839     49.16346        15     1.434     1.030 -23.63   0
        73    488.0397    789.5297 300.0861066 +22.7687169     563.6275     71.98103      1.877     4.83     4.905382     20.31839     42.41642        12     1.412     0.809 -19.60   0
        74    134.5162    786.9738 299.9768910 +22.6619871      984.325     71.99938      1.943     5.81     5.763574     20.31839     65.68676        20     1.347     1.223  33.49   0
        75    284.0224    779.0250 300.0259921 +22.7045406     53568.64     71.98103      1.946     3.92     5.721682     20.31839     4150.918       109     1.689     1.605  23.98   0
        76    549.5213    782.9772 300.1073918 +22.7852613     455.3743     71.98103      1.684     4.50      5.25127     20.31839     35.94326         8     1.177     0.489 -23.70   0
        77    954.7993    777.7371 300.2354961 +22.9051589     875.3008     71.99938      2.097     6.40     5.135411     20.31839     52.76844        19     1.404     1.088  36.65   0
        78    542.0155    778.2426 300.1065916 +22.7816521     1568.164     72.03607      1.766     3.88     5.222233     20.31839     138.3381        23     1.206     1.177 -62.56   0
        79    212.5886    777.3967 300.0042911 +22.6826532     378.0781     71.83405      1.702     4.01     5.973012     20.31839     37.73692         8     1.077     0.663   4.67   0
        80    570.8403    774.0209 300.1169459 +22.7890777     944.7432     72.05441      1.746     4.89     5.272258     20.31839     73.37522        17     1.210     1.039  66.85   0
        81    581.5049    773.0136 300.1205968 +22.7919841     590.1248     71.94431      1.796     5.90      5.29087     20.31839      47.2055        10     1.092     0.898  17.36   0
        82    901.7963    770.4825 300.2213099 +22.8872022     487.3778     71.94431      1.737     4.11     5.233902     20.31839      34.8919         7     1.215     0.398 -15.28   0
        83    687.5835    768.9363 300.1549895 +22.8225963     483.1798     71.99938      1.777     4.84     5.351749     20.31839     44.52183         9     1.371     0.630  50.68   0
        84    724.9781    759.4058 300.1697472 +22.8310605     895.9561     71.99938      1.836     3.97       5.2659     20.31839     75.76093        15     1.188     0.989 -19.50   0
        85    333.7893    756.2753 300.0488760 +22.7129310      31615.9     72.03607      1.864     3.86     5.519262     20.31839     2567.891        79     1.559     1.529  39.43   0
        86    348.0537    757.0016 300.0530808 +22.7174158     2053.814     71.96268      2.130     3.59     5.456597     20.31839     190.7594        29     1.666     1.242  48.62   2
        87    614.9263    748.3260 300.1390359 +22.7949069     945.4276     72.07274      1.882     4.60     5.391848     20.31839     82.56166        16     1.146     1.091  55.12   0
        88    451.6196    748.4600 300.0881075 +22.7460074     521.1089     71.96268      2.047     5.40     5.160363     20.31839     42.40487         9     1.178     0.775 -14.13   0
        89    216.5996    747.8960 300.0151248 +22.6753891       801.33     71.88921      1.837     4.89     5.845592     20.31839     62.32486        14     1.193     0.987 -74.15   0
        90    462.2693    743.2315 300.0931236 +22.7476978     1045.289     71.99938      1.897     4.32     5.164304     20.31839     76.29613        20     1.251     1.094 -10.65   0
        91     20.8378    743.7311 299.9555915 +22.6154821     642.5791     71.98103      2.026     5.73     5.524034     20.31839     35.88707         9     1.766     0.524  25.76   2
        92    863.1085    740.3460 300.2190299 +22.8669547     487.7527     72.07274      1.699     5.88     5.378088     20.31839     35.21186        12     1.204     0.809  32.52   0
        93    610.4507    739.8029 300.1404102 +22.7911176     376.5489     72.01773      2.085     4.25     5.406188     20.31839     29.23595         5     0.917     0.562  40.88   0
        94    856.9939    752.5360 300.2131608 +22.8686272     2916.133     71.98103      1.959     4.42     5.329882     20.31839     165.8557        38     1.489     1.420  21.83   0
        95    408.0482    738.2174 300.0778652 +22.7300066     382.1028     72.05441      1.650     5.83     5.315142     20.31839     38.08524        11     1.140     0.838  20.96   0
        96    320.6323    739.0586 300.0503741 +22.7040439     413.7415     72.03607      1.706     3.91     5.644162     20.31839     33.99658         5     0.911     0.481 -87.98   0
        97    840.7392    735.6293 300.2135827 +22.8589002     388.7662     72.05441      1.666     5.01     5.408861     20.31839     32.43169         8     1.337     0.531 -32.08   0
        98    214.2111    732.6637 300.0193305 +22.6703010     522.2656     71.96268      1.709     5.07     5.770943     20.31839     57.64405        10     1.218     0.926 -12.37   0
        99    537.4804    723.0764 300.1231038 +22.7644485     428.4731     72.12771      1.630     4.36     5.204357     20.31839      37.9978         8     0.806     0.727   3.71   0
       100    506.9551    721.4217 300.1141305 +22.7548260     641.5173     72.07274      1.845     4.69     5.210465     20.31839     51.63833        13     1.158     0.893  21.24   0
       101    528.8450    718.8838 300.1217753 +22.7606566     1415.622     71.98103      1.745     4.45     5.216574     20.31839     111.8154        19     1.212     1.088   0.94   0
       102    416.3884    720.4322 300.0862409 +22.7273994     304.5725     71.99938      1.694     4.36     5.332961     20.31839     30.67936         5     0.996     0.543 -42.37   0
       103    923.3867    717.8994 300.2451352 +22.8785519     4492.687     71.92595      1.883     4.29     5.496179     20.31839      306.123        36     1.436     1.343 -27.78   0
       104    449.0214    718.3726 300.0970737 +22.7365884     257.4587     72.01773      1.302     5.16     5.276427     20.31839     28.16639         9     1.203     0.625  12.55   0
       105    911.6667    709.3285 300.2442619 +22.8725788     1682.434     72.05441      1.784     4.48     5.598874     20.31839     127.2705        27     1.377     1.183  41.74   0
       106    274.8192    703.1312 300.0477859 +22.6799952     808.7627     72.01773      1.741     4.78     5.850914     20.31839     76.75027        15     1.324     0.885 -47.33   0
       107    738.0150    700.4230 300.1929774 +22.8180168     2459.699     72.01773      1.770     3.77     5.701455     20.31839     188.2002        31     1.309     1.276 -19.47   0
       108    943.0040    699.6381 300.2571916 +22.8791753     1575.439     72.05441      1.816     4.42     5.600936     20.31839     108.4879        27     1.368     1.263 -23.58   0
       109    124.5376    686.7807 300.0063389 +22.6302423     509.8375     71.99938      1.550     4.33     5.479984     20.31839     58.31193        10     1.157     0.741 -83.12   0
       110    820.2877    686.3367 300.2232169 +22.8386077     626.8845     72.12771      1.756     4.06     5.849901     20.31839     46.90987        13     1.161     0.817  29.48   0
       111    856.7244    677.4821 300.2374620 +22.8469731       148294     72.12771      1.828     3.95     5.926442     20.31839     10830.44       159     1.646     1.566 -49.18   0
       112    618.9808    681.4532 300.1620260 +22.7769098     431.0063     71.99938      1.734     5.11     5.372272     20.31839     41.55687         8     1.174     0.628  42.88   0
       113   1003.6852    679.2670 300.2827540 +22.8914837     1295.556     72.10939      2.104     6.24     5.407781     20.31839     73.47871        26     1.651     1.169 -35.67   0
       114    709.3193    677.9474 300.1913300 +22.8029631     739.3343     72.03607      1.541     3.82     5.671091     20.31839     69.88422        13     1.210     0.811  -8.14   0
       115    889.4905    670.7542 300.2498725 +22.8548496     435.2456     71.99938      1.656     3.34     5.962095     20.31839     48.36279         6     0.908     0.430   0.96   0
       116    542.9709    666.1376 300.1433117 +22.7497377     1597.116     72.03607      1.573     3.30     5.397259     20.31839     135.0564        21     1.167     1.057  -1.22   0
       117    724.1422    663.5218 300.2006384 +22.8032570     9321.217     72.05441      1.712     3.47     5.820866     20.31839     787.1057        48     1.384     1.349 -41.96   0
       118    225.5826    658.3069 300.0470229 +22.6523661     5015.678     71.94431      1.868     3.89     5.623902     20.31839     393.7548        41     1.433     1.412  44.59   0
       119    307.7604    656.7582 300.0731023 +22.6765560     1258.842     72.10939      1.661     3.41     6.019855     20.31839     110.4801        19     1.115     1.058  71.43   0
       120    183.2427    654.1966 300.0351840 +22.6384923     485.9499     72.03607      1.662     5.58      5.44223     20.31839     50.08406        10     1.412     0.624  11.31   0
       121    516.4406    652.0287 300.1396278 +22.7377357     699.0023     72.03607      1.572     4.85     5.450303     20.31839     58.51197        16     1.248     0.960 -69.02   0
       122    507.5465    644.2565 300.1393811 +22.7328382     3243.721     72.07274      1.676     3.37     5.474636     20.31839     320.4683        30     1.271     1.177  15.25   0
       123    497.7589    637.9825 300.1383694 +22.7281033     1431.099     72.03607      1.639     3.57     5.482085     20.31839     133.8826        19     1.161     1.000 -36.29   0
       124    891.4928    635.9973 300.2617872 +22.8454565     548.5276     71.92595      1.933     6.28     5.963125     20.31839     42.03683         9     1.259     0.880 -28.60   0
       125    161.2954    634.1312 300.0348727 +22.6261522     856.4094     72.14602      1.972     3.97     5.356141     20.31839      63.5652        14     1.136     0.953  85.06   0
       126    175.4565    632.6018 300.0397748 +22.6299588     654.6285     71.96268      1.756     5.22     5.385049     20.31839     52.46363        13     1.264     0.824 -24.75   0
       127    944.7577    630.0039 300.2803590 +22.8596786     563.0261     72.03607      1.709     3.80     5.929543     20.31839     54.57244         8     1.341     0.584  -2.68   0
       128    422.6328    627.6692 300.1183172 +22.7026300     1813.404     71.99938      1.672     3.30     5.828552     20.31839     182.2596        22     1.204     1.113  -4.56   0
       129    200.8602    629.1593 300.0487966 +22.6365866      396.004     72.01773      1.526     5.78      5.42597     20.31839     55.35308         9     1.435     0.829  19.18   0
       130    521.7244    628.3479 300.1489652 +22.7325158      432.604     72.03607      1.717     4.82     5.569873     20.31839       39.809         8     0.969     0.679  -2.83   0
       131    998.4361    625.2697 300.2986547 +22.8743845     827.7609     72.01773      1.887     6.23     5.855788     20.31839     66.32504        17     1.297     1.274 -39.07   0
       132     76.5197    622.3244 300.0123389 +22.5973440     19874.94     72.12771      1.986     4.00     5.985246     20.31839     1528.333        77     1.707     1.564  26.53   0
       133    507.6776    622.8464 300.1463753 +22.7267269      1205.89     72.01773      1.945     4.99      5.55977     20.31839     96.29868        21     1.383     1.237 -35.42   0
       134    543.1763    622.2094 300.1576432 +22.7371791     404.5428     72.01773      1.907     3.03     5.649882     20.31839     32.78043         6     0.733     0.575  44.35   0
       135    260.6869    614.8663 300.0720552 +22.6504173     415.5523     72.10939      1.640     4.96     5.702011     20.31839     34.79693         6     1.137     0.612 -11.59   0
       136    925.7439    609.5250 300.2810750 +22.8480982     979.9946     72.05441      1.754     5.20      5.96389     20.31839     78.28596        19     1.326     1.061 -31.56   0
       137     22.5712    606.3743 300.0007436 +22.5765886     1558.066     72.01773      2.313     6.09     6.186576     20.31839     94.92827        31     1.675     1.435  81.88   0
       138    792.1118    607.0133 300.2401917 +22.8073690     417.0831     71.96268      1.645     5.56     6.083792     20.31839     52.71432        11     1.093     0.799 -82.38   0
       139     89.2945    607.0306 300.0212779 +22.5967849     431.4717     71.92595      2.180     5.41     6.038547     20.31839     47.78139         8     1.278     0.646 -39.78   0
       140    470.7350    603.5651 300.1411278 +22.7101194     396.2344     72.01773      1.463     4.23     5.643309     20.31839     61.41176         6     1.115     0.458  28.61   0
       141    865.9579    602.3468 300.2647473 +22.8281369     858.3463     72.01773      2.334     7.85     5.961839     20.31839     59.95139        14     1.809     0.958   1.31   2
       142    427.7522    595.8417 300.1302473 +22.6950219     727.2192     72.05441      1.610     3.96     5.959725     20.31839     73.21819        14     1.075     0.920 -31.30   0
       143    575.7512    594.3893 300.1768290 +22.7389440     515.2971     72.03607      1.675     4.65     5.720684     20.31839     57.64719        10     1.182     0.799 -60.97   0
       144    622.9952    593.3079 300.1919056 +22.7527844     481.3479     71.92595      1.669     4.26     5.643275     20.31839     41.39862         7     0.861     0.603  21.21   0
       145    593.3408    592.9017 300.1827942 +22.7437854     618.9886     72.10939      1.564     4.05     5.669207     20.31839     66.86867        11     1.139     0.708 -12.79   0
       146    472.1048    591.8254 300.1453666 +22.7071573     1059.775     71.94431      1.870     3.43      5.71664     20.31839     86.92587        17     1.181     0.928   2.29   0
       147    905.7826    587.5717 300.2819739 +22.8358103     3205.754     72.01773      1.699     3.50     5.957678     20.31839     279.9101        31     1.306     1.242  69.22   0
       148    437.5197    587.1182 300.1361221 +22.6954427     1765.146     72.16433      1.734     3.21      5.92142     20.31839     154.7153        24     1.187     1.125  29.29   0
       149   1004.0819    585.9726 300.3131797 +22.8647723     685.2555     72.01773      1.654     4.80     5.979973     20.31839     63.33566        12     1.205     0.843  68.35   0
       150    802.3679    584.4297 300.2507250 +22.8039475     272.8228     72.01773      1.642     4.18     6.046426     20.31839     27.80627         5     0.988     0.504 -43.69   0
       151      1.2256    580.4639 300.0025203 +22.5627515     1408.592     55.48074      1.034     2.98      6.20732     20.31839     323.6441        12     1.207     0.444 -84.85  24
       152    466.3988    577.9852 300.1480831 +22.7014717     291.6822     71.87083      1.632     4.97      5.83413     20.31839      37.0416         7     1.134     0.617 -25.49   0
       153    300.7583    573.7686 300.0978723 +22.6506262     9303.167     72.05441      1.722     3.48      5.99108     20.31839     794.8696        50     1.427     1.365  -9.40   0
       154    423.2844    570.8569 300.1369683 +22.6865063     8978.498     72.10939      1.626     3.29     6.008677     20.31839     844.4166        44     1.316     1.304   2.29   0
       155    835.0917    565.1799 300.2671851 +22.8082101     1913.352     71.94431      1.692     3.72      5.97351     20.31839     151.7991        24     1.203     1.180  83.10   0
       156    919.7133    562.5598 300.2944437 +22.8327875     12425.66     71.99938      1.749     3.81     5.950249     20.31839     981.8078        52     1.439     1.371 -80.87   0
       157    483.9124    560.5294 300.1592066 +22.7017036     11789.58     72.18263      1.622     3.18     5.912815     20.31839     1131.924        49     1.350     1.307  33.09   0
       158    653.6285    556.6859 300.2133466 +22.7514340     498.1783     72.01773      1.556     3.45     5.738801     20.31839     55.73281         7     1.104     0.741 -21.31   0
       159    211.4918    555.9112 300.0758882 +22.6187432     1347.896     72.18263      1.629     3.32     5.938714     20.31839     162.0447        21     1.189     1.069 -20.93   0
       160    369.1687    555.1801 300.1252057 +22.6657881      234.515     72.01773      1.499     3.80     6.027199     20.31839     27.65642         5     0.966     0.429  45.28   0
       161    458.1245    553.7914 300.1533608 +22.6920421     340.2979     71.99938      1.361     3.92     5.985581     20.31839     33.30105         6     0.771     0.572 -39.84   0
       162    758.5992    548.8761 300.2486160 +22.7806217     882.0533     71.90758      1.550     3.44     5.862987     20.31839     74.66448        16     1.099     0.963  40.74   0
       163    415.5735    548.6892 300.1417639 +22.6778279     4457.238     71.98103      1.677     3.21     6.027199     20.31839     458.3455        36     1.314     1.263  17.35   0
       164    393.8582    547.0992 300.1355174 +22.6708647     1367.499     72.10939      1.657     4.02     6.027199     20.31839     118.6886        22     1.194     1.130  71.74   0
       165    148.4385    546.2064 300.0594216 +22.5970561     647.2048     72.05441      1.593     6.35     6.008826     20.31839     62.31496        13     1.407     0.804  66.50   0
       166    835.4689    544.4868 300.2740215 +22.8023731     1572.051     72.12771      1.732     4.05      5.94638     20.31839     116.1444        24     1.341     1.090 -47.93   0
       167     82.8463    544.3856 300.0396114 +22.5768695     238.1013     72.03607      1.052     4.40     6.153569     20.31839     32.00767         5     0.985     0.560  46.51   0
       168    532.2654    536.3099 300.1821349 +22.7092292     206179.2     72.14602      1.595     2.96     6.136148     20.31839        21453       194     1.569     1.495 -19.02   0
       169    356.3731    542.6327 300.1252950 +22.6583498      334.489     72.01773      1.370     2.62     6.024277     20.31839     56.57983         5     0.704     0.477 -81.08   0
       170    715.9338    541.2991 300.2377695 +22.7656686     884.6027     72.10939      1.640     3.95     5.794809     20.31839     81.67602        18     1.245     1.006  72.97   0
       171    218.3153    535.9828 300.0844809 +22.6150661     3518.827     71.98103      1.760     3.48     6.051779     20.31839      323.601        35     1.425     1.260  40.51   0
       172    784.1235    532.5706 300.2618714 +22.7835756      541.711     71.99938      1.694     3.99     5.910402     20.31839     56.57095         9     0.977     0.833  81.56   0
       173    422.8152    516.9415 300.1543256 +22.6708768     2737.874     71.99938      1.691     3.12      6.03769     20.31839     265.6974        34     1.602     1.200 -82.78   0
       174    267.4673    519.1870 300.1052295 +22.6249738     352.0802     72.01773      1.298     3.40     5.979909     20.31839     53.55835         7     0.931     0.592 -39.15   0
       175    834.2622    513.4736 300.2837133 +22.7930941     299.5066     72.05441      1.574     3.46     5.947511     20.31839     40.49057         5     0.803     0.430  22.03   0
       176    653.8075    512.3636 300.2277914 +22.7387480     403.1912     72.01773      1.672     2.05      5.90308     20.31839      44.2825         5     0.687     0.453 -18.18   0
       177    740.2617    505.2092 300.2570726 +22.7625774     300.4195     71.94431      1.568     5.35     5.810985     20.31839     36.86623        10     1.079     0.749 -47.30   0
       178    819.8400    503.0089 300.2826106 +22.7857677      1715.98     72.01773      1.598     3.28     5.949197     20.31839     143.2403        22     1.155     1.112 -83.29   0
       179    691.1589    500.6542 300.2432383 +22.7465663     2557.507     71.98103      1.544     3.18     5.899378     20.31839     233.4878        23     1.143     1.099   7.04   0
       180    935.4862    498.1406 300.3202810 +22.8189809     427.7372     72.12771      1.401     4.83     5.967884     20.31839     38.05957         9     1.091     0.607 -24.88   0
       181    900.8198    497.9107 300.3095352 +22.8085399     361.2474     71.96268      1.472     4.49     5.944899     20.31839     33.86786         7     1.107     0.517  51.89   0
       182    596.0534    497.2858 300.2146821 +22.7171190     454.6609     72.05441      1.336     3.20       6.0808     20.31839     51.34534         8     0.940     0.616 -13.22   0
       183    478.3978    496.3263 300.1783308 +22.6816044     796.2778     71.92595      1.614     3.37     6.210108     20.31839     82.71906        15     1.093     0.885  -0.49   0
       184    948.3937    494.6857 300.3254317 +22.8218499     1328.003     71.94431      1.840     4.24     6.021729     20.31839     100.8117        23     1.325     1.175 -17.33   0
       185    820.1012    493.1873 300.2858802 +22.7830216     2239.277     71.92595      1.940     5.07     5.949703     20.31839     194.3293        31     1.593     1.124  83.25   0
       186    934.3219    494.2431 300.3211827 +22.8175114     701.0734     71.99938      1.948     5.20     5.965472     20.31839     46.06175        10     1.151     0.664  19.79   0
       187    573.5410    491.1855 300.2096456 +22.7086237      711.009     71.99938      1.898     3.79     6.217579     20.31839     59.56255        12     1.069     0.803  45.72   0
       188    858.3328    488.1100 300.2994574 +22.7930050     4195.299     72.16433      1.651     3.27     5.945686     20.31839     380.3382        36     1.329     1.276 -87.28   0
       189    412.6497    489.9140 300.1599325 +22.6600663     385.3148     72.01773      1.394     3.81      6.02193     20.31839     42.69725         6     0.993     0.420 -75.44   0
       190    359.3824    491.0128 300.1429881 +22.6444233     333.7112     71.98103      1.608     5.74     5.952183     20.31839     30.11661         9     1.164     0.798 -83.90   0
       191    950.0964    479.0522 300.3310378 +22.8178624     755.7615     72.09106      1.595     3.86     6.045794     20.31839     68.65608        16     1.208     0.968  18.52   0
       192     90.0717    478.0320 300.0633956 +22.5599862     1154.731     72.01773      2.089     5.52     6.027396     20.31839     93.92889        24     1.461     1.297 -14.15   0
       193     82.6901    468.3167 300.0642528 +22.5549840     397.2313     72.12771      1.477     4.79     5.949432     20.31839     37.19908         7     1.032     0.629  17.81   0
       194    690.7709    462.5510 300.2554848 +22.7354958     395.2768     72.03607      1.499     5.22     5.975679     20.31839     50.18277         9     1.206     0.638  -7.08   0
       195    579.6254    460.2170 300.2215931 +22.7015449     509.5365     72.03607      1.654     2.84     6.216455     20.31839     55.44136         7     0.836     0.613  -9.80   0
       196    631.8060    458.7328 300.2383397 +22.7167434     719.9153     71.99938      1.532     3.12       6.0833     20.31839     73.08562        12     0.962     0.822  58.97   0
       197    946.4638    451.0123 300.3390046 +22.8087094     557.2862     71.98103      1.661     6.28     5.970197     20.31839     55.76688        12     1.192     0.928 -66.95   0
       198    692.4879    450.7292 300.2598568 +22.7326110     941.4748     72.18263      1.659     3.61     5.985517     20.31839     99.19028        15     1.087     0.979  50.58   0
       199    849.9026    446.9047 300.3102006 +22.7786312     1107.591     72.20094      1.676     4.98     5.961679     20.31839     107.3876        23     1.428     1.245 -44.12   0
       200    833.9857    443.7795 300.3062483 +22.7729686     590.6279     71.98103      1.448     3.08     5.977563     20.31839     75.99283        12     1.060     0.731  23.59   0
       201    814.8677    444.1248 300.3001714 +22.7673459     339.5756     72.09106      1.560     3.79     5.994856     20.31839     31.27984         5     0.981     0.420 -44.80   0
       202    578.3206    441.2372 300.2273459 +22.6956986     3240.244     71.98103      1.545     3.02     6.198458     20.31839     342.8029        26     1.202     1.112  48.78   0
       203    938.8356    440.8276 300.3399287 +22.8034970     539.9423     72.03607      1.758     5.24      5.94503     20.31839     37.00515         9     1.118     0.695  45.45   0
       204     55.3610    431.9241 300.0675634 +22.5363429     331.0786     71.98103      1.602     3.39      5.71708     20.31839     40.06377         5     0.831     0.400 -68.55   0
       205    584.1420    429.3335 300.2330231 +22.6940200     278.3501     72.05441      1.319     2.97     6.169349     20.31839     38.88131         6     0.733     0.617 -56.06   0
       206    418.2104    428.0777 300.1817321 +22.6439646     403.9776     71.98103      1.587     4.42     6.116866     20.31839     41.64075         7     0.877     0.635 -63.95   0
       207    989.9612    420.5420 300.3624729 +22.8129581     1272.848     72.01773      1.719     3.84     5.846717     20.31839     117.9424        23     1.253     1.218 -45.36   0
       208    861.6373    420.7525 300.3223492 +22.7746211     467.9519     72.05441      1.465     3.39     5.956318     20.31839     74.61492         8     0.933     0.702 -16.99   0
       209    947.9556    419.7426 300.3496182 +22.8001601     908.0794     72.05441      1.550     2.98     5.904767     20.31839     106.3423        16     1.118     0.848  -1.60   0
       210    597.7966    417.3871 300.2411556 +22.6946745     361.3358     71.85245      1.426     3.80     6.132742     20.31839     38.26547         5     0.975     0.424 -15.82   0
       211    688.9626    415.5179 300.2701840 +22.7214316     1117.823     71.98103      1.495     3.09     6.026225     20.31839      104.905        16     1.056     0.916 -21.60   0
       212    484.8005    415.8284 300.2064494 +22.6603891     430.7211     71.98103      1.539     2.64      6.22441     20.31839     52.58956         7     0.840     0.559 -58.38   0
       213    192.6827    413.2889 300.1163240 +22.5721479     700.4307     72.12771      1.772     3.24     5.991899     20.31839     73.93388        15     1.060     0.988  50.62   0
       214     33.2442    411.8067 300.0672136 +22.5239372     334.1848     72.03607      1.680     4.41     5.677079     20.31839     32.39627         5     1.273     0.435  60.84   0
       215    988.5361    407.7709 300.3661722 +22.8088572     4392.135     72.03607      1.757     3.72     5.820504     20.31839     333.2588        37     1.400     1.304 -45.88   0
       216    255.2417    408.8184 300.1372421 +22.5896091     3782.788     72.03607      1.644     3.24     6.110186     20.31839     391.3835        36     1.314     1.279  41.94   0
       217    202.4441    403.6163 300.1224996 +22.5722948     7553.897     72.03607      1.716     3.21     6.050918     20.31839     830.0602        47     1.406     1.352  30.53   0
       218    343.3330    398.0043 300.1681729 +22.6128938     4802.507     71.99938      1.591     3.01     6.149959     20.31839     460.5017        37     1.319     1.221 -66.19   0
       219    587.5043    394.7865 300.2452807 +22.6850956     18668.98     71.94431      1.554     2.98     6.221685     20.31839     2015.961        62     1.365     1.324  51.01   0
       220    605.0327    395.1202 300.2506360 +22.6904397     757.2986     71.99938      1.916     5.79      6.20221     20.31839     72.16269        14     1.439     0.783 -48.42   0
       221    968.3694    398.9780 300.3627290 +22.8002938     1917.069     72.01773      1.739     3.62     5.847629     20.31839      155.655        26     1.301     1.174 -84.39   0
       222    784.5861    385.2040 300.3098436 +22.7413370     388.8463     71.85245      1.681     5.51     6.032013     20.31839     43.96405         7     1.463     0.586  -9.72   0
       223    208.0251    381.7940 300.1313160 +22.5676988     278.8253     71.99938      1.338     4.58     6.144808     20.31839     34.61989         8     0.999     0.596 -62.14   0
       224    920.8834    377.7026 300.3548083 +22.7799653     720.8527     72.18263      1.667     4.42     5.872234     20.31839     55.29855        17     1.178     1.025  -2.35   0
       225    142.1676    374.7558 300.1131093 +22.5459430     2012.319     72.07274      1.723     3.27     6.015401     20.31839     205.6645        28     1.273     1.223  32.75   0
       226    528.2097    364.2148 300.2367203 +22.6585530      6591.06     71.92595      1.497     2.84     6.326943     20.31839     663.5074        37     1.283     1.154  64.48   0
       227    941.7751    365.0092 300.3654479 +22.7825638     1209.263     72.01773      1.680     3.46     5.831937     20.31839      103.352        20     1.192     1.076 -28.27   0
       228    243.0740    363.3977 300.1481907 +22.5729154     625.3391     71.92595      1.464     2.81     6.277438     20.31839     75.16782        10     0.882     0.763 -37.53   0
       229    100.7914    357.1314 300.1059563 +22.5284817     529.8234     71.99938      1.770     3.90     6.075254     20.31839     58.55001        10     1.173     0.695 -30.30   0
       230    788.5403    356.5233 300.3203820 +22.7342712     125.5411     72.07274      1.150     3.66     6.041235     20.31839     34.29699         6     0.917     0.420 -19.40   0
       231    641.9877    354.6391 300.2752893 +22.6898644     497.3315     72.01773      1.392     2.92     6.195371     20.31839     88.36166        12     0.976     0.863 -19.30   0
       232    732.3472    353.3910 300.3038703 +22.7165526     1213.415     72.01773      1.640     3.38     6.019704     20.31839     125.2871        21     1.230     1.099  47.13   0
       233   1019.3723    353.0556 300.3935532 +22.8023374     273.4735     72.01773      1.410     3.86     5.814087     20.31839     29.25431         5     0.882     0.483 -89.41  16
       234    434.8545    350.4100 300.2121143 +22.6266293     6137.315     72.01773      1.577     2.96     6.309914     20.31839     685.4351        39     1.291     1.241 -88.20   0
       235    924.2852    345.5723 300.3662939 +22.7717388     605.3845     72.01773      1.811     5.32     5.822165     20.31839      48.8089        10     1.206     0.809 -69.88   0
       236    826.6556    345.0400 300.3359986 +22.7423742     1548.348     71.99938      1.551     3.17     6.029487     20.31839     139.8951        23     1.254     1.063  43.53   0
       237    419.5981    339.3380 300.2109539 +22.6188780     381.5663     71.99938      1.393     3.19     6.309914     20.31839     65.06229         9     0.908     0.860   8.46   0
       238    501.9053    337.4697 300.2371999 +22.6429883     426.1428     72.12771      1.534     3.43     6.321131     20.31839     47.16028         8     0.815     0.760 -19.92   0
       239    779.8977    336.4207 300.3242071 +22.7259025     330.4666     71.94431      1.516     4.28     6.135045     20.31839     33.70954         5     0.975     0.535  46.39   0
       240    799.1389    332.5791 300.3314557 +22.7305555     487.8388     71.98103      1.441     4.42     6.164963     20.31839     63.15654         8     1.176     0.472  58.85   0
       241    322.3200    329.6208 300.1838140 +22.5869501     2564.975     71.99938      1.595     3.28     6.361312     20.31839     287.6942        27     1.223     1.136  32.70   0
       242     41.0981    326.8988 300.0971986 +22.5019099     993.0086     72.23752      1.774     4.47      6.47373     20.31839     85.32139        19     1.360     1.089   0.19   0
       243    291.7304    318.9596 300.1777491 +22.5747238     30079.04     71.99938      1.642     3.18     6.421069     20.31839     2793.838        74     1.463     1.372  61.02   0
       244    826.4900    316.9615 300.3450549 +22.7342472     1270.864     71.99938      1.510     2.96     6.107058     20.31839     127.0286        21     1.193     0.998 -32.35   0
       245    781.2556    314.3003 300.3318058 +22.7199460     350.5148     72.10939      1.545     4.65     6.261895     20.31839     33.56995         6     0.882     0.730  75.97   0
       246    741.8044    305.9924 300.3221946 +22.7057503     507.7259     71.87083      1.416     2.76     6.271554     20.31839     68.91494        10     0.869     0.751  -6.97   0
       247    166.0771    305.4319 300.1430330 +22.5331943      450.356     71.99938      1.363     3.12     6.416744     20.31839      57.8043         7     0.990     0.493 -28.34   0
       248    390.2360    304.3166 300.2131683 +22.6000191     481.6171     71.99938      1.437     4.33     6.321958     20.31839     49.02554         7     0.851     0.628 -32.86   0
       249    702.2282    298.9262 300.3121437 +22.6918737     2144.583     72.03607      1.624     4.91     6.165381     20.31839     176.6143        24     1.376     1.040  77.71   0
       250    917.2560    292.5639 300.3812939 +22.7543833     607.5684     72.03607      1.718     5.81     5.802337     20.31839     57.60519        12     1.408     0.744  36.82   0
       251    510.6710    293.8419 300.2540813 +22.6330707     335.4257     71.98103      1.233     3.65     6.302787     20.31839      46.5669         6     0.929     0.567 -23.11   0
       252    363.9500    283.3882 300.2117699 +22.5861320      2258.26     72.05441      1.747     3.87     6.339569     20.31839     193.7256        26     1.353     1.087  60.81   0
       253    576.7267    282.6473 300.2782968 +22.6496274     275.2599     72.01773      1.159     3.38     6.254395     20.31839     36.90196         5     0.749     0.441  17.67   0
       254    803.4396    276.6886 300.3509249 +22.7157642     621.4786     71.99938      1.468     2.94      6.40755     20.31839     74.94547        11     0.928     0.814 -39.13   0
       255    685.2034    273.8140 300.3149789 +22.6795558     518.0455     71.85245      1.646     5.53     6.152445     20.31839     53.39232         9     1.136     0.759  76.90   0
       256    439.7959    262.8334 300.2420567 +22.6029356     1201.863     72.01773      1.501     3.82     6.273792     20.31839     111.6354        19     1.205     0.990  50.86   0
       257    684.7969    254.8735 300.3209941 +22.6739864     2097.987     71.92595      1.496     3.17     6.208789     20.31839     222.7453        23     1.137     1.063 -74.91   0
       258    946.1014    249.2982 300.4043292 +22.7505608      3052.59     72.23752      1.669     3.45     5.925302     20.31839     311.3471        33     1.380     1.248  86.45   0
       259    492.2741    248.0011 300.2632145 +22.6143834     201.0721     71.90758      1.339     3.88     6.263216     20.31839     32.06436         5     1.299     0.331  26.12   0
       260   1007.1780    244.6533 300.4249046 +22.7674909     285.8194     72.03607      1.248     4.88      6.43139     20.31839     44.51912         8     1.187     0.568  37.00   0
       261    393.1304    238.7285 300.2353383 +22.5820334     578.4088     72.09106      1.478     2.97     6.276946     20.31839     82.55702        11     1.051     0.704 -20.28   0
       262   1015.6327    237.2623 300.4299413 +22.7678918      1570.99     72.01773      1.735     3.57     6.628817     20.31839     171.3248        24     1.374     1.102 -68.35  16
       263     66.9968    232.7522 300.1357807 +22.4826300      1871.87     71.99938      2.378     9.25     6.668468     20.31839     427.7329        30     1.849     1.292 -28.90   0
       264     99.2517    232.8347 300.1457855 +22.4923176     601.3162     72.03607      1.769     2.59     6.601385     20.31839     66.32027         8     0.870     0.585  84.86   0
       265    961.9216    230.1768 300.4154683 +22.7497892     461.1722     71.99938      1.260     3.52     6.155608     20.31839      62.7587         8     0.823     0.750  17.69   0
       266    805.9033    227.1679 300.3677515 +22.7022537     436.2054     71.98103      1.593     3.48     6.378144     20.31839      46.3884         8     0.852     0.651  50.86   0
       267    151.5511    224.7699 300.1646687 +22.5056688     655.4106     72.03607      2.088     6.50     6.580099     20.31839     55.17207        12     1.405     0.861 -28.21   0
       268    947.0689    222.4807 300.4133268 +22.7431318      249.627     72.12771      1.345     3.52     6.035536     20.31839      40.6349         6     0.939     0.619 -29.78   0
       269    756.5223    216.5303 300.3557958 +22.6844189     691.2708     72.12771      1.625     3.63      6.38693     20.31839     71.25513        13     1.076     0.901  79.53   0
       270    346.9754    215.9013 300.2283665 +22.5616510     477.6408     71.94431      1.587     3.36     6.397482     20.31839     57.45932         8     1.141     0.511  12.56   0
       271    854.7109    205.4307 300.3900281 +22.7105998     2091.484     71.99938      1.622     2.91     6.067801     20.31839     234.9671        27     1.272     1.143 -80.22   0
       272    273.1063    202.3768 300.2097542 +22.5356426     2125.025     71.94431      1.619     3.08     6.662415     20.31839     214.9575        25     1.193     1.155  -0.36   0
       273    351.3480    197.7674 300.2356067 +22.5577477     962.6698     72.03607      1.551     3.03     6.439073     20.31839     102.1969        15     1.109     0.826 -25.53   0
       274    753.0719    197.0404 300.3610382 +22.6777792     501.9409     71.99938      1.365     4.89     6.404038     20.31839     76.52219        10     1.103     0.835 -36.15   0
       275    103.3242    197.6634 300.1584541 +22.4834334     440.7149     72.07274      1.767     3.20     6.729963     20.31839     46.30867         5     0.979     0.348  20.41   0
       276    860.1832    194.3648 300.3953234 +22.7090522     313.7209     72.01773      1.268     4.24     6.136008     20.31839     41.57273         6     0.769     0.667 -43.30   0
       277    285.7839    189.3324 300.2179290 +22.5356901     262.0312     72.01773      1.856     5.47      6.69437     20.31839     32.83784         7     1.353     0.623  33.79   0
       278    167.8782    189.7726 300.1810934 +22.5005037     791.2438     72.03607      1.654     3.33     6.755762     20.31839      68.6922        13     0.999     0.890  12.09   0
       279    705.6324    186.8119 300.3495584 +22.6606425     1823.927     71.99938      1.671     3.13     6.327493     20.31839     183.3211        23     1.146     1.127  61.66   0
       280    770.6122    186.4237 300.3699513 +22.6799722     494.2914     72.01773      1.476     3.28     6.423227     20.31839      68.6125        12     1.019     0.828 -30.35   0
       281    137.0201    185.5137 300.1728738 +22.4900366     569.2823     71.94431      2.683     3.80     6.774849     20.31839      26.9665         6     1.260     0.329  51.11   0
       282    189.0223    182.8201 300.1899258 +22.5048391     609.6507     72.01773      1.592     3.96     6.812557     20.31839     75.21215        13     1.253     0.796  25.78   0
       283    977.2696    179.5404 300.4366769 +22.7398037     952.7058     72.05441      1.766     4.12     6.604651     20.31839     97.33214        16     1.257     0.961  34.79   0
       284    709.7280    178.4736 300.3535386 +22.6594690     894.4832     72.07274      2.021     5.30     6.340514     20.31839     69.29393        16     1.291     0.897 -42.41   0
       285    630.2119    177.6071 300.3290258 +22.6354263     1315.163     71.88921      1.499     2.87     6.236917     20.31839     157.7742        18     1.072     1.031  33.17   0
       286    479.2504    179.2764 300.2814375 +22.5907239     439.3643     72.01773      1.402     3.09     6.274678     20.31839     46.87891         6     0.745     0.556  51.75   0
       287    451.2138    174.0843 300.2743862 +22.5808382     405.4793     71.96268      1.614     3.69     6.276145     20.31839      35.8628         5     0.790     0.512 -34.98   0
       288    825.6965    168.8791 300.3928239 +22.6914021      1480.33     72.12771      1.646     3.58      6.40926     20.31839     130.4941        26     1.343     1.162  83.37   0
       289    837.5468    168.3891 300.3966803 +22.6948058     844.4089     72.01773      1.642     3.65     6.400451     20.31839      92.1527        15     1.139     0.944  60.24   0
       290    556.3006    168.9553 300.3087919 +22.6108182     876.5674     72.03607      1.559     4.33     6.239038     20.31839     94.90366        16     1.153     1.038  31.15   0
       291    998.7277    159.3340 300.4499270 +22.7404033     1660.186     72.05441      1.652     3.56     6.820218     20.31839     162.8219        23     1.280     1.084 -58.63   0
       292    954.5034    158.7315 300.4363145 +22.7270056     1077.638     72.14602      1.553     3.79     6.594085     20.31839     111.2792        16     1.186     0.958 -40.96   0
       293    188.4776    151.1906 300.2000081 +22.4955864     755.6193     71.98103      1.619     4.03     6.934032     20.31839     75.59341        15     1.246     0.962  11.69   0
       294     50.3770    145.7422 300.1588161 +22.4526545     2220.951     72.01773      1.951     4.06     7.098923     20.31839     207.9108        37     1.528     1.418  62.13   0
       295    873.4966    143.2559 300.4160454 +22.6983250     796.5005     72.10939      1.720     3.94     6.410883     20.31839     86.73941        12     1.109     0.864 -84.76   0
       296    207.6938    139.1728 300.2098824 +22.4978876     5681.362     71.94431      1.738     3.25     6.958696     20.31839     571.9923        41     1.412     1.333  66.37   0
       297    191.4568    130.1070 300.2077680 +22.4904194     696.0628     72.07274      1.848     3.44     6.950859     20.31839     60.34596        12     1.052     0.802 -55.15   0
       298   1006.7643    127.1574 300.4628658 +22.7335425     18337.27     72.07274      1.814     3.50     6.870842     20.31839     1775.081        64     1.578     1.434 -74.67   0
       299    852.0081    121.0972 300.4165212 +22.6855204     3534.903     71.90758      1.658     3.23     6.360632     20.31839      374.632        33     1.398     1.174 -78.09   0
       300    955.6213    120.0963 300.4491859 +22.7162177     2760.283     71.92595      1.766     3.45     6.568597     20.31839     243.3795        32     1.356     1.299  19.73   0
       301    401.4911    116.2480 300.2776436 +22.5493232     556.3874     72.03607      1.494     3.35     6.375254     20.31839     67.80383        11     0.964     0.884  65.61   0
       302    155.0356    116.5373 300.2008334 +22.4756117     343.3684     72.01773      1.363     4.10     6.948886     20.31839     48.14705         5     0.942     0.510 -45.49   0
       303    328.4979    106.4271 300.2580963 +22.5246475     722.3229     71.96268      2.896     6.91     6.643708     20.31839     64.05579         9     1.578     1.014  -6.99   2
       304     91.1584    104.6371 300.1848193 +22.4530600     731.7874     72.10939      1.949     4.55     6.996889     20.31839     63.22435        12     1.132     0.905 -67.54   0
       305    452.7727    103.3123 300.2978088 +22.5609536     1740.403     71.99938      1.675     3.29     6.318586     20.31839     185.8149        23     1.309     1.151 -22.32   0
       306    380.7463    104.2257 300.2750789 +22.5396563     569.4573     72.03607      1.669     3.03     6.448362     20.31839     75.08978         8     1.012     0.574  -1.76   0
       307    514.5054    102.7766 300.3172157 +22.5792757     344.0143     71.90759      1.936     3.78     6.294373     20.31839     35.97291         5     0.868     0.565  39.95   0
       308    196.3102     98.8995 300.2193910 +22.4829034     422.3994     72.18263      1.617     4.96     6.971298     20.31839     43.52759         6     1.222     0.571   2.42   0
       309    741.2004     93.4614 300.3909072 +22.6444236     452.8308     71.98103      1.524     4.06     6.447576     20.31839     40.22363         7     0.996     0.473 -10.28   0
       310    588.4485     90.0987 300.3443682 +22.5977562    -1433.784     72.05441      1.587     5.45     6.392517     20.31839     29.66833         6     1.241     0.676 -48.97   0
       311    887.5826     87.8761 300.4383892 +22.6865967     349.6407     72.01773      1.479     3.86     6.315957     20.31839     45.24032         6     1.038     0.582 -63.10   0
       312   1017.2236     84.5054 300.4799543 +22.7243885     3656.452     71.90759      1.873     3.75     6.841895     20.31839      305.171        41     1.528     1.394 -64.71  16
       313    637.8397     85.1857 300.3613571 +22.6111209     190.1092     72.03607      1.163     2.78     6.423105     20.31839     37.86803         5     0.712     0.683  35.86   0
       314    226.6922     82.9817 300.2340032 +22.4874258     6029.889     71.94431      1.744     3.51     6.844077     20.31839     601.0361        43     1.471     1.323  58.86   0
       315     78.1497     82.6127 300.1879097 +22.4428347     715.5753     72.07274      1.861     5.14     7.105532     20.31839     70.10525        11     1.120     0.803 -25.76   0
       316    198.8833     77.6617 300.2270730 +22.4775695     319.9699     72.10939      1.459     4.03      6.91106     20.31839     39.67119         6     1.055     0.441 -10.35   0
       317    241.5217     74.2630 300.2414433 +22.4893598     315.1597     72.10939      1.670     4.98     6.739436     20.31839     33.62759         7     1.274     0.552  20.70   0
       318    472.8376     68.4911 300.3153425 +22.5569443     6267.055     71.99938      1.662     3.21     6.323281     20.31839     656.3941        39     1.396     1.213  75.37   0
       319    358.1572     68.3894 300.2796562 +22.5225898     468.1569     72.01773      1.290     4.07     6.468366     20.31839      68.0903         9     1.133     0.597 -22.43   0
       320    530.2651     63.2002 300.3349502 +22.5726081     235.2013     71.99938      1.124     3.87     6.631912     20.31839     38.34809         6     0.777     0.552  44.10   0
       321    666.7654     60.3230 300.3784317 +22.6126210     277.5569     71.98103      1.153     3.60      6.57316     20.31839     49.61734         5     0.758     0.664  12.22   0
       322    725.1381     58.8530 300.3971113 +22.6296594     857.5975     72.07274      1.685     3.46     6.597024     20.31839     85.37094        11     0.983     0.819 -10.79   0
       323    817.9745     57.2104 300.4266038 +22.6569531      573.458     72.01773      1.989     6.60     6.171087     20.31839     46.89569        12     1.400     0.936 -85.62   0
       324    166.5683     52.5952 300.2251392 +22.4606878     433.9997     71.99938      1.464     2.63     7.135808     20.31839     49.32327         6     0.810     0.498 -45.05   0
       325    524.3488     51.5516 300.3368806 +22.5674869     389.8195     72.05441      1.231     3.98     6.691385     20.31839     49.18183         8     0.927     0.664 -33.89   0
       326    601.2827     48.6764 300.3617899 +22.5896793     6312.079     72.12771      1.643     3.22     6.914834     20.31839     595.6233        40     1.405     1.227  86.22   0
       327    376.1234     47.6465 300.2919713 +22.5220029      1469.47     72.01773      1.662     3.51     6.399434     20.31839     139.5809        21     1.181     1.097 -12.24   0
       328    642.3796     46.2066 300.3754020 +22.6012638     868.8885     71.99938      1.830     3.80     6.797836     20.31839     79.64915        18     1.242     1.054  49.29   0
       329    658.4624     42.5255 300.3816089 +22.6050159     557.0896     72.05441      1.424     3.96     6.747591     20.31839     55.64893        10     1.157     0.624 -20.33   0
       330    927.9835     40.3428 300.4664010 +22.6849924     521.2613     71.98103      1.360     3.14     6.321145     20.31839     76.47227         9     1.081     0.558  36.76   0
       331    125.0480     40.0692 300.2162799 +22.4446539     636.9927     71.99938      1.556     3.54     7.264995     20.31839     75.11467        12     1.077     0.848 -35.67   0
       332    696.6298     38.0452 300.3949619 +22.6151439     415.3784     72.05441      1.342     2.92     6.704075     20.31839     69.52094         8     1.001     0.683   3.89   0
       333    645.5253     33.6556 300.3804488 +22.5985934     2677.272     72.05441      1.620     2.91     6.891933     20.31839     285.7743        32     1.352     1.189 -79.15   0
       334    286.1701     34.5309 300.2682128 +22.4913045     397.6131     71.99938      1.603     5.39     6.417408     20.31839     34.58503         9     1.244     0.659  24.04   0
       335    660.7595     32.5476 300.3855577 +22.6028318     910.2517     72.01773      2.192     5.13     6.814077     20.31839      62.9279        20     1.531     0.991  33.75   0
       336    731.9247     25.3261 300.4100899 +22.6220404     1468.457     72.10939      1.529     3.09     6.756361     20.31839     159.0848        24     1.254     1.139  77.27   0
       337    669.8643     18.6954 300.3928841 +22.6015692     701.5354     72.10939      1.454     3.85     6.864971     20.31839      80.1016        12     1.041     0.896   3.32   0
       338    275.1739   1013.9344 299.9468656 +22.7692956      360.703     71.99938      1.570     6.15     19.85657     20.31839     52.89947        14     1.530     0.839 -87.82  16
       339     49.0551     17.7579 300.1998715 +22.4154833      485.452     72.01773      1.178     1.89     7.342764     20.31839     67.66811         5     0.710     0.455  61.94   0
       340    379.5580     15.7559 300.3033717 +22.5138597     822.8999     72.10939      1.689     3.58     6.353198     20.31839     92.36135        14     1.058     0.967 -28.36   0
       341    107.9492   1010.6765 299.8959010 +22.7181872      1293.71     72.01773      3.699    11.36     92.19878     20.31839      54.6759        31     2.463     1.458 -43.08  18
       342    761.6447     14.9782 300.4227123 +22.6279508     480.7668     72.07274      1.573     4.23     6.501209     20.31839     42.60178         7     0.751     0.681  65.40   0
       343    210.4321   1002.6400 299.9303932 +22.7466328     1472.514     72.05441      2.903    12.37     67.88021     20.31839     67.16591        39     2.357     2.066  -2.05   3
       344    178.9560    988.2846 299.9252697 +22.7330714     4108.016     71.98103      8.729    39.91     66.54048     20.31839     80.91434       410     9.150     4.831  85.34  19
