#   1 NUMBER                 Running object number                                     
#   2 X_IMAGE                Object position along x                                    [pixel]
#   3 Y_IMAGE                Object position along y                                    [pixel]
#   4 ALPHA_J2000            Right ascension of barycenter (J2000)                      [deg]
#   5 DELTA_J2000            Declination of barycenter (J2000)                          [deg]
#   6 FLUX_APER              Flux vector within fixed circular aperture(s)              [count]
#   7 FLUXERR_APER           RMS error vector for aperture flux(es)                     [count]
#   8 FLUX_RADIUS            Fraction-of-light radii                                    [pixel]
#   9 FWHM_IMAGE             FWHM assuming a gaussian core                              [pixel]
#  10 BACKGROUND             Background at centroid position                            [count]
#  11 THRESHOLD              Detection threshold above background                       [count]
#  12 FLUX_MAX               Peak flux above background                                 [count]
#  13 ISOAREA_IMAGE          Isophotal area above Analysis threshold                    [pixel**2]
#  14 A_IMAGE                Profile RMS along major axis                               [pixel]
#  15 B_IMAGE                Profile RMS along minor axis                               [pixel]
#  16 THETA_IMAGE            Position angle (CCW/x)                                     [deg]
#  17 FLAGS                  Extraction flags                                          
         1    480.4328     16.1136 300.3326189 +22.5432459     1083.031     72.58049      1.953     3.58     6.500028      20.4876     99.51609        18     1.160     1.041  53.78   0
         2    674.6231     16.3460 300.3930628 +22.6014081     814.0624     72.63599      1.749     5.39     7.307832      20.4876     73.60719        19     1.323     1.158 -87.60   0
         3    384.2420     13.8639 300.3033888 +22.5138134     818.1617     72.61749      1.746     4.22     6.892185      20.4876     78.53498        23     1.320     1.199  82.72   0
         4    155.4643      3.9044 300.2354119 +22.4424659     3666.577     68.83834      1.810     3.74     7.018436      20.4876     320.1497        39     1.457     1.366   1.41  24
         5    723.5604      4.9869 300.4120021 +22.6127756     741.3759     71.91119      1.753     3.45     7.297489      20.4876     81.31543         9     0.955     0.853 -64.06  16
         6    577.9927      1.4661 300.3677621 +22.5682209     261.0536     57.31844      1.140     3.72     6.450936      20.4876     37.90251         6     0.801     0.497   3.70  24
         7    481.0907      1.6177 300.3375198 +22.5392727     185.8214     58.10971      1.241     4.52     6.439804      20.4876     31.57706         7     1.312     0.443   9.29  24
         8    221.4499    973.4485 299.9412317 +22.7406699     6957.826     72.65448      7.949    30.88     49.52906      20.4876     153.2639       654     9.685     4.939  60.03  18
         9     69.7230   1009.8632 299.8821997 +22.7055902     5395.495     72.69144     15.900    72.42      71.5832      20.4876     166.8089      1918    15.443    10.974  37.45  27
        10     61.6450    948.1072 299.8997743 +22.6854562     5360.733     72.63599     27.778    43.82     30.54554      20.4876     660.3104      4867    22.392    20.236 -42.84  19
        11    544.1207    944.8380 300.0509944 +22.8292206     1568.389     72.58049      2.138     4.62     5.224744      20.4876     96.42262        29     1.424     1.348  16.49   0
        12    471.2303   1001.0901 300.0099917 +22.8235148     396.0909     72.58049      1.445     3.78     4.654638      20.4876     29.60966         5     1.165     0.352 -77.99   0
        13    339.2532    998.9293 299.9696025 +22.7833161     697.9261     72.61749      2.457     6.16     5.502614      20.4876     36.37313        11     1.140     0.936 -64.85   0
        14    438.1414    941.1119 300.0191957 +22.7963782     959.2775     72.69144      2.230     6.30     5.453133      20.4876     55.14796        23     1.328     1.263  22.59   0
        15    368.4599    939.1954 299.9981230 +22.7749339     6525.482     72.58049      2.181     5.43     5.668878      20.4876     365.3098        53     1.727     1.588  29.90   0
        16    150.1477    943.0209 299.9289484 +22.7105511     733.3858     72.61749      5.639     5.05     31.72549      20.4876     34.49274         7     1.185     0.609 -81.35   1
        17    531.6696    991.7155 300.0318676 +22.8389454     1865.443     72.72839      1.929     5.49     4.733868      20.4876     135.1644        27     1.723     1.086  63.23   2
        18    402.5138    926.5918 300.0128240 +22.7815280     442.5569     72.54347      1.482     3.73     5.638024      20.4876     48.33712         5     0.941     0.487  81.89   0
        19    528.6887    992.3267 300.0307401 +22.8382271     586.6536     72.78378      1.234     2.74     4.734013      20.4876     82.96152         8     0.928     0.595  66.60   3
        20    914.8561    918.4150 300.1751860 +22.9327219     2202.821       72.599      2.215     5.80      5.03191      20.4876     105.1983        35     1.594     1.472  59.88   0
        21    156.7514    997.5459 299.9132684 +22.7281720     3169.497     72.65448      6.846    28.41     81.04333      20.4876     84.46168       251     5.758     4.346  87.16  19
        22    564.9426    915.7296 300.0669483 +22.8271047     409.5231     72.63599      1.860     6.89     5.468994      20.4876     32.89629        10     1.431     0.931   7.54   0
        23    213.9706   1000.5286 299.9300966 +22.7461944     798.0403     72.61749      2.010     6.31     75.25337      20.4876     66.25355        17     1.480     1.134 -88.26   0
        24    718.6555    987.8429 300.0914036 +22.8938825      588.337     72.61749      2.383     6.72     4.663745      20.4876     36.20368        11     1.437     0.882 -86.47   2
        25    704.2889    907.5284 300.1130467 +22.8665109     766.0969     72.78378      2.360     7.99     5.091391      20.4876     40.01057        15     1.391     1.282 -76.70   0
        26    618.2070    986.9647 300.0603774 +22.8635237     8072.087     72.61749      2.160     6.19     4.701672      20.4876     406.2459        38     1.848     1.364  53.90   3
        27    622.8404    985.1916 300.0623982 +22.8644035     9756.201     72.61749      2.549    14.13     4.719482      20.4876     436.3962        74     3.319     1.672 -13.72   3
        28    738.4878    901.5150 300.1256653 +22.8750309     1045.588     72.74686      2.064     5.99     5.084075      20.4876     79.75607        23     1.485     1.169  20.41   0
        29    911.0393    971.3778 300.1567684 +22.9467963     776.1362     72.65448      2.376     8.04     4.741252      20.4876     37.93686        11     1.592     1.135 -75.41   2
        30    760.7065    894.9407 300.1347318 +22.8797995     11321.94     72.67297      2.074     4.97     5.096659      20.4876     619.5793        60     1.646     1.589  40.86   0
        31    635.5904    954.2103 300.0764494 +22.8593293     6801.823     72.50643      2.203     5.05     4.991412      20.4876     332.8579        50     1.730     1.523  27.54   0
        32    150.9648    976.4036 299.9183455 +22.7203717      2195.57     72.61749      6.812    19.21     61.30929      20.4876     60.76374        96     3.965     2.585  69.93   3
        33     72.5634    886.1304 299.9233215 +22.6709561     904.4297       72.599      2.918     7.72     12.95763      20.4876     43.04985        17     1.561     1.067  74.82   0
        34    466.1440    883.6936 300.0465882 +22.7882910     363.2313     72.67297      1.643     5.82     5.729759      20.4876     34.33038         9     1.171     0.849 -26.29   0
        35    813.4286    882.7134 300.1551513 +22.8920817     471.0064     72.61749      1.887     3.49     5.159603      20.4876     34.28331         5     1.112     0.316  69.07   0
        36    769.0099    877.2686 300.1430677 +22.8772104     1438.671       72.599      2.147     5.67     5.168921      20.4876     78.45001        30     1.617     1.295   0.76   0
        37    621.2950    874.2545 300.0979956 +22.8320840     435.7952     72.69144      1.830     3.39     5.734977      20.4876     38.37589         5     0.735     0.674 -11.00   0
        38    807.5510    870.5850 300.1572616 +22.8868363     851.6486     72.65448      2.325     6.85     5.206654      20.4876     43.62279        16     1.247     1.055  45.32   0
        39    787.6945    947.8434 300.1259436 +22.9030822     291.8709     72.63599      1.645     4.02     4.857256      20.4876     33.48141         6     1.091     0.423 -79.54   0
        40    857.4625    862.4392 300.1754802 +22.8994465     414.1669     72.61749      1.756     3.47     5.359271      20.4876     47.50225         5     0.939     0.498  88.68   0
        41    854.6151    861.4563 300.1749114 +22.8983112     363.1673       72.599      1.694     5.00      5.35953      20.4876     39.35392         9     1.196     0.591 -74.62   0
        42    707.1078    860.8723 300.1290964 +22.8539541     783.4034     72.76532      2.153     5.39     5.310124      20.4876     56.35486        14     1.159     1.121  50.63   0
        43    718.4393    858.2822 300.1334715 +22.8566051      717.184     72.58049      1.991     6.65     5.295383      20.4876     44.54561        14     1.187     1.053  33.27   0
        44    419.7282    857.0074 300.0408098 +22.7667150      4147.72     72.58049      1.949     4.44      5.73313      20.4876     267.7589        38     1.521     1.366  31.93   0
        45    516.1489    948.4184 300.0411157 +22.8218631     421.7123       72.599      2.670     3.48     5.254166      20.4876     27.73968         5     0.799     0.439  19.73   0
        46    145.2070    842.2734 299.9601685 +22.6801661     821.5358     72.56198      2.093     6.15     8.966866      20.4876     57.99744        15     1.530     0.952  42.59   0
        47    122.1554    839.7264 299.9538275 +22.6725210     1455.988       72.599      2.046     5.81      9.06227      20.4876     86.72285        28     1.551     1.320   3.06   0
        48    993.9407    829.0817 300.2289177 +22.9307312      2116.21     72.69144      2.201     5.49     5.582172      20.4876     128.7141        32     1.562     1.345  60.82   0
        49    949.3417    828.6979 300.2151212 +22.9172664     1059.531     72.70992      1.681     5.20     5.557955      20.4876       96.975        14     1.327     0.915 -74.67   3
        50    946.7919    827.9435 300.2145706 +22.9162860     1536.938       72.599      1.875     6.16      5.55973      20.4876     110.8121        21     1.862     0.954 -65.40   3
        51    654.4547    827.2487 300.1236132 +22.8285195     363.4069     72.65448      1.970     4.34      5.47838      20.4876     34.21878         5     1.044     0.514 -48.21   0
        52    731.6442    821.3015 300.1496115 +22.8499374     604.7736     72.61749      1.975     6.71      5.44035      20.4876     46.83163        13     1.395     0.905  36.06   0
        53    599.8037    815.1812 300.1105028 +22.8086775     4770.992     72.56198      1.911     4.49     5.638879      20.4876     326.3636        40     1.483     1.365  53.30   0
        54    401.9285    812.1425 300.0498519 +22.7484988     636.0794     72.65448      2.054     7.37     5.748363      20.4876     51.00372        13     1.629     0.933  40.72   0
        55    150.0275    808.9211 299.9725089 +22.6720422     1328.238     72.63599      1.999     4.69     6.702855      20.4876     96.38755        21     1.335     1.108  -4.87   0
        56    620.2068    807.9650 300.1192071 +22.8127186     790.0977     72.61749      1.704     6.37     5.551621      20.4876     51.40749        15     1.414     0.805  33.16   0
        57    419.3862    807.1334 300.0569161 +22.7522939     244.1449     72.58049      1.393     3.50      5.73013      20.4876     28.92528         5     0.802     0.440  71.90   0
        58    169.8624    805.6260 299.9797492 +22.6770455     387.3736     72.61749      1.649     6.19     6.380003      20.4876     41.05563        10     1.406     0.820  16.36   0
        59    775.8491    795.0914 300.1719166 +22.8556487     4216.389     72.65448      1.959     4.36     5.612977      20.4876      256.894        45     1.518     1.494  22.23   0
        60    992.6078    795.2351 300.2395045 +22.9206024     1080.297     72.61749      1.982     5.97     5.636727      20.4876     70.36392        27     1.460     1.428  58.04   0
        61    185.0999    789.0905 299.9898632 +22.6768700     444.9052     72.78378      1.437     3.80     6.093995      20.4876     44.96049         6     0.983     0.421 -37.88   0
        62    493.0795    787.6517 300.0861994 +22.7687881     524.8882     72.61749      1.714     5.85      5.75555      20.4876     43.79674        12     1.208     0.797   5.00   0
        63    139.2004    785.2214 299.9768441 +22.6619945     1179.952     72.54347      2.167     5.67     6.206389      20.4876     77.77712        24     1.487     1.224  -3.72   0
        64    288.8649    777.2967 300.0259819 +22.7045994     53843.99     72.72839      1.971     4.21      6.08916      20.4876      4218.82       108     1.722     1.583  30.24   0
        65    554.6400    780.9904 300.1075427 +22.7853237     519.9286     72.61749      1.735     5.38     5.808982      20.4876     47.46903        10     1.016     0.821 -53.21   0
        66    546.7370    776.4619 300.1065522 +22.7816548     1556.855     72.65448      1.840     4.27     5.854898      20.4876     119.4591        27     1.414     1.259 -23.72   0
        67    959.3563    776.4529 300.2352300 +22.9052473     859.8339     72.65448      1.913     6.61     5.642317      20.4876     50.52681        16     1.370     0.964  28.40   0
        68    145.2235    945.7983 299.9265137 +22.7098705     1081.077     72.56198      8.605     9.04     34.45792      20.4876     46.60301        15     1.655     1.421  79.80   0
        69    575.9040    772.7422 300.1168491 +22.7893264     947.5414     72.69144      2.023     6.23     5.803434      20.4876     60.13084        19     1.501     1.024  34.31   0
        70    586.5065    770.7295 300.1208072 +22.7919253     544.1723     72.74686      1.965     6.61      5.78998      20.4876     48.95334        12     1.323     0.927  59.07   0
        71    693.2786    767.5955 300.1551060 +22.8230142     430.3216     72.52496      1.445     3.11     5.625648      20.4876     41.94957         6     0.830     0.518  44.17   0
        72    729.5606    757.8464 300.1695870 +22.8310815     862.0126     72.69144      1.798     5.00     5.637982      20.4876     62.25438        17     1.335     0.961  13.78   0
        73    338.5897    754.5836 300.0488399 +22.7129865     31714.62     72.56199      1.911     4.00     5.945118      20.4876     2257.831        84     1.618     1.528  21.33   0
        74    352.8573    755.0991 300.0531138 +22.7174115     2047.549     72.70992      1.882     4.13     5.904786      20.4876      156.712        30     1.466     1.231  56.81   0
        75    861.8257    750.7211 300.2131572 +22.8686469     2834.413     72.61749      1.946     4.53     5.766453      20.4876     162.9641        38     1.529     1.412 -67.92   0
        76    349.8614    749.2578 300.0540794 +22.7148364     751.7788     72.67297      2.464     6.49     5.925377      20.4876     54.01527        13     1.303     1.018  -9.27   1
        77    619.5860    746.8906 300.1388635 +22.7949886     888.4238     72.56198      1.609     3.92     5.876049      20.4876     82.05399        14     1.137     0.850   0.78   0
        78    456.4422    747.0309 300.0879893 +22.7461427     473.6581     72.65448      1.901     3.44     5.796367      20.4876     45.00993         5     0.782     0.580   3.61   0
        79    221.4908    746.2106 300.0151192 +22.6754758     775.9517     72.56198      1.911     5.32     6.089643      20.4876     66.10144        16     1.241     1.065  64.47   0
        80    466.4782    741.5125 300.0929084 +22.7475657     891.5918     72.76532      1.748     5.88     5.802522      20.4876     71.93856        18     1.196     1.149  36.15   0
        81    867.8563    738.3931 300.2190452 +22.8669093     504.1931       72.599      1.910     7.61      5.79497      20.4876     34.03505        13     1.795     0.903  61.78   0
        82    369.0800    738.5767 300.0635332 +22.7175306     334.0869     72.58049      1.302     5.53     5.905215      20.4876      31.7184         8     1.228     0.702 -41.06   0
        83    412.4909    736.6761 300.0776670 +22.7299965     338.8082     72.76532      1.481     4.33     5.819123      20.4876     48.57971         6     1.126     0.632 -37.96   0
        84     55.2225    734.8867 299.9670875 +22.6223646     548.7161     72.56198      2.382     4.84     6.269048      20.4876     36.01651         8     1.340     0.494  48.29   0
        85    846.4192    733.0051 300.2141079 +22.8589413     428.3278     72.58049      1.983     6.70     5.818294      20.4876     29.93283         8     1.433     0.880  35.99   0
        86    219.4931    731.2810 300.0193487 +22.6705915      371.824     72.76532      1.346     4.34     6.091081      20.4876     43.85816         7     0.964     0.556 -30.88   0
        87    542.2776    721.4793 300.1230304 +22.7645260     318.0226     72.72839      1.487     3.40     6.044808      20.4876     45.22483         5     0.784     0.425  23.44   0
        88    511.6592    719.2979 300.1142003 +22.7547249     636.0898     72.69144      1.674     5.62     5.963383      20.4876     56.80827        17     1.332     1.006  77.53   0
        89    533.5283    716.8672 300.1218031 +22.7605796     1356.683     72.65448      1.749     4.55     6.023058      20.4876     107.3694        22     1.430     1.039  49.32   0
        90    928.1575    716.1222 300.2450993 +22.8785625     4613.514       72.599      1.925     4.42     5.802469      20.4876     301.9653        41     1.518     1.381  -1.45   0
        91    916.6759    707.4331 300.2443395 +22.8726269     1759.355     72.61749      1.911     4.62     5.873844      20.4876     112.2464        27     1.374     1.284  76.68   0
        92    279.4297    701.2670 300.0477506 +22.6799448     899.8817       72.599      1.929     5.66     6.020184      20.4876     69.87614        18     1.447     1.008 -20.05   0
        93    743.0082    698.7947 300.1929693 +22.8181400     2548.559     72.46938      1.814     3.70     5.713875      20.4876     159.1716        32     1.487     1.204  29.05   0
        94    947.7811    697.7452 300.2571953 +22.8791540     1668.004       72.599      1.902     4.51     5.834995      20.4876     103.1597        26     1.354     1.271  -1.54   0
        95    825.3686    684.5974 300.2232700 +22.8387236      552.363     72.58049      1.863     5.24     5.941789      20.4876     45.03461        10     1.202     0.645  48.41   0
        96    129.1716    685.0382 300.0062770 +22.6302364      519.671     72.61749      1.518     3.44     6.174355      20.4876     52.32957         6     0.931     0.551  66.38   0
        97    861.4689    675.7262 300.2374147 +22.8469827     148466.7     72.69144      1.861     3.96     6.058809      20.4876      9383.01       164     1.668     1.624  78.02   0
        98   1008.4015    677.7055 300.2826297 +22.8915381     1346.611     72.52496      2.018     5.38     5.539984      20.4876     70.46491        26     1.394     1.351 -35.49   0
        99    713.8693    675.8611 300.1913342 +22.8028222     776.1218     72.65448      1.783     4.57     5.783804      20.4876     60.99067        16     1.254     0.972  81.66   0
       100    893.6346    669.6929 300.2494113 +22.8548786     339.9539     72.56198      1.811     4.80     6.097545      20.4876     33.57675         7     1.113     0.586 -26.44   0
       101    547.7683    664.3539 300.1433008 +22.7497609     1659.476     72.65448      1.728     3.88      6.04418      20.4876     117.9653        20     1.214     1.013  34.43   0
       102    728.9065    661.7868 300.2005954 +22.8032809     9402.152     72.54347      1.737     3.58     5.805347      20.4876     669.5536        49     1.429     1.360  60.44   0
       103    230.3358    656.6019 300.0469836 +22.6524045     4791.054     72.63599      1.845     3.98     6.066914      20.4876      408.685        40     1.445     1.343  22.14   0
       104    312.5454    654.7466 300.0731697 +22.6765144     1296.674     72.65448      1.874     4.10     5.917406      20.4876     91.61821        22     1.340     1.091  59.54   0
       105    187.6091    652.1426 300.0351392 +22.6383153      453.767       72.599      1.594     5.14     6.124667      20.4876     44.59871         8     1.431     0.521  23.23   0
       106    520.8076    650.3092 300.1394633 +22.7376487     651.8735     72.52496      1.656     4.54     6.093204      20.4876      65.6357        15     1.309     0.979 -10.49   0
       107    512.3492    642.4999 300.1393649 +22.7328712     3455.552     72.70992      1.752     3.44     6.121257      20.4876     311.9597        33     1.345     1.240  29.17   0
       108    502.5623    636.1383 300.1383825 +22.7281115     1460.365     72.63599      1.736     4.04     6.146518      20.4876     114.2315        20     1.376     0.985  57.33   0
       109    896.6650    634.8588 300.2616730 +22.8457705     352.5304     72.65448      1.618     4.25     6.276592      20.4876     32.44011         7     0.993     0.608  -3.54   0
       110    165.9600    632.2394 300.0348694 +22.6261113     546.0168     72.69144      1.686     5.76     6.150623      20.4876     64.95019        10     1.169     0.850  18.24   0
       111    180.6399    630.9178 300.0398651 +22.6301329     526.8612     72.58049      1.661     5.89     6.127683      20.4876     53.66325        11     1.024     0.954 -39.24   0
       112    949.3171    627.6893 300.2804340 +22.8594700     475.3968     72.72839      1.836     5.59     6.113651      20.4876     36.75216         8     1.225     0.720  42.01   0
       113    206.0767    627.2991 300.0489536 +22.6367195      533.028     72.76532      1.749     6.06     6.087131      20.4876     47.79456        12     1.197     0.995  29.58   0
       114    526.9826    626.8679 300.1490013 +22.7327643     400.5829     72.61749      1.447     4.91     6.138296      20.4876     39.99416         8     0.996     0.685  20.34   0
       115    427.4354    625.9268 300.1182999 +22.7026684     1735.265     72.58049      1.674     3.59     6.109009      20.4876     140.7341        24     1.245     1.081   7.00   0
       116   1003.1126    623.8553 300.2984723 +22.8744687     976.7078     72.65448      1.912     3.90     5.577904      20.4876     78.55488        18     1.200     1.010 -19.39   0
       117     81.3403    620.5991 300.0123333 +22.5973992     19851.01     72.58049      2.037     4.31     6.212139      20.4876     1511.137        77     1.714     1.594  29.58   0
       118    512.5029    621.2168 300.1463257 +22.7268029      1183.66     72.52496      1.859     4.82     6.171422      20.4876     83.23608        22     1.346     1.208 -88.13   0
       119    547.3414    620.8501 300.1572989 +22.7371343     416.5628     72.67297      1.579     3.85     6.125934      20.4876     46.78816         9     1.108     0.723 -52.89   0
       120      3.0310    621.5597 299.9876761 +22.5741925     647.4587     65.35513      2.025     4.97     6.212139      20.4876     54.92401         9     1.463     0.477  65.33  16
       121    930.4197    607.6637 300.2810405 +22.8480549     1051.564       72.599      1.856     4.93     6.398457      20.4876     83.10368        22     1.315     1.255  30.87   0
       122    797.6829    606.1413 300.2401198 +22.8078806     469.9405     72.69144      1.780     4.67     6.302902      20.4876     55.90793        10     1.148     0.947  53.37   0
       123     27.6256    604.7378 300.0007842 +22.5767402     1519.634     72.61749      2.303     4.70     6.239157      20.4876     100.1175        27     1.545     1.256  71.74   0
       124    497.9644    605.0000 300.1470636 +22.7177883     4509.556     72.56198      0.929     3.76     6.249108      20.4876     1781.737        15     1.186     0.342   1.95   3
       125    504.2631    603.4723 300.1495219 +22.7192364     2924.991     72.65448      1.064     4.23     6.252968      20.4876     819.5347        13     1.262     0.405 -25.45   3
       126     93.2940    605.3486 300.0210031 +22.5966059     523.7788     72.69144      2.479     5.78     6.213705      20.4876     45.33524        10     1.377     0.684   8.83   0
       127    476.4075    601.9678 300.1413335 +22.7104589     486.4927     72.61749      1.739     4.25      6.27833      20.4876     43.46608         8     1.001     0.622 -72.06   0
       128    870.4625    600.5259 300.2646486 +22.8280549     962.5744     72.65448      2.225     8.68     6.409599      20.4876     70.61843        18     1.962     1.072  -2.26   2
       129    268.8942    600.6522 300.0771536 +22.6478979     223.7483     72.69144      1.377     5.05     5.784284      20.4876     34.59085         5     1.039     0.694 -63.37   0
       130    432.5875    594.3902 300.1301466 +22.6951533     660.4755     72.50643      1.664     5.11     6.192301      20.4876     62.95382        14     1.151     0.909 -19.81   0
       131    580.3706    593.0608 300.1766162 +22.7390433     538.2872     72.65448      1.938     4.30     6.257785      20.4876     45.05857        10     1.084     0.719 -15.24   0
       132    627.8157    591.4661 300.1919206 +22.7527955      463.085       72.599      1.637     4.77     6.211617      20.4876     47.73008         8     1.026     0.628  32.39   0
       133    598.4078    591.3759 300.1827844 +22.7439617      577.715     72.61749      1.799     3.74     6.259839      20.4876     58.30106         8     1.139     0.460   8.41   0
       134    476.7409    589.9210 300.1453497 +22.7070980     964.6018     72.65448      1.698     3.61       6.3399      20.4876     93.26463        15     1.118     0.907  22.69   0
       135    442.1236    585.5579 300.1359847 +22.6954732      1612.22       72.599      1.786     3.48     6.234926      20.4876     141.0352        23     1.342     1.131 -42.65   0
       136    910.5239    585.7030 300.2819637 +22.8357846     3304.771     72.76532      1.782     3.84     6.409599      20.4876     227.2849        38     1.444     1.335  67.25   0
       137   1008.7093    584.2056 300.3130977 +22.8647399     637.1397     72.52496      1.987     6.37     5.619764      20.4876      45.8161        13     1.295     0.881  16.82   0
       138      4.1142    578.7228 300.0019233 +22.5622237     4967.502     69.59515      2.046     4.32      6.48526      20.4876     397.3496        44     1.656     1.445  28.25  24
       139    471.3846    576.1285 300.1481602 +22.7015308     373.6508     72.61749      1.500     4.74     6.382782      20.4876     29.70461         6     1.163     0.548 -23.11   0
       140    305.6193    572.0792 300.0978619 +22.6506990     9149.165     72.61749      1.760     3.59     5.792703      20.4876     709.7331        46     1.431     1.343  55.39   0
       141    428.1515    569.1863 300.1369497 +22.6865840     9134.194     72.65448      1.670     3.24     6.200434      20.4876     855.3264        51     1.423     1.345  41.82   0
       142    194.4623    567.0105 300.0649185 +22.6159284     275.6872     72.54347      1.250     3.64     5.943329      20.4876     41.30783         5     0.752     0.644  -1.84   0
       143    674.3050    565.5538 300.2148272 +22.7592706     335.3651     72.63599      1.586     4.20     6.114165      20.4876     39.31543         6     0.933     0.683 -28.45   0
       144    839.7366    563.5544 300.2670689 +22.8082265     1753.501     72.63599      1.625     3.54     6.395644      20.4876     165.9979        23     1.292     1.051  60.90   0
       145     73.1247    564.7447 300.0279163 +22.5789035     209.1307     72.65448      1.296     4.48     6.315513      20.4876     28.82072         5     0.818     0.697  37.22   0
       146    924.5012    560.8454 300.2943983 +22.8328196     12593.98     72.63599      1.791     3.76     6.409599      20.4876       905.58        57     1.487     1.435  72.74   0
       147    488.6886    558.8296 300.1591675 +22.7017445     11815.39     72.61749      1.661     3.39     6.520772      20.4876     1098.884        51     1.385     1.305  50.22   0
       148    658.4089    554.7258 300.2133877 +22.7513981     469.8564     72.61749      1.734     5.26     6.195406      20.4876     39.44644        10     0.903     0.866 -13.70   0
       149    216.1484    554.1813 300.0758309 +22.6187446     1418.413       72.599      1.859     3.59     5.882718      20.4876     117.2173        24     1.350     1.099  47.96   0
       150    463.4481    552.2189 300.1534520 +22.6922839     403.8883     72.65448      1.658     5.53     6.438641      20.4876     43.50465         9     1.169     0.843  11.74   0
       151    763.4559    547.3490 300.2485372 +22.7807310     782.5378     72.65448      1.526     3.37     6.229816      20.4876     85.03509        14     1.061     0.916  26.21   0
       152    420.4043    546.8905 300.1417767 +22.6778578     4398.135     72.52496      1.691     3.39     6.166152      20.4876     374.9025        34     1.339     1.218  45.21   0
       153    398.7271    545.4600 300.1354910 +22.6709523     1141.462     72.65448      1.675     3.27     6.128064      20.4876     124.6339        17     1.101     0.985  63.46   0
       154    153.0621    544.8041 300.0592502 +22.5971428     730.2556     72.61749      1.646     4.53     5.916832      20.4876     74.51611        16     1.217     1.046  31.47   0
       155    840.3463    542.6845 300.2740360 +22.8024080     1483.882     72.67297      1.720     4.01     6.405946      20.4876     105.3854        22     1.312     1.072 -40.40   0
       156    537.0392    534.5886 300.1821013 +22.7092619     206159.1       72.599      1.632     3.16     6.662191      20.4876     18707.27       206     1.609     1.554   1.88   0
       157    720.5427    539.4260 300.2377274 +22.7656051     881.3923     72.61749      1.722     4.54     6.132316      20.4876     82.48293        17     1.290     0.901  57.01   0
       158    222.9874    534.3513 300.0843970 +22.6151000     3580.317     72.63599      1.835     3.68       5.8841      20.4876     329.2359        36     1.462     1.285  37.42   0
       159    788.7322    531.0084 300.2617264 +22.7836000     641.3914     72.61749      2.139     4.56     6.347063      20.4876     47.67669        13     1.058     0.951 -52.27   0
       160    427.7008    514.9413 300.1544217 +22.6708648     2763.715     72.70992      1.682     3.31      6.37576      20.4876     254.5596        31     1.401     1.134  65.29   0
       161    271.9370    516.6849 300.1053642 +22.6246959     394.3944     72.72839      1.519     6.11     5.900841      20.4876     37.66864        11     1.117     0.939 -66.43   0
       162    583.9165    512.6243 300.2038393 +22.7169894     437.7457     72.58049      1.929     3.94     6.638211      20.4876     43.42082         5     0.923     0.482  -3.43   0
       163    838.9300    511.4534 300.2837344 +22.7930032     338.1031     72.61749      2.009     4.03      6.39582      20.4876     39.90408         5     0.933     0.497   2.39   0
       164    658.1202    510.4848 300.2276620 +22.7385949     430.5729     72.76532      1.958     5.36     6.313355      20.4876     33.86882         7     1.315     0.618  16.14   0
       165    745.0850    503.7679 300.2569577 +22.7627012     387.3734     72.58049      1.526     4.05     6.254712      20.4876     50.14307         6     1.116     0.633  29.45   0
       166    824.7264    501.3244 300.2825917 +22.7858390     1661.759     72.69144      1.659     3.57     6.383603      20.4876      149.459        22     1.200     1.096  38.55   0
       167    695.8469    498.8867 300.2431889 +22.7465566     2546.792     72.58049      1.589     3.21     6.253324      20.4876     240.5563        29     1.238     1.180 -51.16   0
       168    939.0730    492.2515 300.3212178 +22.8174517     919.4451     72.61749      2.289     4.67     6.331486      20.4876     66.45528        15     1.298     0.904  50.50   2
       169    601.0499    495.8625 300.2146204 +22.7173025     449.5831     72.67297      1.414     3.05     6.662284      20.4876     49.38451         6     0.731     0.578 -42.49   0
       170    483.0647    494.8544 300.1781861 +22.6816774     717.2598     72.67297      1.510     3.10     6.660298      20.4876     80.61063        13     0.995     0.887 -34.25   0
       171    953.4178    493.0609 300.3254324 +22.8219770     1287.979     72.56198      1.716     3.83     6.222129      20.4876     91.67144        21     1.169     1.146   8.40   0
       172    825.0697    491.1579 300.2859992 +22.7830182     2425.168     72.58049      2.038     4.76     6.378805      20.4876     170.4302        37     1.738     1.238  84.15   0
       173    863.1535    486.4589 300.2994064 +22.7930654     4415.392     72.67297      1.740     3.43     6.407939      20.4876     369.6906        40     1.375     1.316  55.47   0
       174    578.1787    489.3307 300.2096131 +22.7085761     685.2786     72.61749      1.719     4.16     6.686774      20.4876     62.13046        12     1.114     0.871  63.40   2
       175    577.8024    485.6028 300.2107060 +22.7073919     525.1727      72.3952      1.884     4.60     6.691987      20.4876     32.02553         7     0.942     0.639 -30.01   3
       176    364.0804    488.8868 300.1430697 +22.6443199     258.0361     72.78378      1.747     6.67     6.205967      20.4876     27.82954         8     1.192     1.047   2.15   0
       177    417.2055    488.0045 300.1598977 +22.6599814     329.0547     72.46938      1.245     4.77     6.481817      20.4876     36.51418         8     0.863     0.747 -80.31   0
       178    523.9681    482.4555 300.1949534 +22.6903652     486.0704     72.63599      2.055     5.82     6.692603      20.4876     33.29482         9     1.281     0.744 -32.83   0
       179    954.9259    477.3423 300.3310059 +22.8179067     685.1555     72.65448      1.698     6.40     6.227556      20.4876     58.05079        13     1.371     1.000 -35.89   0
       180     94.9911    476.1908 300.0634629 +22.5600357     1015.608     72.50643      1.911     4.15     6.445862      20.4876     97.12347        23     1.344     1.222  32.34   0
       181     87.2589    466.4239 300.0642285 +22.5549137     357.9529     72.61749      1.643     7.10     6.481302      20.4876     44.89564         8     1.611     0.876  67.63   0
       182    951.2278    466.3130 300.3334318 +22.8136274     320.4234     72.61749      1.295     1.90      6.30623      20.4876     54.15001         5     0.701     0.429  18.61   0
       183    695.4062    461.2209 300.2552783 +22.7355958     528.1711       72.599      1.603     3.51     6.325901      20.4876     46.55111         8     0.918     0.619 -22.10   0
       184    584.3183    458.9966 300.2213728 +22.7016956     407.1452     72.52496      1.645     4.16     6.760794      20.4876     38.66147         5     1.091     0.452  24.96   0
       185    636.5062    456.6689 300.2383938 +22.7166529     808.1488     72.74686      1.636     3.66     6.584668      20.4876     78.66429        17     1.159     1.023  33.25   0
       186    697.4946    448.9590 300.2599094 +22.7326955     852.5042     72.63599      1.622     3.88     6.336091      20.4876     73.72684        15     1.050     0.972 -71.40   0
       187    951.4347    449.4179 300.3389804 +22.8088290     580.9849     72.61749      1.669     4.23     6.383839      20.4876     49.66265         9     1.308     0.610  -5.83   0
       188    854.4939    445.2177 300.3100914 +22.7786122      1015.07     72.54347      1.697     3.56      6.39617      20.4876     99.30914        17     1.181     0.960  51.96   0
       189    838.8456    441.5536 300.3063985 +22.7728753     658.3702     72.65448      1.523     4.69     6.383636      20.4876     62.78555        12     1.073     0.938 -62.47   0
       190    818.9202    441.7209 300.3001280 +22.7669601     283.5945     72.74686      1.458     4.67     6.367329      20.4876     40.87268         5     0.981     0.630  71.86   0
       191    583.1287    439.5312 300.2273198 +22.6957441     3253.127     72.67297      1.558     2.95     6.811863      20.4876     315.3722        29     1.259     1.102  59.81   0
       192    943.8833    438.6868 300.3401065 +22.8034824     534.8559     72.72839      1.672     4.00     6.432928      20.4876     59.15596        13     1.174     0.906 -20.31   0
       193    589.3626    427.3824 300.2332053 +22.6941183     211.6075     72.61749      1.268     4.32     6.853846      20.4876     30.09307         5     1.028     0.518 -45.44   0
       194    423.0493    426.4439 300.1816979 +22.6440429     318.7555     72.65448      1.475     4.44     6.548748      20.4876     44.14367         6     0.876     0.641  31.51   0
       195    994.6782    418.8044 300.3624156 +22.8129592     1252.451     72.52496      1.776     3.99     6.652578      20.4876     101.0429        20     1.216     1.080  10.32   0
       196    866.3044    418.8256 300.3223421 +22.7745553     556.6881     72.56198      1.763     5.70     6.402853      20.4876     43.72559        13     1.233     0.914 -87.02   0
       197    952.6939    417.4707 300.3497423 +22.8000148     1027.011     72.72839      1.684     4.34     6.536614      20.4876     105.1596        18     1.292     1.012  61.82   0
       198    602.7017    415.9253 300.2410807 +22.6948186     209.3424     72.74686      1.507     4.61     6.900856      20.4876     38.66505         6     0.992     0.609  33.21   0
       199    693.6797    413.6625 300.2701752 +22.7214046     1029.161     72.70992      1.487     2.93     6.389488      20.4876     124.8986        16     1.028     0.964 -51.17   0
       200    489.7741    413.9740 300.2065271 +22.6604429     410.8887     72.58049      1.512     4.93     6.818813      20.4876     45.85144        10     0.959     0.866 -15.95   0
       201    198.6303    411.7178 300.1166225 +22.5725805     590.0942     72.61749      1.365     4.01     6.483145      20.4876     75.10317         9     1.051     0.635  87.23   0
       202    259.9940    407.1964 300.1371834 +22.5896677     3819.171      72.4323      1.695     3.29     6.301368      20.4876     337.1135        33     1.339     1.234  62.99   0
       203    993.2879    406.0971 300.3661055 +22.8088870     4310.857     72.80222      1.813     3.51     6.681494      20.4876     346.4941        38     1.380     1.365 -13.34   0
       204    207.2769    401.9008 300.1224981 +22.5723515     7605.039     72.76532      1.784     3.38     6.493139      20.4876     692.0364        51     1.508     1.362  56.80   0
       205    973.2134    397.2052 300.3627242 +22.8003230     1686.922     72.48791      1.654     3.92     6.624144      20.4876     147.9197        24     1.243     1.209 -51.92   0
       206    348.0946    396.1881 300.1681774 +22.6128976     4904.445     72.54347      1.659     3.17     6.168071      20.4876     464.2148        41     1.370     1.317  30.17   0
       207    592.2874    393.0745 300.2452501 +22.6851312     18551.78     72.76532      1.583     3.06     6.888807      20.4876     1736.707        66     1.458     1.309  51.36   0
       208    609.7045    393.3951 300.2505743 +22.6904379     652.5946     72.52496      1.901     6.91     6.903636      20.4876      49.9676        15     1.406     0.951 -43.24   0
       209    835.9926    390.1756 300.3221821 +22.7572436     211.6701     72.61749      1.177     4.02     6.388505      20.4876     31.72071         5     1.024     0.518  31.67   0
       210    789.2839    383.9409 300.3096344 +22.7414723     460.5617     72.72839      1.694     4.89     6.392922      20.4876     44.66772         7     0.937     0.724 -80.59   0
       211    925.9415    376.0854 300.3548222 +22.7801040     920.7611     72.72839      1.814     4.95     6.496933      20.4876      65.1676        17     1.334     1.075  -7.90   0
       212    635.7969    374.3999 300.2648706 +22.6927877     250.8015      72.3952      1.423     4.06     6.835707      20.4876     34.77256         6     0.934     0.504  41.48   0
       213    146.9034    372.9640 300.1131055 +22.5459495     2022.261     72.61749      1.711     3.61     6.655819      20.4876     183.4355        26     1.330     1.141  26.76   0
       214    946.7474    363.2737 300.3654731 +22.7826423     1149.333     72.63599      1.539     3.57      6.57377      20.4876      108.508        21     1.291     1.055  43.93   0
       215    532.9788    362.4776 300.2366965 +22.6585778     6640.271     72.61749      1.540     2.89     6.846044      20.4876     706.4448        39     1.304     1.189  52.53   0
       216    248.0350    361.7379 300.1482112 +22.5730253     664.7149     72.63599      1.747     3.01     6.404426      20.4876     76.50819         9     0.924     0.756  54.20   0
       217    105.6195    355.2277 300.1060194 +22.5284844     451.9092     72.61749      1.477     3.73       6.5881      20.4876     55.88198         8     1.093     0.507 -22.16   0
       218    737.1006    351.6073 300.3038502 +22.7165554      1099.16     72.50643      1.601     3.79     6.756981      20.4876     103.7244        20     1.241     1.057  61.63   0
       219    646.8105    352.5943 300.2753786 +22.6898146     572.8965     72.48791      1.555     6.18     6.908792      20.4876      53.3947        13     1.359     0.816  25.00   0
       220    439.6642    348.6743 300.2121064 +22.6266683     6228.964     72.65448      1.616     3.05     6.821085      20.4876      653.287        41     1.343     1.275  40.09   0
       221    928.7387    343.7311 300.3661928 +22.7716317     703.1194     72.65448      1.779     5.20     6.520866      20.4876     52.85262        14     1.192     1.006  39.14   0
       222    831.6385    343.5096 300.3359651 +22.7425167     1416.244       72.599      1.634     3.05     6.412115      20.4876     147.9663        19     1.148     0.983  28.88   0
       223    423.8387    337.6737 300.2107465 +22.6187673     491.0005       72.599      1.588     4.41     6.784497      20.4876     71.26258         9     1.139     0.799  11.63   0
       224    506.6804    335.6672 300.2372010 +22.6429964     407.7514     72.72839      1.126     4.32     6.842968      20.4876     49.07425         7     1.161     0.459  -5.81   0
       225    488.1508    333.9787 300.2319764 +22.6369630     243.3748     72.61749      1.296     3.85     6.842149      20.4876     25.56554         5     0.822     0.517  32.51   0
       226     51.1785    331.9887 300.0966293 +22.5054958     303.7914       72.599      2.336     3.82     6.440263      20.4876     25.95066         5     0.826     0.506 -32.07   0
       227    804.2107    330.7382 300.3315521 +22.7306357     527.6453     72.56198      1.630     5.98     6.418445      20.4876     53.86613        10     1.454     0.782 -68.48   0
       228    327.1204    327.8374 300.1838231 +22.5869744     2533.777     72.58049      1.653     3.35     6.327817      20.4876     245.5945        27     1.227     1.172  57.75   0
       229     45.7873    325.2450 300.0971405 +22.5019434     1190.735     72.63599      2.177     5.53      6.42029      20.4876     79.36292        22     1.456     1.274 -56.90   0
       230    674.8013    322.5537 300.2938503 +22.6895540     364.2361     72.61749      1.236     4.18     6.913716      20.4876     38.19497         5     0.992     0.502  38.88   0
       231    296.5028    317.2648 300.1777222 +22.5747657     30290.79     72.72839      1.711     3.14     6.391658      20.4876     3086.996        78     1.516     1.397  50.48   0
       232    831.1954    315.2061 300.3450089 +22.7342416     1430.062     72.45084      1.614     3.34     6.463476      20.4876     135.9851        20     1.138     1.072  76.50   0
       233    746.5424    303.9627 300.3222509 +22.7056771     570.0615     72.61749      1.600     3.80     6.862731      20.4876     57.27089         9     0.999     0.716   7.19   0
       234    170.9378    303.6275 300.1430737 +22.5332334     468.8603     72.61749      1.654     5.38     6.975174      20.4876      47.3054        10     1.306     0.625  55.40   0
       235    395.0522    302.4465 300.2132091 +22.6000218      456.841     72.65448      1.430     4.46     6.613163      20.4876     54.27177         8     1.108     0.619  11.06   0
       236    707.0081    297.3620 300.3120636 +22.6919476     1875.086     72.63599      1.565     2.82     6.940663      20.4876     196.3698        26     1.216     1.145  57.00   0
       237    515.3902    292.1219 300.2540395 +22.6330852      423.054     72.58049      1.470     3.83      6.82496      20.4876     50.74671        10     0.943     0.930  30.07   0
       238    921.6722    290.3776 300.3812951 +22.7541653     523.0181     72.65448      1.325     4.46     6.493713      20.4876     56.34561         9     1.028     0.714  15.74   0
       239    368.7352    281.6117 300.2117723 +22.5861525     2231.856     72.56198      1.808     3.91     6.596727      20.4876     190.3382        28     1.464     1.069  50.77   0
       240    581.1371    281.1912 300.2780713 +22.6496239     374.1721     72.56198      1.563     3.82     6.838699      20.4876     49.14377         5     0.811     0.516 -45.76   0
       241    807.9508    274.8374 300.3508515 +22.7156729     534.0188     72.63599      1.365     2.96     6.623661      20.4876      69.7748         8     0.887     0.661 -61.47   0
       242    690.1511    272.5954 300.3148405 +22.6797793     317.6686       72.599      1.213     3.65     6.929378      20.4876     61.78693         6     0.817     0.469  12.46   0
       243    658.6631    271.8324 300.3052710 +22.6701364     309.9523     72.61749      1.201     3.91     6.894954      20.4876     31.27333         6     1.031     0.424 -77.13   0
       244    444.5056    261.0329 300.2420415 +22.6029250      1206.28     72.58049      1.640     3.71     6.726701      20.4876     118.6771        21     1.200     1.155  64.82   0
       245    956.6058    258.1597 300.4026484 +22.7553423      228.496     72.63599      1.324     4.65     6.612866      20.4876     34.94984         7     1.075     0.571 -18.91   0
       246    689.5873    253.0784 300.3209944 +22.6739968     2111.013     72.61749      1.572     3.26      6.91622      20.4876     216.8731        26     1.284     1.097  52.42   0
       247    950.7996    247.5349 300.4042817 +22.7505478     3178.813     72.61749      1.751     3.55     6.620472      20.4876     282.7922        34     1.389     1.294 -84.88   0
       248   1011.8439    242.5528 300.4249546 +22.7673700     361.8309     72.65448      1.640     5.33     6.675999      20.4876     35.87139         9     1.032     0.842 -79.04   0
       249   1020.2602    235.5166 300.4298642 +22.7678613     1652.996      71.4239      1.851     4.23     6.672664      20.4876      130.995        24     1.406     1.093  82.05  16
       250    397.8394    236.6988 300.2353995 +22.5819572     681.4684     72.61749      1.474     3.45     6.676268      20.4876     78.66734        13     1.084     0.949  57.42   0
       251     72.7207    230.9543 300.1360936 +22.4829306     1530.415     72.61749      2.112     4.27     7.077329      20.4876     121.2679        26     1.498     1.158 -25.82   0
       252    103.2243    231.0560 300.1455464 +22.4920985     589.5037     72.61749      1.695     4.53     7.063059      20.4876     47.10669        10     1.096     0.713  -0.47   0
       253    966.3829    228.0359 300.4154695 +22.7495961     606.9448     72.61749      1.779     4.53     6.654741      20.4876      48.4831         9     1.079     0.780  37.58   0
       254    810.6528    225.2603 300.3677724 +22.7022169     185.5507     72.67297      1.034     3.48     6.987213      20.4876     38.63022         5     0.757     0.463 -79.43   0
       255    156.6476    222.7964 300.1648408 +22.5057293      509.505       72.599      1.670     3.56     7.057508      20.4876      53.7178        10     0.969     0.892  22.10   0
       256     36.5589    195.9672 300.1361930 +22.4620457     7066.306     72.67297      7.994    26.90      7.17284      20.4876     302.3872       310    12.913     1.556 -33.92  24
       257    832.4326    217.1269 300.3772044 +22.7063919     282.5182     72.61749      1.271     4.10     6.988894      20.4876     37.57504         6     0.762     0.629 -43.91   0
       258    760.9315    214.7939 300.3556571 +22.6843303     688.1865     72.58049      1.491     3.97     6.996849      20.4876      64.8596         9     1.014     0.661  39.10   0
       259    351.6423    214.1112 300.2283394 +22.5616318     340.4026     72.61749      1.342     3.16     6.817166      20.4876      44.9613         9     0.903     0.672  22.58   0
       260    851.5247    207.5536 300.3862652 +22.7093480     278.0241     72.61749      1.244     2.92     6.992588      20.4876     51.94022         5     0.876     0.542  49.11   0
       261    859.2484    203.5936 300.3899592 +22.7105187     2083.899     72.61749      1.654     3.36     6.994632      20.4876      204.859        28     1.292     1.222  34.34   0
       262    277.7836    200.5984 300.2097295 +22.5356310     2077.802     72.50643      1.657     3.68     6.852838      20.4876     209.7253        26     1.313     1.136  49.11   0
       263    355.7847    195.7898 300.2355692 +22.5576053     1079.964     72.54347      1.655     3.75     6.867069      20.4876      101.588        18     1.143     1.038  73.24   0
       264    757.6015    195.8161 300.3607718 +22.6778738     432.4327     72.48791      1.413     2.91     7.017153      20.4876     58.29587         9     0.894     0.652 -17.54   0
       265    107.8071    196.3940 300.1582097 +22.4835129     245.4579     72.46938      1.356     4.12     7.060303      20.4876     33.53649         6     0.719     0.674  70.06   0
       266    172.8558    187.8737 300.1812051 +22.5005493     658.7596     72.63599      1.589     4.86     7.014444      20.4876     73.85272        14     1.232     1.024  27.89   0
       267    710.3239    185.0712 300.3495118 +22.6606377     1726.799     72.70992      1.614     3.19     6.975736      20.4876      166.774        23     1.240     1.113  60.21   0
       268    775.4659    184.8917 300.3698855 +22.6800749     478.3277     72.74686      1.301     3.80     7.012903      20.4876     56.85553        10     1.038     0.698  39.75   0
       269    193.9311    181.4144 300.1898558 +22.5050053     559.9476     72.63599      1.840     4.99     6.976382      20.4876     42.21832        10     1.082     0.781  -6.53   0
       270    981.8987    177.5681 300.4366771 +22.7397085     875.3347       72.599      1.730     4.45     6.657645      20.4876     82.76379        19     1.455     1.042  50.90   0
       271    714.6687    176.3236 300.3537026 +22.6594209     710.4312     72.70992      1.763     4.59     6.998916      20.4876      81.5702        14     1.319     0.850 -83.46   0
       272    634.9912    175.8513 300.3290144 +22.6354448       1143.8     72.61749      1.393     2.93     6.937756      20.4876     145.2523        18     1.076     0.945  21.12   0
       273    456.3593    172.0400 300.2745885 +22.5808866     291.4903     72.69144      1.389     2.53     6.790143      20.4876     50.50054         6     0.898     0.714  32.08   0
       274    830.5024    167.4198 300.3927184 +22.6915102      1352.32     72.54347      1.651     3.44     6.999088      20.4876     146.0231        18     1.137     1.016  54.79   0
       275    561.3841    167.5809 300.3087545 +22.6110388     758.0438       72.599      1.434     2.86     6.895618      20.4876     88.08752        15     1.011     0.894  33.90   0
       276    842.5410    166.6944 300.3967095 +22.6949022      775.433     72.69144      1.669     3.42      7.00278      20.4876     80.49218        14     1.142     0.803  21.87   0
       277    435.8691    165.6561 300.2702761 +22.5729174     1794.795     72.63599      0.919     3.58     6.766325      20.4876     574.8549         8     0.837     0.442 -24.26   0
       278   1003.3710    157.1989 300.4499844 +22.7402649     1724.814     72.58049      1.864     3.77     6.660925      20.4876       137.64        28     1.454     1.200 -74.78   0
       279    959.3598    156.8724 300.4363504 +22.7270111     1152.914       72.599      1.712     3.98     6.671951      20.4876     103.8835        19     1.260     1.036 -51.58   0
       280    193.3856    149.6430 300.1999849 +22.4957112     766.3216     72.63599      1.673     3.51     6.982369      20.4876     87.32346        14     1.129     0.862 -57.77   0
       281     54.9859    144.0962 300.1587366 +22.4526640     2312.905     72.52496      1.996     4.03     7.248009      20.4876     210.0323        30     1.443     1.272  25.76   0
       282    878.3444    141.7060 300.4159816 +22.6984183     868.4001     72.67297      1.668     3.85     6.978065      20.4876     71.19304        14     1.042     0.918 -22.73   0
       283      5.2303    141.4011 300.1441410 +22.4369843     434.1917     72.33952      1.730     4.04     7.524154      20.4876     37.25416         6     0.900     0.518 -43.65  16
       284    212.5593    137.4590 300.2098997 +22.4979514     5697.705     72.61749      1.816     3.40     6.976606      20.4876     551.6899        41     1.468     1.303  57.88   0
       285    196.0517    128.8387 300.2075575 +22.4905304     607.8657     72.61749      1.615     3.19     6.980083      20.4876     57.90268         9     0.868     0.753  63.88   0
       286   1011.4948    125.3837 300.4628340 +22.7335336     18114.49     72.54347      1.852     3.84     6.669121      20.4876     1515.155        67     1.605     1.459  87.69   0
       287    856.6613    119.2931 300.4164806 +22.6854825     3566.674     72.70992      1.721     3.42     7.050643      20.4876     343.0085        35     1.417     1.222  71.07   0
       288    960.4013    118.2498 300.4491952 +22.7162035     2818.666       72.599      1.754     3.35     6.808746      20.4876     288.2722        33     1.428     1.286 -45.33   0
       289    406.1407    114.7215 300.2775273 +22.5493724     595.1248     72.65448      1.536     3.81     6.940793      20.4876     55.20868         9     1.063     0.602   8.08   0
       290    330.6644    105.8466 300.2569031 +22.5242266     768.3215     72.65448      2.034     5.14     7.042524      20.4876     47.83913        13     1.069     0.913 -58.05   2
       291    457.4106    101.7969 300.2976840 +22.5610013     1738.251      72.4323      1.644     3.25     6.876077      20.4876     163.3281        21     1.227     1.009  62.04   0
       292     96.5719    102.8830 300.1850252 +22.4532781     700.7399     72.61749      1.964     4.43     7.026204      20.4876     57.05298        14     1.232     1.041 -27.18   0
       293    385.9560    102.2900 300.2752707 +22.5397557     434.3577     72.61749      1.509     4.00     7.008153      20.4876     42.43953         7     0.739     0.678 -54.10   0
       294    518.8845    100.9409 300.3171120 +22.5791527     368.3998     72.72839      1.587     4.89     6.820926      20.4876     41.93139         9     1.101     0.908 -17.32   0
       295    201.1653     97.3566 300.2193514 +22.4830130     455.7094     72.67297      1.751     4.58     6.987298      20.4876      36.6236         7     1.082     0.551 -24.89   0
       296    745.6509     91.1556 300.3909707 +22.6441824     320.4157     72.65448      1.543     5.05     7.084906      20.4876     49.72362         9     1.284     0.644  44.17   0
       297    636.2863     86.6499 300.3583311 +22.6101701     342.1688     72.61749      1.691     3.42     6.945854      20.4876     37.68083         5     0.761     0.444 -16.30   0
       298   1021.7315     82.9128 300.4797956 +22.7243646     3608.824     66.41523      1.838     3.54     6.633941      20.4876      278.409        39     1.531     1.363 -37.08  24
       299    231.5393     81.3281 300.2339966 +22.4875004     5945.309     72.65448      1.791     3.54     7.031774      20.4876     593.1945        44     1.482     1.342  62.24   0
       300     82.5066     80.9367 300.1877628 +22.4427589     795.6721     72.72839      1.815     4.24      7.31255      20.4876     62.36406        14     1.221     0.867  10.12   0
       301    477.6086     66.7750 300.3153247 +22.5569734     6456.412     72.61749      1.689     3.27     6.709078      20.4876     560.8376        47     1.473     1.320  59.34   0
       302    363.5518     66.8252 300.2797872 +22.5228514     561.2598     72.61749      1.503     3.01     7.015326      20.4876     72.56509         8     0.903     0.610  74.61   0
       303    671.4500     58.4210 300.3784410 +22.6125670     213.6882     72.61749      1.206     3.60     7.078783      20.4876     38.47143         6     0.929     0.654  23.15   0
       304    729.9973     56.9361 300.3971780 +22.6296523     766.1933       72.599      1.487     3.47     7.160948      20.4876     78.35159        12     1.080     0.731   2.58   0
       305    822.6783     56.2264 300.4263166 +22.6571663     434.9232     72.61749      1.512     3.87     7.102136      20.4876     57.91426         7     0.988     0.653  -3.16   0
       306    170.5967     50.5081 300.2250214 +22.4603934     518.8052     72.50643      1.819     3.32     6.947104      20.4876     56.22297         8     0.992     0.775  88.52   0
       307    529.0818     49.9188 300.3368229 +22.5675274     508.1732     72.76532      1.606     4.69     6.655647      20.4876      49.9528         7     0.889     0.703  18.47   0
       308    606.0401     47.0296 300.3617419 +22.5897217     6340.982     72.63599      1.604     3.12     6.695034      20.4876     617.8083        44     1.414     1.262  68.56   0
       309    380.9366     45.8501 300.2919966 +22.5220231     1412.542     72.67297      1.597     3.24     6.950445      20.4876     140.8221        23     1.317     1.064  66.41   0
       310    647.2446     44.8412 300.3752949 +22.6014186     769.7929     72.69144      1.414     3.16     6.965034      20.4876     87.79058        12     1.042     0.752  28.72   0
       311    717.1815     42.3875 300.3978956 +22.6216321     512.2673     72.58049      2.130     3.42     7.192247      20.4876     40.74903         6     0.732     0.637 -62.50   0
       312    663.0389     40.5013 300.3816250 +22.6048944       436.33     72.63599      1.379     3.58     7.096984      20.4876     56.11202         8     1.024     0.562  23.51   0
       313    129.7506     38.6825 300.2161468 +22.4447634     609.1891     72.63599      1.673     4.60     7.234204      20.4876     56.69474        12     1.305     0.751 -13.47   0
       314    933.0192     38.3774 300.4665324 +22.6850201     399.4713     72.61749      1.492     4.41     6.990801      20.4876     45.53332         7     0.761     0.727   8.11   0
       315    701.9092     36.6585 300.3949895 +22.6154153     552.2903     72.69144      1.367     2.71     7.204831      20.4876     59.18659         7     0.723     0.654   9.79   0
       316    650.2733     32.0271 300.3803909 +22.5986372     2863.907     72.61749      1.654     3.13     7.001096      20.4876     242.4929        31     1.291     1.202  70.55   0
       317    665.2538     30.9360 300.3854147 +22.6028043     875.4968     72.65448      1.810     3.71       7.1512      20.4876     74.53577        13     1.077     0.867  42.42   0
       318    736.8716     23.6485 300.4101074 +22.6221279     1505.276       72.599      1.763     3.50     7.239309      20.4876     141.8509        25     1.244     1.179 -60.12   0
       319    716.0197   1014.7790 300.0818188 +22.9008277     503.0861     72.61749      1.908     6.72     4.516273      20.4876     28.08471         9     1.665     0.762  -8.64  16
       320    279.9838   1012.2616 299.9468192 +22.7693635     624.3502     72.56198      1.661     6.17     17.23815      20.4876     52.36592        12     1.488     0.760  42.13   0
       321     53.7624     16.1831 300.1998041 +22.4155412      435.649     72.61749      1.544     3.26     7.804467      20.4876     48.65094         8     0.883     0.727  -8.75   0
       322    115.6281   1006.9559 299.8974186 +22.7185317     1462.788     72.63599      2.048    15.17     89.01962      20.4876     58.65804        38     3.551     1.801 -44.09  18
       323    766.1696     13.3907 300.4225682 +22.6279373     504.1112     72.61749      1.505     2.55     7.276002      20.4876     54.09106         7     0.732     0.645 -12.50   0
       324    183.0778   1002.1922 299.9199455 +22.7374034     1960.911     72.58049      5.441    26.12     81.11009      20.4876     49.04659       109     5.488     3.451   4.53  19
       325    183.9627    986.3633 299.9253695 +22.7331285     4139.449     72.69144      7.950    22.24     66.69444      20.4876     83.06225       277     5.223     4.762  26.45   3
       326    202.7238    985.2105 299.9315804 +22.7384263     4781.214     72.61749      8.352    26.26     62.86093      20.4876     101.6553       380     6.257     4.845 -60.65   3
