#   1 NUMBER                 Running object number                                     
#   2 X_IMAGE                Object position along x                                    [pixel]
#   3 Y_IMAGE                Object position along y                                    [pixel]
#   4 ALPHA_J2000            Right ascension of barycenter (J2000)                      [deg]
#   5 DELTA_J2000            Declination of barycenter (J2000)                          [deg]
#   6 FLUX_APER              Flux vector within fixed circular aperture(s)              [count]
#   7 FLUXERR_APER           RMS error vector for aperture flux(es)                     [count]
#   8 FLUX_RADIUS            Fraction-of-light radii                                    [pixel]
#   9 FWHM_IMAGE             FWHM assuming a gaussian core                              [pixel]
#  10 BACKGROUND             Background at centroid position                            [count]
#  11 THRESHOLD              Detection threshold above background                       [count]
#  12 FLUX_MAX               Peak flux above background                                 [count]
#  13 ISOAREA_IMAGE          Isophotal area above Analysis threshold                    [pixel**2]
#  14 A_IMAGE                Profile RMS along major axis                               [pixel]
#  15 B_IMAGE                Profile RMS along minor axis                               [pixel]
#  16 THETA_IMAGE            Position angle (CCW/x)                                     [deg]
#  17 FLAGS                  Extraction flags                                          
         1    835.2773     13.9971 300.4259103 +22.6183951     586.3607     72.54227      1.415     3.68     4.797147     20.49249     67.00275         9     0.949     0.662  73.73   0
         2    758.6313     13.6284 300.4021474 +22.5953447     518.0504     72.63484      1.390     2.99     4.743892     20.49249     57.11261         8     0.865     0.673 -79.36   0
         3    855.3428     10.0377 300.4334469 +22.6232628     2248.578     72.63484      1.461     2.75     4.835842     20.49249     258.4213        27     1.299     1.054  83.07   0
         4    561.2292      8.4443 300.3423542 +22.5347449     506.2202     72.67183      1.145     2.12     4.933742     20.49249     68.91375         5     0.667     0.482  15.39   0
         5    238.5349      5.3540 300.2429786 +22.4371809     929.4833     72.50522      1.540     3.12     4.981566     20.49249     116.7351        17     1.092     0.990  34.27  16
         6    803.7819      2.6726 300.4197650 +22.6057112     948.8098     63.66277      1.346     2.63     4.781542     20.49249      134.735        17     1.029     0.987  44.58  24
         7    510.4939      1.4999 300.3288133 +22.5175537     286.1286     57.63603      1.126     3.34     4.682574     20.49249     54.78192         7     0.889     0.672 -23.51  24
         8    798.7538   1010.1334 300.0910656 +22.8935439     614.4163     72.63483      2.254     7.34     3.160939     20.49249     46.49162        16     1.436     1.285  33.79   0
         9    312.0049   1018.2511 299.9369428 +22.7497837     2068.639     72.61633      4.424    17.31     45.78619     20.49249     56.64005        76     3.495     2.383 -72.29  27
        10    298.9998   1022.5782 299.9314920 +22.7471184     1303.057     62.38341      4.708    14.61     61.08325     20.49249     73.45602        48     4.433     1.339  -0.70  27
        11    265.4754   1008.9222 299.9255146 +22.7331383     3935.439     72.74576      7.227    25.89     62.72362     20.49249     83.87249       259     5.566     4.285 -77.34  19
        12    284.0976   1008.6248 299.9313997 +22.7386451      4704.71     72.54227      8.731    32.97     61.86065     20.49249     90.60329       388     7.186     4.667 -46.18  19
        13    303.2765    997.0648 299.9411225 +22.7410916      7662.97     72.72729      8.045    26.14     43.11639     20.49249     217.0068       617     8.943     4.884  61.61  19
        14    238.5439   1022.2533 299.9128070 +22.7288700     2556.721     63.99961      4.248    14.37     72.06993     20.49249     80.09437        53     2.634     2.180 -42.56  27
        15    233.4734   1020.6974 299.9117375 +22.7269014     2429.516     70.24593      6.058    23.42     71.64096     20.49249     72.97894       113     7.301     2.087 -59.95  19
        16    141.6022    939.0351 299.9097581 +22.6759136     3312.469     72.59782     15.159    49.01     16.30301     20.49249     86.70163       773    10.535     6.326 -39.51   3
        17    143.5800   1016.3192 299.8852315 +22.6986475     5175.125     72.61633     11.631    44.58      51.6156     20.49249     95.54982       781    10.571     6.418  10.91  27
        18    141.2579    977.4409 299.8971585 +22.6868129     4953.351     72.61633     24.151    81.36     32.56766     20.49249     104.2092      3286    18.536    15.523 -32.09  19
        19    596.5867    971.0007 300.0408417 +22.8216643      451.012     72.46814      1.811     5.85     3.091601     20.49249     28.38025         7     1.091     0.882 -70.63   0
        20    248.0885   1021.7433 299.9159392 +22.7315903     995.1385     66.30961      3.735    13.29      71.7804     20.49249     45.25675        21     2.574     1.908  17.54  27
        21    868.5749    969.8563 300.1259263 +22.9029310      325.058     72.63484      1.758     4.54     2.830292     20.49249     33.23113         5     1.180     0.496  35.41   0
        22    232.1860   1001.5558 299.9175653 +22.7210306     1954.396     72.65334      5.524    18.73     59.87564     20.49249     69.91363        62     4.320     2.256  84.97  19
        23    625.1248    967.1978 300.0509625 +22.8291371     1580.009     72.54227      1.766     3.89     3.110283     20.49249     105.8636        24     1.242     1.176 -35.71   0
        24     20.1631    981.7891 299.8581366 +22.6516826     557.8588     72.59782      2.401     6.92     2.254687     20.49249     38.79366        10     1.427     0.942 -48.87   0
        25    519.1004    963.5557 300.0191486 +22.7962760      946.256     72.65334      1.764     4.26     3.256058     20.49249     66.01815        17     1.143     1.053 -32.54   0
        26    449.6936    961.6340 299.9981801 +22.7748932      6655.71     72.59782      1.809     3.97     3.427887     20.49249     477.0147        41     1.404     1.358  12.88   0
        27    225.7580   1020.6978 299.9093397 +22.7245843      1526.68     70.11189      3.248    13.14     71.87328     20.49249     54.27914        40     2.440     1.968  14.95  27
        28    482.2131    949.1264 300.0123654 +22.7810681     530.6035     72.65334      1.828     5.27     3.292502     20.49249     48.92859        12     1.208     0.886  -1.76   0
        29    995.9661    940.4877 300.1751925 +22.9327025     2149.027     72.59782      1.978     4.71     3.575365     20.49249     123.1208        31     1.417     1.325 -41.33   0
        30     47.3421    996.2805 299.8618614 +22.6639981     427.4877     72.67183      1.446     3.50     6.590247     20.49249     52.07935         5     1.165     0.304 -53.07   0
        31    990.6342    993.2121 300.1563761 +22.9462363      848.353     72.61633      2.097     6.45     2.231352     20.49249     47.55812        13     1.119     1.046  75.56   0
        32    218.5619    983.2746 299.9192789 +22.7117012     523.3687     72.57932      2.542     4.52     48.25773     20.49249     27.54568         5     1.205     0.482 -83.93   0
        33    645.7912    937.5466 300.0670422 +22.8268340     440.4213     72.63484      1.797     5.83     3.203377     20.49249     41.53354         9     1.048     0.912  59.67   0
        34    494.3546    936.7298 300.0201753 +22.7811578     335.8017     72.61633      1.617     5.01     3.351579     20.49249     28.66132         6     0.972     0.732  15.08   0
        35    784.8748    929.0443 300.1131233 +22.8661176     723.5292     72.61633      1.881     6.81      3.65788     20.49249     48.19936        15     1.576     0.825  27.69   0
        36    598.3572    924.9639 300.0563685 +22.8089932     475.9658     72.69032      2.466     4.37     3.143178     20.49249     32.86176         4     0.773     0.704  -0.68   2
        37    819.7735    923.5518 300.1257828 +22.8750086     1050.685     72.65334      1.725     4.52     3.591649     20.49249     69.99903        18     1.197     1.016   3.70   0
        38     29.1623    920.8135 299.8807638 +22.6369216      636.298     72.63483      1.992     6.70     3.609765     20.49249      55.0966        14     1.394     0.942 -12.62   0
        39    841.8890    917.1445 300.1347580 +22.8798026     11317.34     72.67183      1.797     3.92     3.462494     20.49249     670.2119        52     1.441     1.422 -35.92   0
        40    887.5014    917.2125 300.1489505 +22.8935004     542.4662     72.54227      1.822     5.30     3.316412     20.49249      39.2519        10     1.006     0.788  13.85   0
        41    153.3114    908.7465 299.9232466 +22.6707520     907.8511     72.65334      2.148     4.52     10.89703     20.49249     77.53175        15     1.172     1.078 -15.81   0
        42    547.0837    905.2656 300.0468170 +22.7879591     354.4598     72.74576      1.416     4.01     3.343591     20.49249     51.05743         6     0.988     0.573  46.49   0
        43    213.0994    979.2110 299.9189034 +22.7088964     1078.608     72.54227      3.634     6.82     45.51758     20.49249     41.96166        15     1.862     0.700 -77.15   3
        44    850.3058    899.3318 300.1431746 +22.8772152     1245.514      72.7827      1.744     4.02     3.462711     20.49249     89.72357        25     1.327     1.164  30.13   0
        45    702.5663    896.4883 300.0980755 +22.8320890     536.6021     72.59782      1.881     4.18     3.432085     20.49249     38.67907         6     1.186     0.420  45.10   0
        46    567.0876    896.9252 300.0557552 +22.7915695     312.6835     72.76423      1.447     4.51     3.330016     20.49249     41.42513         5     1.414     0.442  26.21   0
        47    888.6284    892.9239 300.1572019 +22.8868678     837.2092     72.61633      1.949     6.59      3.45982     20.49249     54.26377        16     1.628     0.774  25.23   0
        48    255.1170    891.6602 299.9604380 +22.6964247     580.2444     72.74576      3.959     4.61     7.880545     20.49249     33.17175         5     1.350     0.448  60.33   0
        49    937.1800    883.5148 300.1753960 +22.8987246      469.993      72.5608      1.703     6.69     3.687806     20.49249     39.46326        13     1.285     0.977  81.09   0
        50    788.1047    882.9564 300.1291199 +22.8538626     670.3522     72.65334      1.724     6.10     3.669006     20.49249      59.8819        13     1.109     1.095 -54.49   0
        51     48.2369    881.8065 299.8993716 +22.6314770     527.1367     72.65334      1.642     5.81     3.883258     20.49249     142.2372         9     1.495     0.635  58.13   0
        52    500.8680    879.3647 300.0408592 +22.7666634     4044.591     72.63483      1.634     3.42     3.614697     20.49249     330.7734        31     1.237     1.204   5.51   0
        53    799.5660    879.8456 300.1337023 +22.8564072     595.3945     72.65334      1.719     5.96     3.713511     20.49249     50.00172        13     1.203     0.832  23.01   0
        54    544.9996    867.4393 300.0584700 +22.7764857     364.7227     72.63484      1.245     3.07      3.43219     20.49249      45.9455         6     0.787     0.635 -33.52   0
        55    226.4101    865.0378 299.9601733 +22.6801759      746.162     72.63484      1.686     4.69     5.719685     20.49249     64.46169        16     1.142     1.050 -59.34   0
        56    208.4119    978.5930 299.9176479 +22.7073116     1567.027     72.50522      4.857    11.65     45.26441     20.49249     52.65894        34     2.300     1.643  74.17   2
        57    203.2924    861.8513 299.9540254 +22.6723218     1580.459     72.69032      1.773     3.99     5.494232     20.49249     121.2837        25     1.298     1.179  19.08   0
        58    734.3342    850.0269 300.1230789 +22.8282875     573.6349     72.61633      1.945     4.41     3.480149     20.49249     35.77921         6     1.168     0.524 -64.20   0
        59    812.7507    843.6130 300.1495928 +22.8499636     811.0353     72.67183      1.921     5.07     3.640436     20.49249     52.22428        15     1.206     0.946  31.51   0
        60    235.9845    843.6063 299.9701171 +22.6769079       440.28      72.5608      1.619     6.01     5.086488     20.49249     38.59218         9     1.092     1.020  29.88   0
        61    680.8704    837.4729 300.1105108 +22.8086502     4830.126      72.7088      1.589     3.21     3.489945     20.49249     397.7362        32     1.252     1.180   4.41   0
        62    196.8968    980.0000 299.9136121 +22.7042566     1372.778     72.50522      4.418     3.69      45.2991     20.49249     41.40073         5     0.923     0.548   1.51   2
        63    483.1547    834.5586 300.0499176 +22.7484990     582.2914      72.7088      1.604     5.01      3.90419     20.49249     60.39821        13     1.239     0.949  28.72   0
        64    231.0501    831.0324 299.9726717 +22.6718225     1250.214     72.67183      1.747     3.99     4.867052     20.49249     122.1949        24     1.259     1.215  43.87   0
        65    701.4768    830.0626 300.1193373 +22.8127046     728.8051     72.69032      1.600     3.79     3.487964     20.49249     70.73821        14     1.032     0.965 -40.01   0
        66    250.1440    828.3950 299.9794634 +22.6767986      572.563     72.59782      1.785     5.35     4.624318     20.49249     46.94392        12     1.149     0.875  33.13   0
        67    618.3337    821.2922 300.0963009 +22.7852497     296.1025      72.7827      1.463     4.74     3.486366     20.49249     37.78407         6     1.077     0.591  26.46   0
        68    857.0272    817.1586 300.1719913 +22.8556471     4302.862     72.67183      1.662     3.44     3.536935     20.49249     313.5704        36     1.317     1.250 -63.08   0
        69    265.6081    811.2859 299.9898321 +22.6765364      523.874      72.5608      1.639     2.79     4.266544     20.49249     63.50662         6     0.840     0.710 -20.27   0
        70    573.8726    809.6932 300.0862321 +22.7685849     624.1668     72.76423      1.370     3.81     3.749013     20.49249      67.4978        14     1.138     0.877   9.69   0
        71    220.4841    807.4521 299.9770540 +22.6618917     1030.472     72.67183      1.747     3.88     4.352548     20.49249     98.93094        21     1.297     1.094  21.28   0
        72    635.6313    803.0023 300.1076324 +22.7851912     478.9869     72.59782      1.531     3.85     3.504601     20.49249     71.54146        12     1.100     0.869 -51.01   0
        73    369.9954    799.7111 300.0260489 +22.7045488     53831.74     72.54227      1.581     3.13     4.089548     20.49249     5318.074       100     1.447     1.393  49.44   0
        74    627.7940    798.7442 300.1065767 +22.7816188     1598.486     72.61633      1.547     3.09     3.516306     20.49249      160.851        22     1.166     1.033 -44.28   0
        75    298.5511    797.7337 300.0044781 +22.6825395     545.8384     72.63484      1.637     3.49     4.102092     20.49249     58.27037        10     0.973     0.816 -18.03   0
        76    656.9810    794.8718 300.1169228 +22.7892621     1022.082     72.65334      1.628     3.73     3.520867     20.49249     93.37326        15     1.140     0.927 -33.72   0
        77     56.9619    794.2565 299.9305445 +22.6090133     772.4704     72.63484      1.752     3.49     3.664305     20.49249     77.86866        10     1.174     0.605  57.76   2
        78     22.8768    794.2401 299.9199657 +22.5987729     918.9839     72.61633      2.184     5.05      3.21892     20.49249     74.32888        19     1.396     1.158  43.30   0
        79    667.8285    793.1324 300.1208659 +22.7920165     502.4787     72.63484      1.294     3.62     3.517845     20.49249     57.35853         8     0.799     0.702  47.41   0
        80    987.6958    790.8398 300.2212809 +22.8872626     169.6772     72.61633      1.224     4.77     4.111998     20.49249     24.42142         6     1.175     0.549 -23.34   0
        81    772.9890    789.6018 300.1547659 +22.8225400     491.2743     72.44959      1.482     3.92     3.498991     20.49249     51.83364         9     0.962     0.777   8.17   0
        82    329.8421    787.9395 300.0173901 +22.6891230     980.3646     72.61633      0.496    -1.22     4.085566     20.49249     745.7224         5     0.419     0.334  54.56   0
        83    419.7372    776.9561 300.0489159 +22.7129505     31220.76     72.63484      1.529     2.94     4.047258     20.49249      3379.71        72     1.337     1.328 -43.98   0
        84    810.6755    779.4220 300.1698165 +22.8309183     815.9357     72.61633      1.710     4.58     3.508963     20.49249     62.80976        17     1.244     0.977 -87.12   0
        85    433.9826    777.5166 300.0531647 +22.7173857     2035.274     72.59782      1.525     3.20     4.040294     20.49249     188.2379        25     1.213     1.133  59.28   0
        86    942.8489    772.9808 300.2131042 +22.8686928     2899.158     72.65334      1.676     3.44     4.008487     20.49249     215.0271        30     1.273     1.238 -37.57   0
        87    430.9477    771.4909 300.0541794 +22.7147469     754.7881     72.69032      1.720     3.73     4.039297     20.49249     63.05819        13     1.028     0.872 -13.03   0
        88    700.6230    768.9086 300.1389528 +22.7949009     874.1231      72.5608      1.454     3.41     3.474087     20.49249     90.31004        16     1.098     0.941  22.63   0
        89    537.1184    769.1454 300.0879746 +22.7459276     534.2866     72.67183      1.586     3.37      4.04172     20.49249     59.53586         9     0.919     0.684  -0.18   0
        90    302.2415    768.5337 300.0151170 +22.6752754     781.4901     72.61633      1.525     3.23     4.071705     20.49249     89.71555        14     1.052     0.881  64.17   0
        91    107.1399    764.0914 299.9559335 +22.6154356     534.5339      72.7088      1.584     4.32     4.136486     20.49249     46.66341        12     1.089     0.919  52.71   0
        92    547.9600    763.5908 300.0931541 +22.7475864     975.5157     72.63484      1.607     3.39     4.033734     20.49249     101.3657        16     1.075     0.973 -31.45   0
        93    949.1879    760.8261 300.2190317 +22.8671031     520.5153     72.63483      1.690     5.67      4.04003     20.49249     42.84347        10     1.169     0.776  48.15   0
        94    449.8981    760.2476 300.0637288 +22.7172083     390.5909     72.67183      1.408     4.84     4.019966     20.49249     39.43975         7     1.118     0.593  31.75   0
        95    406.0976    759.6392 300.0503023 +22.7038916     374.3835     72.61633      1.404     4.28     4.043458     20.49249     48.98357         7     0.758     0.690 -29.30   0
        96    493.7307    758.5379 300.0779215 +22.7298686     452.3297     72.67183      1.554     4.46     4.004722     20.49249      46.6515        10     0.988     0.781   6.52   0
        97    135.2439    758.1704 299.9665879 +22.6221763     525.2134     72.67183      1.596     3.74     4.129953     20.49249     66.63128        11     1.131     0.864  -4.61   0
        98    926.5486    755.6196 300.2136663 +22.8588224     467.3636     72.61633      1.722     5.42     3.996176     20.49249     37.56061         9     1.068     0.777 -33.65   0
        99    300.0938    753.0231 300.0194906 +22.6701837     400.1503     72.54227      1.407     4.29     4.056592     20.49249      54.2446        10     1.107     0.686  21.89   0
       100    623.1461    743.6795 300.1230291 +22.7644259     455.3269     72.67183      1.392     4.02     3.819681     20.49249     59.24199         9     0.946     0.668  59.44   0
       101    592.6700    741.9851 300.1140926 +22.7547991     687.9803     72.65334      1.681     3.29      3.94109     20.49249     70.93958        11     0.935     0.844  -8.88   0
       102   1009.2349    738.2031 300.2451083 +22.8786032     4379.866     72.63484      1.667     3.38     4.146241     20.49249      324.303        40     1.385     1.315  67.31   0
       103    501.8541    741.0122 300.0861453 +22.7272784     357.5546     72.65334      1.377     4.59     3.997704     20.49249      40.8839         8     0.905     0.751   8.18   0
       104    614.7152    739.0988 300.1218933 +22.7605829     1358.996     72.80116      1.420     2.88      3.89176     20.49249     150.7014        18     1.090     0.937  81.52   0
       105    534.7679    738.8268 300.0970976 +22.7365250     319.7536     72.63483      1.282     3.64     4.037399     20.49249       42.881         8     0.953     0.621 -31.23   0
       106    696.3278    734.2734 300.1488729 +22.7836735     310.1846     72.69032      1.139     3.22      3.48963     20.49249     42.69679         8     0.878     0.637  89.80   0
       107    997.7183    729.6505 300.2442968 +22.8726958     1684.845     72.65334      1.626     3.53     4.161016     20.49249     143.1653        21     1.166     1.089 -15.56   0
       108    360.6862    723.5500 300.0479088 +22.6799156     851.0402     72.63484      1.461     3.53     3.986254     20.49249     84.84446        14     1.079     0.873 -31.45   0
       109    824.1859    720.9025 300.1930476 +22.8181709     2547.069     72.52375      1.598     3.10     3.497034     20.49249     242.8723        31     1.469     1.118  -0.56   0
       110     46.6306    710.8713 299.9544362 +22.5820157     784.0243     72.63483      1.617     3.34     4.042091     20.49249     92.60372        13     1.068     0.926  18.17   0
       111    209.4979    707.4301 300.0061486 +22.6299210     546.3372     72.57932      1.590     3.69     3.906222     20.49249     58.87027        11     1.089     0.691  27.83   0
       112    906.3222    706.9472 300.2231810 +22.8387850     600.2133     72.67183      1.658     3.46     3.913423     20.49249     57.42649        12     0.990     0.836  24.95   0
       113    942.5230    697.8545 300.2374210 +22.8470237     147518.5     72.67183      1.610     3.22     4.062025     20.49249     12377.78       163     1.535     1.487  55.54   0
       114    704.7527    701.4335 300.1621695 +22.7767749     375.5418     72.67183      1.481     5.16     3.613678     20.49249     43.56637         8     0.999     0.753 -75.06   0
       115    794.8386    698.1412 300.1913008 +22.8028390     733.9693     72.65334      1.388     3.61      3.47264     20.49249     72.10287        14     1.102     0.866   4.17   0
       116    975.5872    690.7856 300.2500270 +22.8549025     363.8219      72.5608      1.400     3.94     4.215673     20.49249     46.73827         9     1.068     0.619 -45.39   0
       117    628.7188    686.6818 300.1432874 +22.7497416     1582.721     72.78269      1.357     2.72     4.060055     20.49249     198.7449        19     1.035     0.986 -32.68   0
       118    810.0216    683.9847 300.2006316 +22.8033265      9411.15     72.61633      1.474     2.89     3.559906     20.49249     952.4619        45     1.272     1.201  68.55   0
       119    292.3452    685.5845 300.0389973 +22.6485208     314.0072     72.61633      1.613     4.53     3.846796     20.49249     38.86372         6     1.023     0.569  27.35   0
       120    311.4464    678.9482 300.0470919 +22.6523496     5006.851     72.67183      1.507     2.84     3.864204     20.49249     603.3082        32     1.195     1.133  53.33   0
       121     25.2000    677.4942 299.9586263 +22.5660157     1586.522     72.50522      1.669     3.26     4.018856     20.49249     154.0751        26     1.284     1.232  66.24   0
       122    393.5081    677.1590 300.0731907 +22.6764583     969.0261     72.63484      1.402     2.72     3.969058     20.49249     134.6856        16     1.069     0.890  76.73   0
       123    268.9229    674.7293 300.0352433 +22.6383793     498.9675     72.74576      1.487     4.67     3.794737     20.49249     49.62941        11     1.136     0.827 -72.37   0
       124    601.5761    672.6681 300.1393911 +22.7375804     707.6487     72.61633      1.338     2.45     4.219027     20.49249     115.1406        11     0.904     0.733  17.24   0
       125    593.3582    664.6730 300.1394308 +22.7328217     3241.551     72.61633      1.391     2.49     4.234601     20.49249     445.3432        27     1.113     1.059  66.41   0
       126    583.6693    658.5276 300.1384115 +22.7281526     1473.728      72.7088      1.408     2.76     4.246657     20.49249     187.1535        18     1.030     0.979  40.36   0
       127    511.9525    657.6560 300.1163747 +22.7063937     283.3898     72.67183      1.167     2.12     4.102051     20.49249     55.82254         5     0.714     0.422  22.17   0
       128    977.0699    656.1577 300.2617416 +22.8454018     504.9994     72.59782      1.635     3.42     4.266657     20.49249     52.61703         5     0.953     0.398  64.18   0
       129    494.5763    655.6896 300.1116068 +22.7006178     309.9427      72.5608      1.230     2.75     4.026054     20.49249     48.05349         5     0.741     0.440 -67.80   0
       130    247.0980    654.6627 300.0349790 +22.6260757     765.5804     72.72729      1.590     3.23     3.833473     20.49249     75.78116        11     0.969     0.835 -62.10   0
       131    261.0215    652.9171 300.0398739 +22.6297534     574.7148     72.59782      1.415     4.24     3.840034     20.49249     72.29478        11     0.976     0.856  26.62   0
       132    317.7547    649.8838 300.0584961 +22.6459070      294.331     72.61633      1.426     3.44     3.898901     20.49249     61.54591         7     1.106     0.823  67.93   0
       133    287.1243    649.7298 300.0490234 +22.6366721     509.0845      72.7088      1.339     3.83     3.850983     20.49249     54.15452        10     0.974     0.739 -46.10   0
       134    607.5397    648.9681 300.1489479 +22.7325675     446.9741     72.67183      1.455     2.86     4.264679     20.49249     55.40522         8     0.830     0.644   4.05   0
       135    508.4573    648.3134 300.1183225 +22.7026648     1825.702     72.72729      1.371     2.52     4.091023     20.49249     193.4778        17     0.954     0.937  13.81   0
       136    162.4087    643.1162 300.0124124 +22.5973489     19554.02     72.57932      1.598     2.80     3.863808     20.49249     2157.039        65     1.412     1.334  32.57   0
       137    593.6707    643.4611 300.1464197 +22.7268281     1121.143     72.67183      1.628     4.75     4.277341     20.49249     114.2251        19     1.415     0.971 -55.07   0
       138     83.7851    644.5844 299.9875115 +22.5741705     732.6387     72.59782      1.793     4.57     3.987726     20.49249     71.16196        15     1.252     0.955  -0.01   0
       139    628.6117    642.7012 300.1575441 +22.7370876     331.8623     72.54227      1.136     3.41     4.223811     20.49249     46.35681         5     0.738     0.455  72.49   0
       140    648.6145    636.0115 300.1659453 +22.7411654     225.6211      72.5608      1.323     4.17     4.203855     20.49249      28.7754         5     0.785     0.633  -1.88   0
       141   1011.5028    629.8130 300.2810384 +22.8481519     1001.513     72.52375      1.578     3.38     4.469563     20.49249     98.78854        18     1.110     1.040 -43.04   0
       142    108.5106    627.4275 300.0007647 +22.5766738     1484.355     72.61633      1.943     5.13     3.973444     20.49249     123.8373        27     1.738     1.022 -86.28   0
       143    878.4425    628.1011 300.2401110 +22.8077886     455.6302     72.61633      1.235     3.23     3.986766     20.49249     63.74929        10     0.923     0.826   0.59   0
       144    174.6064    627.7466 300.0211951 +22.5966029     343.1422     72.61633      1.418     4.32     3.899246     20.49249     54.27221        10     1.057     0.955  62.16   0
       145    556.8126    624.3380 300.1411598 +22.7102873     316.0855     72.59782      1.213     2.28     4.319666     20.49249     56.03094         6     0.706     0.577  60.18   0
       146    349.4315    623.2581 300.0769950 +22.6477741     327.3323     72.65334      1.487     4.43     3.948691     20.49249     40.81477         7     1.157     0.565  50.22   0
       147    951.5836    622.5541 300.2647131 +22.8281136     747.7774     72.65334      1.506     2.94     4.130084     20.49249     89.28544        14     1.042     0.902  -1.11   2
       148    947.4137    622.4022 300.2634624 +22.8268204     207.5735     72.46814      1.200     2.56     4.102272     20.49249     44.88497         5     0.725     0.447  17.58   3
       149    513.4468    616.5154 300.1302051 +22.6950374     706.4374     72.61633      1.298     2.84     4.142769     20.49249     105.8187        12     0.976     0.765  45.54   0
       150    661.1345    614.9958 300.1766709 +22.7388871     578.4645     72.65334      1.539     4.97     4.291979     20.49249     57.07601         9     0.999     0.707  61.57   0
       151    708.8209    613.2318 300.1920942 +22.7526772     428.4267     72.63483      1.396     5.07     4.175072     20.49249     57.04237         9     1.183     0.614  58.63   0
       152    679.1253    612.8987 300.1829544 +22.7436790     604.6705     72.76423      1.311     2.39     4.275722     20.49249      78.4585         8     0.799     0.614  49.37   0
       153    557.8339    612.1934 300.1454228 +22.7071084      851.585     72.63483      1.360     2.79     4.344131     20.49249     105.2068        13     0.970     0.851  63.59   0
       154    991.5387    607.8469 300.2819490 +22.8358607     3391.128     72.67183      1.578     3.05     4.352322     20.49249     311.1623        31     1.286     1.176   0.20   0
       155    523.3197    607.6810 300.1361472 +22.6954632     1652.974     72.76423      1.341     2.49     4.215104     20.49249     212.2063        20     1.065     0.979 -38.49   0
       156    889.1768    605.0859 300.2509336 +22.8043961      341.302     72.57932      1.323     2.66     3.998415     20.49249     49.69184         7     0.701     0.679  58.59   0
       157    873.3151    603.8476 300.2463921 +22.7992871     389.8784     72.61633      1.815     4.72     3.994656     20.49249     32.67154         7     1.055     0.599   5.87   0
       158     85.1013    601.3369 300.0019681 +22.5621677     5096.919     72.74576      1.647     3.07     4.032276     20.49249       509.29        35     1.302     1.247  17.80   0
       159    386.6388    594.4501 300.0979234 +22.6506720     8999.113     72.65334      1.416     2.47     3.936136     20.49249     1091.572        38     1.200     1.133  72.24   0
       160    509.0956    591.4692 300.1369868 +22.6865454     9046.961     72.76423      1.361     2.53     4.146716     20.49249     1109.696        45     1.213     1.152  46.19   0
       161    755.2379    587.9554 300.2147627 +22.7593347     347.1506     72.69032      1.337     4.60     4.086069     20.49249     45.20396         7     1.075     0.676 -36.98   0
       162    152.8947    587.8420 300.0274106 +22.5786452     294.7506     72.65334      1.320     4.43     4.006249     20.49249     35.33368         7     0.969     0.576 -76.95   0
       163    920.8455    585.6093 300.2671318 +22.8082919     1993.838     72.65334      1.470     2.56     4.001075     20.49249     243.6154        22     1.087     1.023  57.84   0
       164   1005.5342    582.9840 300.2943899 +22.8329116     12586.19     72.61633      1.559     3.06     4.324436     20.49249     1146.846        54     1.379     1.287  20.64   0
       165    569.6965    581.1331 300.1592041 +22.7017516     11538.81     72.74576      1.340     2.36     4.519107     20.49249     1501.034        43     1.164     1.121  86.48   0
       166    738.9085    576.8598 300.2132801 +22.7512543     548.4224      72.7088      1.622     3.89     4.133071     20.49249     53.79678        11     1.036     0.743  42.53   0
       167    297.1961    576.4283 300.0759647 +22.6186704     1388.599     72.59782      1.438     2.94     3.956833     20.49249     154.6218        16     1.066     0.897  83.87   0
       168    455.2154    576.0103 300.1252437 +22.6659505     326.8503      72.5608      1.293     3.85     3.946917     20.49249     41.34465         5     0.833     0.511  30.46   0
       169    544.0354    574.2837 300.1534419 +22.6920912     341.8196     72.59782      1.165     2.03     4.443732     20.49249     74.69751         7     0.680     0.650  28.86   0
       170    501.3394    569.2674 300.1417844 +22.6778482     4519.192     72.67183      1.355     2.46     4.109049     20.49249       473.55        29     1.108     1.044  66.64   0
       171    844.2758    569.3929 300.2485336 +22.7806899     753.4562      72.5608      1.287     2.68     3.978902     20.49249     94.75019        13     0.921     0.822  54.78   0
       172    479.6715    567.6198 300.1355775 +22.6708774     1317.913     72.67183      1.369     2.44     3.946917     20.49249     177.8105        17     0.981     0.941  14.53   0
       173    233.9755    567.0769 300.0593500 +22.5970204     719.4896     72.65334      1.439     4.01     3.959386     20.49249     77.95923        12     1.013     0.906  18.20   0
       174    921.1760    564.9526 300.2739444 +22.8024578     1441.715     72.65334      1.452     3.12     3.996395     20.49249      140.935        20     1.127     0.974 -46.96   0
       175    168.0154    564.9528 300.0395423 +22.5766192     187.8684     72.67183      1.183     3.61     4.052484     20.49249     31.23766         5     0.975     0.386 -60.29   0
       176    441.6289    563.2734 300.1251536 +22.6582210     354.0634     72.65334      1.359     4.55     3.946917     20.49249     42.62632         8     0.934     0.660 -72.68   0
       177    617.9785    556.8279 300.1821278 +22.7092516     199405.5     72.63484      1.364     2.42     4.841974     20.49249     28546.24       197     1.426     1.422 -39.35   0
       178    801.7070    561.7682 300.2377455 +22.7657430     927.9787      72.5608      1.451     2.80     3.973718     20.49249     112.2616        14     1.005     0.842 -50.72   0
       179    304.0826    556.7545 300.0844950 +22.6150931     3375.691     72.59782      1.390     2.65     3.942441     20.49249     394.6945        26     1.151     1.026  81.83   0
       180    869.6573    553.0972 300.2617364 +22.7836157     446.7726     72.72729      1.308     3.07     3.977806     20.49249     50.18587         9     0.900     0.668  17.72   0
       181    888.8656    551.5699 300.2682193 +22.7889327     305.6342     72.65334      1.142     3.25     3.983453     20.49249     38.72907         5     0.742     0.446  21.33   0
       182    649.5281    543.5333 300.1962682 +22.7148935      223.486     72.67183      1.022     3.62     4.593524     20.49249      39.4161         6     0.950     0.398  69.57   0
       183    508.7073    541.3243 300.1531519 +22.6720385     407.9395     72.80116      1.108     2.89     4.208647     20.49249     53.26946         5     0.776     0.478 -68.80   3
       184    508.5685    537.1257 300.1544722 +22.6707919     2793.519     72.65334      1.415     2.39     4.213734     20.49249     361.9118        27     1.169     1.029 -83.54   2
       185    665.3602    539.7003 300.2024428 +22.7185392     218.5378     72.61633      2.324     4.92     4.420552     20.49249     27.88662         5     1.140     0.601 -57.32   0
       186    352.8981    539.5397 300.1052636 +22.6247980     309.9145      72.7088      1.192     2.98     3.857904     20.49249     56.13382         6     0.766     0.498  -1.47   0
       187    920.6537    533.1363 300.2841147 +22.7931622     342.3757     72.67183      1.504     4.20     3.987335     20.49249     44.01875         5     1.048     0.481 -51.89   0
       188    937.2847    528.3879 300.2908414 +22.7967808     100.1543     72.57932      1.261     3.91     4.001792     20.49249     34.37263         5     1.111     0.395  15.97   0
       189    826.1385    526.2197 300.2569030 +22.7628557     350.9201     72.59782      1.190     2.70      3.96678     20.49249     54.44358         7     0.824     0.575 -32.42   0
       190    905.4643    523.3305 300.2825642 +22.7857946     1735.149     72.67183      1.433     2.41     3.979898     20.49249     207.1301        21     1.072     1.013 -78.66   0
       191    791.9664    523.4004 300.2471709 +22.7518057     326.9633     72.59782      1.819     2.53      3.99043     20.49249     42.89569         5     0.737     0.565 -84.84   0
       192    776.6998    521.0086 300.2431913 +22.7465437     2553.206     72.50522      1.364     2.62      4.03656     20.49249     313.7006        23     1.079     1.020 -64.70   0
       193     35.5782    521.9918 300.0123546 +22.5245558     741.1594     72.63484      1.481     3.20     4.044081     20.49249     96.11355        10     0.981     0.723 -39.96   0
       194    136.2543    520.8663 300.0439902 +22.5544459     343.5983     72.69032      1.725     4.22     4.130434     20.49249     37.20011         6     0.921     0.605  23.12   0
       195   1020.9797    518.6856 300.3200898 +22.8190653     497.3612     69.16634      1.495     4.16     4.128475     20.49249     48.86014        10     0.964     0.862 -30.24  19
       196   1019.5912    514.4344 300.3210373 +22.8174279     723.8873     72.63484      1.655     3.91     4.113471     20.49249     65.15873        12     1.094     0.824  53.10  19
       197    986.3138    517.0536 300.3098091 +22.8082125     246.6637     72.67183      1.336     4.47     4.069688     20.49249      37.1715         6     1.264     0.450 -84.46   0
       198    681.5700    517.6235 300.2146597 +22.7170598     379.6438     72.63484      1.151     2.69     4.307095     20.49249     66.30578         8     0.796     0.730 -59.75   0
       199    563.9053    516.9139 300.1782571 +22.6815828     663.8148     72.81961      1.356     2.70     4.553078     20.49249     101.2006        11     0.868     0.812  61.50   0
       200    905.7431    513.3075 300.2859059 +22.7829990     2365.313     72.69032      1.928     3.97     3.976983     20.49249     257.6838        33     1.819     1.027  72.64   0
       201    659.3317    511.5988 300.2096909 +22.7086642     526.1551     72.59782      1.502     2.30     4.412054     20.49249     80.28024         7     0.757     0.631  -2.14   3
       202    658.8992    507.6789 300.2108291 +22.7074091     532.6973     72.76423      1.939     4.89     4.401872     20.49249     48.36403         9     1.184     0.632 -69.63   3
       203    944.0538    508.5904 300.2993808 +22.7931213       4307.7     72.63484      1.442     2.71     3.999299     20.49249     506.0389        33     1.181     1.128  42.62   0
       204    445.1261    511.1725 300.1431604 +22.6443193     280.8769     72.63484      1.199     3.47     4.022019     20.49249     48.36497         6     0.731     0.589  58.23   0
       205    497.6590    510.2836 300.1597935 +22.6598170     345.6302     72.74576      1.259     3.90     4.186947     20.49249     53.90252         6     0.870     0.508  46.51   0
       206    681.9559    505.4324 300.2187384 +22.7136752     256.7075     72.69032      1.206     4.09      4.30405     20.49249     43.79446         5     0.709     0.673  65.62   0
       207    175.8749    498.7532 300.0634799 +22.5599923     988.7192     72.63484      1.543     3.40     4.160302     20.49249     125.5372        15     1.020     0.984  17.44   0
       208    836.8666    492.4883 300.2711992 +22.7563822     297.9413     72.74576      1.343     3.33      3.95805     20.49249     51.87823         6     0.814     0.651 -23.79   0
       209    223.7882    490.9392 300.0809063 +22.5721258     130.3401     72.59782      1.077     3.59     4.155977     20.49249     42.71436         6     0.758     0.573  40.62   0
       210    168.5361    488.6948 300.0644651 +22.5549056     398.6636     72.72729      1.460     2.83     4.179339     20.49249      50.5412         9     0.887     0.868 -76.55   0
       211    776.3203    482.8310 300.2554695 +22.7354659     488.7859     72.63484      1.546     4.67      4.02784     20.49249     50.68036         7     0.998     0.621  89.02   0
       212    664.9325    480.8130 300.2214308 +22.7015038     359.0524     72.65334      1.572     3.88     4.327839     20.49249      38.9909         6     0.771     0.558  39.27   0
       213    717.3499    479.2806 300.2382526 +22.7167740     769.1533     72.65334      1.310     2.65     4.207361     20.49249     113.1121        14     0.933     0.896 -35.25   0
       214    696.4126    477.2247 300.2323992 +22.7099087     244.6135     72.63484      1.251     3.46     4.260981     20.49249     29.75972         5     0.745     0.466  74.07   0
       215    777.9725    471.1451 300.2597782 +22.7326048     874.7621     72.63483      1.426     3.19     4.002468     20.49249      99.0564        12     0.963     0.826  68.51   0
       216    935.6517    467.4220 300.3101284 +22.7787768      964.636     72.63484      1.323     2.49     3.975126     20.49249     121.8613        17     1.122     0.855 -49.49   0
       217    893.9453    465.3703 300.2977932 +22.7656935     283.2503     72.63484      1.257     4.71     3.963171     20.49249     31.59662         7     1.030     0.611  55.98   0
       218    919.5983    463.7999 300.3062997 +22.7729272       549.72     72.41248      1.349     3.63     3.966439     20.49249     80.63142        14     1.167     0.788 -50.51   0
       219    900.6552    463.9348 300.3003508 +22.7672912     215.8391     72.69032      1.118     3.69     3.963896     20.49249     46.81513         7     0.884     0.686  85.36   0
       220    663.9982    461.7700 300.2273223 +22.6957558     3181.605     72.59782      1.268     2.19     4.343155     20.49249     517.9263        23     1.012     0.949  69.23   0
       221    810.3991    461.5855 300.2729849 +22.7395754     204.8798     72.48668      1.195     4.24     3.929487     20.49249     31.57377         5     0.987     0.520  45.71   0
       222    669.3499    449.7909 300.2328776 +22.6939201     262.8281     72.63484      1.271     3.14     4.349992     20.49249     45.87907         5     0.859     0.526  35.60   0
       223    503.9926    448.9057 300.1816912 +22.6440988     413.9947     72.52375      1.243     2.79      4.27212     20.49249     66.68153         8     0.831     0.697  81.41   0
       224    435.9891    448.8926 300.1605375 +22.6237057     264.4062     72.57932      1.161     4.76     4.115194     20.49249     48.02306         6     1.031     0.624  -9.34   0
       225    947.6127    440.7119 300.3225288 +22.7746853      632.329     72.57932      1.656     5.03     4.003497     20.49249     75.95152        11     1.381     0.687 -46.42   0
       226    684.1175    437.8146 300.2413642 +22.6949068     291.2074     72.61633      1.164     3.91     4.299414     20.49249     35.05206         6     0.772     0.567 -43.16   0
       227    774.6753    435.6485 300.2702745 +22.7214215      1233.51     72.63484      1.317     2.33     3.944892     20.49249     169.8405        16     1.046     0.898 -42.75   0
       228    570.1984    436.4999 300.2063229 +22.6603848     455.6029     72.50522      1.204     2.85     4.377337     20.49249     62.27926         7     0.885     0.498   3.80   0
       229    278.6885    433.8773 300.1164945 +22.5722240     471.0489     72.78269      1.276     3.01     4.224705     20.49249     94.03931        12     1.084     0.723  32.31   0
       230    117.8904    432.4049 300.0670025 +22.5235656     318.6181     72.54227      1.333     3.36     4.240359     20.49249     44.55198         6     0.897     0.654  81.70   0
       231    340.9222    429.6308 300.1372221 +22.5896702     3895.079     72.61633      1.386     2.49     4.092556     20.49249     501.2006        28     1.114     1.056  50.84   0
       232    288.1970    424.3309 300.1225490 +22.5723368     7512.985     72.57932      1.372     2.52     4.264678     20.49249     832.2557        37     1.183     1.118  71.72   0
       233    666.6779    423.9171 300.2404444 +22.6856893     398.5375     72.74576      1.292     3.12      4.37173     20.49249     45.88723         7     0.832     0.601 -59.19   0
       234    428.9949    418.5930 300.1681967 +22.6129122     4754.357     72.48668      1.317     2.30     4.162918     20.49249     720.5002        28     1.117     0.985  59.24   0
       235    673.1915    415.3163 300.2452645 +22.6851714      18399.3     72.57932      1.286     2.30     4.373041     20.49249     2499.276        51     1.168     1.117  83.90   0
       236    690.8137    415.3857 300.2507299 +22.6904724     850.9697      72.5608      1.921     6.11     4.254084     20.49249     61.52959        14     1.459     0.720 -41.16   0
       237    299.5766    413.6967 300.1295383 +22.5726983     254.1981      72.5608      1.467     3.47     4.268819     20.49249     30.22438         5     0.766     0.453  71.42   0
       238    531.6492    412.5243 300.2021069 +22.6419459      422.066     72.63484      1.839     5.54      4.34447     20.49249     33.75988         7     1.338     0.647  13.27   0
       239    870.3854    405.6392 300.3098396 +22.7414752     411.4149     72.65334      1.195     3.14      3.94296     20.49249     54.07394         7     0.798     0.685 -66.48   0
       240   1006.6876    397.8689 300.3548563 +22.7800666     840.1207     72.78269      1.601     4.36     4.300615     20.49249     71.56752        15     1.163     0.928 -25.60   0
       241    543.5809    397.4789 300.2107035 +22.6412030     387.0816     72.63484      1.528     3.06     4.374663     20.49249     48.44393         7     0.843     0.629 -71.53   0
       242    227.8290    395.3716 300.1131826 +22.5459216     2019.773     72.59782      1.405     2.51     4.346743     20.49249     266.2181        22     1.075     1.016  57.55   0
       243    613.7960    384.7838 300.2366801 +22.6586031     6495.879     72.54227      1.282     2.23     4.308593     20.49249      1010.44        32     1.107     1.033  78.18   0
       244    328.3806    384.1189 300.1480932 +22.5728486     585.7002     72.61633      1.292     2.47     4.296187     20.49249     109.7047        13     1.006     0.821  67.48   0
       245    186.1773    377.4495 300.1060542 +22.5282865     413.9288     72.63484      1.275     2.95     4.371772     20.49249     60.02374         8     0.783     0.704 -80.60   0
       246    873.9162    376.4504 300.3204135 +22.7341463     409.9768     72.63484      1.504     2.10     3.944634     20.49249     53.51475         6     0.779     0.687   5.09   0
       247     33.6814    374.9614 300.0594896 +22.4818249     1350.638     72.59782      1.508     2.83     4.739127     20.49249     167.6868        19     1.058     1.039  62.13   0
       248    818.1322    373.7712 300.3038982 +22.7166663     1276.616     72.63484      1.524     2.76     3.941014     20.49249      150.935        18     1.133     0.901  84.04   0
       249    727.6484    374.8138 300.2753701 +22.6898571     468.2957     72.67183      1.211     2.60     4.155849     20.49249     77.71128         9     0.938     0.613  81.94   0
       250      2.8187    372.5497 300.0506886 +22.4718730     1167.644     64.37645      1.751     4.99     4.929837     20.49249     116.2167        23     1.529     0.995 -55.45  24
       251    520.4204    371.0561 300.2120705 +22.6266744     6276.429     72.65334      1.298     2.20     4.324791     20.49249     870.5099        35     1.170     1.020  67.44   0
       252   1009.8976    365.7773 300.3662727 +22.7718045     656.1198      72.5608      1.404     3.00     4.535329     20.49249     81.24642        11     1.025     0.687  36.07   0
       253    912.3657    365.5194 300.3359459 +22.7425218     1364.499     72.57932      1.337     2.39     3.960531     20.49249     176.9042        13     0.912     0.791  52.73   0
       254    505.2783    359.7988 300.2110114 +22.6189035     430.6351     72.52375      1.239     2.76     4.298259     20.49249     69.52797         7     0.944     0.491 -60.27   0
       255     11.9801    360.2008 300.0575402 +22.4710803     297.5625      72.5608      1.156     3.03     5.102664     20.49249     49.75874         8     0.842     0.620 -46.83   0
       256    587.8947    357.5901 300.2374415 +22.6430315     400.0628     72.57932      1.203     2.25     4.291866     20.49249     59.81323         7     0.761     0.602  70.54   0
       257     31.9493    356.5596 300.0649226 +22.4760274     1030.811     72.65334      1.544     3.55     4.999355     20.49249      114.156        19     1.198     1.023  17.67   0
       258    568.7650    355.3782 300.2322046 +22.6366631     188.2962     72.65334      0.976     3.41     4.326764     20.49249     33.51848         5     0.777     0.432 -19.96   0
       259    885.1608    352.8311 300.3315833 +22.7307276     615.9157     72.63483      1.434     3.40     3.949235     20.49249     80.41204        11     1.034     0.720  59.59   0
       260    166.8414    352.7835 300.1080496 +22.5154101     284.7029     72.65334      1.677     3.35     4.404235     20.49249     39.87514         5     0.950     0.341 -43.35   0
       261    407.9357    350.3167 300.1838032 +22.5870003     2525.638     72.74576      1.327     2.40     4.277661     20.49249     324.9191        25     1.089     1.025  79.59   0
       262    126.4384    347.7801 300.0971199 +22.5018555     1107.933     72.65334      1.534     2.78     4.466713     20.49249     132.1001        16     1.110     0.912  87.15   0
       263    377.3209    339.6457 300.1777435 +22.5747586     29628.94     72.63484      1.341     2.35     4.354225     20.49249     3957.445        72     1.321     1.167  61.01   0
       264    912.0887    337.2376 300.3450372 +22.7343116     1272.171     72.61633      1.274     2.62     4.057321     20.49249     181.1465        15     1.024     0.840 -65.06   0
       265     73.6654    327.4508 300.0873225 +22.4801931     4894.624     72.67183      1.528     2.77      4.70907     20.49249     611.4402        36     1.276     1.162  59.05   0
       266    827.3036    325.8994 300.3222905 +22.7056594     595.3512     72.83807      1.618     3.73     4.135301     20.49249     73.63283        10     0.965     0.759  83.21   0
       267    251.5396    326.2021 300.1429966 +22.5331851     487.1943     72.61633      1.203     2.43     4.451452     20.49249     69.80949         8     0.839     0.653  11.07   0
       268    476.0453    324.8406 300.2132580 +22.6001041     530.9571      72.7088      1.233     2.45     4.256065     20.49249     85.96193         9     0.920     0.666  66.10   0
       269    787.7851    319.3667 300.3120963 +22.6919449     1913.781     72.61633      1.246     2.23     4.223941     20.49249     299.6181        21     1.097     0.901  56.64   0
       270    596.1249    314.0686 300.2541250 +22.6329995      201.106      72.7088      1.077     2.30     4.409787     20.49249      67.3898         6     0.729     0.547  49.04   0
       271   1003.2012    312.3506 300.3815209 +22.7544426     698.4408     72.61633      1.490     3.92     4.530587     20.49249      74.7791        11     1.033     0.713 -39.76   0
       272    525.3901    312.1914 300.2327170 +22.6112621     49.96144     72.52375      1.122     3.47     4.393629     20.49249     26.50738         5     0.793     0.440  71.33   0
       273    449.5608    304.0732 300.2117556 +22.5862029     2060.112     72.61633      1.492     3.04     4.256065     20.49249     222.7988        23     1.280     0.925  63.37   0
       274    661.7581    303.0264 300.2781425 +22.6494945     322.2368     72.67183      1.208     2.94     4.408267     20.49249     65.93676         8     0.862     0.780  -5.73   0
       275    880.9714    297.6697 300.3481755 +22.7136213      259.785     72.63483      1.208     4.71     4.291424     20.49249     46.17569         7     0.919     0.686 -71.74   0
       276    888.9142    296.9416 300.3508875 +22.7157908     626.7346     72.74576      1.407     2.58     4.298095     20.49249     75.17893        10     0.829     0.762 -77.72   0
       277     19.6399    296.8594 300.0804681 +22.4552108     545.1947     72.63483      1.900     3.91     5.152472     20.49249     41.11135         6     0.761     0.627 -83.41   3
       278     22.5106    294.3000 300.0821898 +22.4553378     584.3425     72.80116      1.576     2.79      5.12796     20.49249      67.3118         9     0.835     0.781  16.55   3
       279    787.9766    294.4620 300.3202360 +22.6848466     378.6617     72.61633      1.745     3.01     4.372355     20.49249     61.28423         8     0.971     0.684  60.60   0
       280    771.0362    294.5847 300.3149183 +22.6798075     472.1508     72.63484      1.307     1.62     4.373095     20.49249     77.55428         6     0.689     0.493   0.24   0
       281    525.3021    283.4560 300.2420117 +22.6029840     1237.045     72.72729      1.311     2.55     4.427457     20.49249     147.0242        17     1.140     0.830  47.23   0
       282    332.6876    283.8349 300.1819696 +22.5453569     341.8895     72.61633      1.428     2.93     4.433655     20.49249      51.6205         6     0.752     0.584 -13.06   0
       283    265.6055    278.4625 300.1628559 +22.5237021     207.4826     72.61633      1.065     4.14     4.459037     20.49249     30.41393         5     0.984     0.498  -2.20   0
       284    908.9969    276.9710 300.3636265 +22.7160652      207.192     72.59782      1.181     3.63     4.349469     20.49249     42.33478         7     0.888     0.521  50.27   0
       285    770.2796    275.3125 300.3209346 +22.6740435     2215.472     72.80116      1.309     2.44     4.402038     20.49249     295.5383        22     1.027     0.979  62.07   0
       286      3.5022    260.6464 300.0872030 +22.4399819      71071.6     67.27534      1.633     2.80      5.11374     20.49249     8839.171        92     1.530     1.349  71.18  24
       287    478.5493    258.9807 300.2354022 +22.5819439     698.1478     72.61633      1.353     2.72     4.303537     20.49249     90.49953        13     0.940     0.839 -22.04   0
       288    153.4208    253.1614 300.1361968 +22.4828007      1457.82     72.65334      1.794     4.13     4.541003     20.49249     118.6245        25     1.362     1.227  80.33   0
       289    184.0973    253.5798 300.1455932 +22.4921201     522.1288      72.5608      1.203     3.01     4.506366     20.49249     82.45308        10     0.887     0.818  24.15   0
       290    891.3424    247.0466 300.3678301 +22.7021778     372.9203     72.69032      1.386     3.35     4.359505     20.49249     48.30415         5     0.786     0.564   5.90   0
       291    237.4203    245.3866 300.1648228 +22.5057579     477.7771     72.59782      1.186     2.66     4.483588     20.49249     76.77546        10     0.850     0.777  42.72   0
       292     23.2414    240.8384 300.0997565 +22.4402208     282.6243     72.72729      1.256     3.98     4.955029     20.49249      35.0839         6     1.280     0.354  -4.66   0
       293    913.4945    239.1481 300.3772974 +22.7065406     322.2454      72.7088      1.256     2.76     4.353614     20.49249     64.80505         7     1.055     0.510  15.55   0
       294    841.9672    236.6043 300.3558279 +22.6843907     599.5093     72.61633      1.272     2.58     4.383003     20.49249     96.29913        10     0.954     0.633  62.03   0
       295    432.2072    236.3887 300.2283117 +22.5615675     293.9675     72.50522      1.142     3.51     4.297355     20.49249      53.1863         5     0.764     0.466  13.69   0
       296    932.4258    229.9643 300.3861780 +22.7095691     227.0532     72.65334      1.261     4.44     4.352359     20.49249     36.60609         7     0.897     0.681 -22.37   0
       297    116.7336    229.3652 300.1325159 +22.4649700     162.9361     72.63484      1.414     4.60     4.765249     20.49249     32.90285         6     1.307     0.460   6.72   0
       298    940.2068    225.8044 300.3899531 +22.7107029     2014.908     72.48668      1.391     2.43     4.364336     20.49249      288.659        24     1.127     1.058  71.25   0
       299    436.5293    217.9725 300.2356288 +22.5575746     1147.221     72.61633      1.497     2.87     4.338203     20.49249     144.9035        18     1.323     0.921  83.31   0
       300    838.4991    217.5585 300.3609242 +22.6778783      602.215     72.61633      1.365     3.19     4.387038     20.49249     74.68443        10     1.010     0.693  71.28   0
       301    188.2707    218.5231 300.1582593 +22.4833107     306.7934     72.74576      1.391     3.41     4.543449     20.49249     38.35344         5     0.740     0.453 -21.02   0
       302    358.5766    223.0200 300.2097451 +22.5356594     2178.825     72.63484      1.353     2.40     4.428051     20.49249      311.147        20     1.097     0.915  66.17   0
       303     34.7937    211.7846 300.1127658 +22.4353505     504.5905     72.54227      1.874     4.90     4.898571     20.49249     43.59067         7     0.987     0.689  67.93   0
       304    253.1577    210.2748 300.1811013 +22.5003982     871.9448     72.61633      1.553     3.16     4.459993     20.49249      87.1611        17     1.058     0.995  55.50   0
       305    371.3905    209.8277 300.2180084 +22.5357126     197.7639     72.63483      1.293     4.34     4.456809     20.49249     34.86796         6     0.771     0.694  44.47   0
       306    791.2112    207.1714 300.3495575 +22.6607318     1745.205     72.63483      1.267     2.42     4.396336     20.49249     236.4551        21     1.048     0.958 -83.50   0
       307    856.1240    207.0100 300.3698380 +22.6801243     512.9017     72.61633      1.238     2.80     4.380438     20.49249     93.77429         7     0.923     0.533  30.02   0
       308    274.7192    203.6577 300.1899498 +22.5049628      629.141     72.67183      1.491     2.61     4.427448     20.49249     87.29251         8     0.858     0.665  32.91   0
       309    795.1532    198.6046 300.3535639 +22.6594503     718.1757     72.61633      1.455     3.23     4.393191     20.49249     98.93153        14     1.175     0.731 -88.38   0
       310    564.5241    199.3477 300.2814986 +22.5905802     348.1872     72.63484      1.245     2.64     4.643757     20.49249     51.10963         7     0.930     0.649  75.81   0
       311    715.7002    197.9182 300.3290345 +22.6354571      1169.31     72.80116      1.288     2.41     4.436188     20.49249     174.7018        14     0.941     0.835   0.86   0
       312    536.7916    194.3650 300.2744826 +22.5808397     380.2523     72.61633      1.199     3.83     4.720955     20.49249       49.695         6     0.885     0.475  39.45   0
       313    414.5105    194.2638 300.2364674 +22.5441675     266.0709     72.74576      1.726     4.37     4.335617     20.49249     35.20779         5     0.891     0.610  43.35   0
       314    641.8677    189.8731 300.3086500 +22.6110296     929.9111      72.7088      1.393     1.99     4.572048     20.49249     155.6909        14     1.148     0.835 -45.09   0
       315    911.0361    189.2452 300.3927153 +22.6914595     1426.136     72.67183      1.452     2.67     4.368476     20.49249     182.5656        21     1.200     0.981  77.75   0
       316    969.6602    188.2783 300.4113067 +22.7087323     272.3307     72.69032      1.245     3.44      4.41559     20.49249     43.35299         5     1.133     0.301  53.69   0
       317    923.2425    188.6354 300.3967184 +22.6949387     842.9583     72.69032      1.476     2.69     4.365989     20.49249     103.7157        14     0.995     0.838 -12.19   0
       318     13.0738    177.9099 300.1170045 +22.4191171     344.2869     72.80116      1.460     2.83     4.856491     20.49249     38.23808         5     0.630     0.581  83.51   0
       319     63.7090    175.3613 300.1335561 +22.4335718     438.4431     72.61633      1.309     3.94     4.964957     20.49249     62.58065         8     1.127     0.560  59.77   0
       320    273.9274    171.8447 300.2000190 +22.4955927     841.3309     72.61633      1.606     3.00     4.402694     20.49249     93.78773        13     1.015     0.851  84.51   0
       321    156.6490    170.7948 300.1639092 +22.4601309     228.9765     72.61633      1.219     4.50     4.993771     20.49249     35.70261         6     0.926     0.631   7.55   0
       322    135.8106    166.5402 300.1588140 +22.4526615     2163.575     72.59782      1.541     2.80     5.037992     20.49249     266.1289        24     1.224     1.037  51.91   0
       323    958.9979    163.7063 300.4159499 +22.6984757     733.9729     72.54227      1.426     2.70     4.408116     20.49249     101.6155        12     0.965     0.783  88.06   0
       324     85.0855    163.6335 300.1439981 +22.4366169     442.5806     72.59782      1.535     3.60     5.035613     20.49249     59.46618         9     1.039     0.624 -12.18   0
       325    293.2804    159.8971 300.2099093 +22.4979639     5517.889     72.76423      1.416     2.48     4.388375     20.49249     649.8223        35     1.241     1.083  75.98   0
       326    275.3861    160.9220 300.2040138 +22.4928942     429.8478     72.65334      1.670     5.39     4.391652     20.49249     46.73672         9     1.144     0.776 -37.12   0
       327     77.5876    154.4776 300.1446375 +22.4317410     1390.588     72.63484      1.537     2.55     5.023933     20.49249     165.5891        20     1.138     0.957 -41.69   0
       328    276.7111    151.0387 300.2076299 +22.4904540      678.667     72.61633      1.365     2.92     4.389474     20.49249     105.3069        12     1.125     0.774 -42.53   0
       329    937.3790    141.5130 300.4164051 +22.6856230     3518.018      72.5608      1.430     2.45     4.424005     20.49249     485.6015        28     1.154     1.093  68.78   0
       330    486.8220    136.6768 300.2776362 +22.5492974     583.8713     72.61633      1.213     2.22     4.942918     20.49249     90.46583         9     0.817     0.659 -56.46   0
       331    297.4491    137.2078 300.2185612 +22.4926991     169.2837     72.63484      1.477     4.56      4.39234     20.49249     28.43141         5     0.834     0.707 -48.37   0
       332    239.7713    137.3419 300.2005871 +22.4754486     297.5296     72.63484      1.383     2.71     4.567239     20.49249     56.60611         6     0.835     0.663  22.05   0
       333    600.9929    134.6949 300.3138141 +22.5829321     215.1002     72.52375      1.062     3.19     4.845726     20.49249     34.73435         7     0.715     0.688 -19.96   0
       334    410.9662    128.3829 300.2567248 +22.5241857     618.1229     72.61633      1.304     3.32     4.406476     20.49249     71.57991        11     1.032     0.726 -78.29   0
       335    414.8132    126.8349 300.2584233 +22.5248939     573.9829     72.61633      1.668     3.28     4.379989     20.49249     50.59636         8     0.888     0.627 -88.28   0
       336    176.8661    125.6294 300.1848335 +22.4532284     598.0982     72.65334      1.491     2.85     4.982847     20.49249     73.73276        10     0.874     0.757  12.87   0
       337    538.2916    124.0662 300.2977419 +22.5610953     1647.101     72.76423      1.243     2.15     4.926098     20.49249     265.6904        16     0.896     0.882  31.03   0
       338    466.1679    124.5210 300.2751503 +22.5396174     467.6216     72.61633      1.170     2.50      4.79599     20.49249     73.86008         6     0.756     0.500  -0.65   0
       339    599.9533    123.2913 300.3171873 +22.5793442     428.6721     72.63483      1.346     3.08     4.861231     20.49249     51.72428         7     0.848     0.572  32.11   0
       340     16.6745    123.6582 300.1357102 +22.4046303     143.2852     72.69032      1.147     3.30     4.875972     20.49249     49.84143         5     0.988     0.353 -20.11   0
       341    281.7024    119.5011 300.2194055 +22.4828953     375.6042     72.85651      1.423     2.68     4.362465     20.49249      53.2135         7     0.884     0.505 -58.33   0
       342    972.0372    108.0967 300.4380450 +22.6863887     339.7058     72.63483      1.460     2.69     4.749954     20.49249     41.27119         6     0.954     0.599  46.32   0
       343    312.2620    103.7834 300.2340017 +22.4875414     5989.853     72.61633      1.426     2.57     4.475004     20.49249     704.4966        37     1.244     1.146  67.52   0
       344    818.3406    104.5068 300.3912981 +22.6393467     288.1052      72.7088      1.375     3.40     4.559385     20.49249      42.5762         5     0.744     0.449 -21.80   0
       345    163.3176    103.2258 300.1878853 +22.4427356     837.8338     72.61633      1.699     3.22     5.068523     20.49249     81.22569        13     1.061     0.806  36.83   0
       346      7.1478     99.8868 300.1404569 +22.3949520     840.7521     72.67183      1.739     3.60     4.867871     20.49249     90.73463        14     1.167     0.949   4.65  16
       347    284.0269     97.8055 300.2271606 +22.4773626     402.4903     72.61633      1.350     4.45     4.336459     20.49249     43.75778         8     1.059     0.531 -54.48   0
       348    327.7493     95.0743 300.2416403 +22.4896820     402.3905     72.65334      1.180     2.55     4.592114     20.49249     51.84341         7     0.699     0.665  42.28   0
       349     74.0517     94.0370 300.1631311 +22.4133349     487.3321     72.65334      1.461     3.97     5.020547     20.49249     55.28846         7     1.079     0.502  50.70   0
       350    558.3187     89.1786 300.3152844 +22.5570715     6365.795     72.59782      1.339     2.33     4.894275     20.49249     747.0276        38     1.221     1.085  79.12   0
       351    443.7858     88.8224 300.2797582 +22.5226571     737.6353     72.61633      1.413     2.87      4.56292     20.49249     105.3894        13     1.055     0.774  49.49   0
       352    615.4153     83.7320 300.3348244 +22.5726087     332.6245     72.63484      1.575     3.26     4.907333     20.49249     43.76774         7     0.846     0.652  15.06   0
       353    752.2802     80.1985 300.3785947 +22.6125798     263.1268     72.54227      1.236     4.67     4.719482     20.49249     55.35546         8     0.827     0.748 -55.22   0
       354    810.7625     78.6982 300.3973023 +22.6296585     949.3049     72.63484      1.639     3.36     4.645245     20.49249     96.33409        13     1.074     0.809  74.06   0
       355    903.2413     77.9775 300.4263590 +22.6571359     550.8799     72.67183      1.501     2.77     4.569733     20.49249     58.16247         8     0.819     0.685 -71.05   0
       356    970.6922     75.6829 300.4481326 +22.6766647     334.8004      72.7827      1.349     4.15     4.872076     20.49249     31.23729         6     1.082     0.454  -5.97   0
       357    251.1183     72.7697 300.2250444 +22.4603106      530.959     72.63484      1.435     3.64     4.684628     20.49249     58.81675        12     1.084     0.752  57.77   0
       358    609.8054     71.6504 300.3369936 +22.5674567     473.7115     72.61633      1.441     3.34     4.937894     20.49249     67.51353         8     0.952     0.627  38.93   0
       359    686.6905     69.2693 300.3617067 +22.5897982     6240.209     72.78269      1.301     2.34     4.847592     20.49249     865.2324        32     1.163     1.028  80.42   0
       360    461.6174     68.1913 300.2919928 +22.5220732     1373.412     72.57932      1.364     2.41     4.632766     20.49249     171.3656        18     1.045     0.952  89.28   0
       361    727.7439     66.6749 300.3753345 +22.6013457     836.2834     72.67183      1.235     2.51     4.756158     20.49249     137.4792        13     0.970     0.797  61.43   0
       362    797.5120     64.3610 300.3978204 +22.6215698      351.359     72.61633      1.368     3.78     4.693703     20.49249     44.11411         7     0.940     0.529  31.87   0
       363    743.8617     62.8199 300.3816047 +22.6050637      651.371     72.59782      1.284     1.78     4.730241     20.49249     110.4533        10     0.825     0.695  65.03   0
       364     57.3528     61.6440 300.1684425 +22.3990309     274.2163     72.67183      1.234     2.86     4.974109     20.49249     50.92932         6     0.796     0.547  40.02   0
       365    210.4922     60.7986 300.2162963 +22.4446966     711.4484     72.54227      1.496     2.71      4.92705     20.49249     110.5887        11     1.000     0.672   9.08   0
       366   1013.7973     59.9143 300.4666860 +22.6850298     569.5645      72.5608      1.569     6.41     5.077762     20.49249     63.82296        12     1.389     0.829  48.72   0
       367    782.0836     58.2513 300.3949933 +22.6151943     582.2739     72.65334      1.523     2.90     4.710353     20.49249     69.81406        10     0.922     0.710  88.16   0
       368    746.1711     53.1144 300.3854697 +22.6029653      955.549     72.63484      1.781     5.40     4.730894     20.49249     89.91417        19     1.573     0.892  49.19   0
       369    730.9127     54.1836 300.3803699 +22.5987040     2679.542     72.57932      1.301     2.27     4.753593     20.49249     369.8817        23     1.012     1.002 -82.22   0
       370    372.0632     54.9319 300.2684315 +22.4914327     440.0692     72.69032      1.308     3.13     4.562405     20.49249     69.06129         7     0.908     0.696  45.81   0
       371     24.7147     48.3546 300.1626126 +22.3854308      937.194     72.61633      1.791     3.18     4.952852     20.49249      93.8278        14     1.092     0.822 -22.67   0
       372    817.4139     45.6547 300.4100845 +22.6221500     1597.826     72.63484      1.485     2.36     4.705159     20.49249     201.1322        20     1.217     0.899 -82.32   0
       373    755.2583     38.8456 300.3929248 +22.6015843     774.1235     72.67183      1.307     2.79     4.732459     20.49249     96.67125        10     0.934     0.687  43.48   0
       374    560.9172     38.1909 300.3326181 +22.5431995     1088.869     72.57932      1.354     2.32      4.91939     20.49249     153.1833        14     1.026     0.782  46.17   0
       375    133.8091     38.3046 300.1997565 +22.4152527     631.3839     72.54227      1.731     2.59     4.686207     20.49249     61.58882         9     0.846     0.708  -6.65   0
       376    464.7756     36.2672 300.3033212 +22.5138482     792.7487     72.61633      1.279     2.57     4.539856     20.49249     122.0538        13     0.927     0.820 -61.32   0
       377    847.0668     35.0922 300.4227486 +22.6279898     504.2889     72.78269      1.608     2.69      4.72691     20.49249     51.24561         7     0.793     0.669  38.21   0
       378    316.0646     29.8272 300.2591523 +22.4674426     229.1577     72.61633      1.287     3.77     4.433326     20.49249     35.13931         5     1.014     0.401 -59.23   0
       379    804.3908     27.3055 300.4119727 +22.6129759     581.5878      72.5608      1.258     2.52     4.744153     20.49249     94.75783        10     0.935     0.702 -26.44   0
       380    236.0715     26.2818 300.2354320 +22.4424523     3772.934     72.76423      1.529     2.85     4.966644     20.49249     378.7738        36     1.361     1.164  66.24   0
       381     28.4776     26.5224 300.1708555 +22.3802929     303.6256     72.74576      1.502     5.18     4.970077     20.49249     43.95937         9     1.207     0.749   6.85   0
       382    658.6202     23.4145 300.3678253 +22.5682131     292.4221     72.61633      1.040     2.78     5.046999     20.49249     53.41365         5     0.727     0.442 -69.78   0
       383    562.0287     23.3815 300.3377630 +22.5392768     183.0435     72.63484      1.289     4.22     4.928779     20.49249     36.23237         5     0.793     0.640  85.33   0
       384    797.4242     18.6392 300.4126103 +22.6083987     833.7087     72.67183      1.462     3.22     4.753065     20.49249     107.6395        15     1.030     0.947 -46.15   0
       385    763.5289     18.3402 300.4021464 +22.5981655     384.6224     72.67183      1.308     3.43     4.743609     20.49249     46.65849         6     0.916     0.426 -71.28   0
       386    352.2134     18.3074 300.2741262 +22.4749655     1185.425      72.5608      1.430     2.96     4.596009     20.49249     149.5693        18     1.106     0.993  58.03   0
       387    891.2686     15.9101 300.4427419 +22.6357044     189.0823     72.78269      1.203     3.80     4.952857     20.49249     36.10535         5     1.297     0.320 -24.65   0
       388    420.4281   1020.5542 299.9699077 +22.7829974     544.8521     70.58943      1.826     5.10      3.38889     20.49249     54.36407        12     1.291     1.000  54.14  16
       389    611.9119   1014.2540 300.0315391 +22.8386662      2406.77     72.65334      1.884     4.26     3.014222     20.49249     178.7224        31     1.445     1.302   6.04   0
       390    189.9187    975.5283 299.9128986 +22.7008797     1602.317     72.76423      7.626    12.98     42.59467     20.49249     45.25002        27     3.224     1.455  47.44   3
       391    698.4996   1009.3401 300.0600970 +22.8632392     8388.199     72.72729      1.921     4.31     3.267246     20.49249     510.9666        45     1.509     1.419  24.87   3
       392    703.9170   1007.1541 300.0624953 +22.8642376     9300.308     72.59782      1.958     4.35     3.263861     20.49249     571.8523        51     1.527     1.483  55.81   3
       393    716.7585    976.4216 300.0764938 +22.8592757     6689.261     72.67183      1.878     4.09     3.318982     20.49249     391.9533        47     1.506     1.392   8.85   0
