#   1 NUMBER                 Running object number                                     
#   2 X_IMAGE                Object position along x                                    [pixel]
#   3 Y_IMAGE                Object position along y                                    [pixel]
#   4 ALPHA_J2000            Right ascension of barycenter (J2000)                      [deg]
#   5 DELTA_J2000            Declination of barycenter (J2000)                          [deg]
#   6 FLUX_APER              Flux vector within fixed circular aperture(s)              [count]
#   7 FLUXERR_APER           RMS error vector for aperture flux(es)                     [count]
#   8 FLUX_RADIUS            Fraction-of-light radii                                    [pixel]
#   9 FWHM_IMAGE             FWHM assuming a gaussian core                              [pixel]
#  10 BACKGROUND             Background at centroid position                            [count]
#  11 THRESHOLD              Detection threshold above background                       [count]
#  12 FLUX_MAX               Peak flux above background                                 [count]
#  13 ISOAREA_IMAGE          Isophotal area above Analysis threshold                    [pixel**2]
#  14 A_IMAGE                Profile RMS along major axis                               [pixel]
#  15 B_IMAGE                Profile RMS along minor axis                               [pixel]
#  16 THETA_IMAGE            Position angle (CCW/x)                                     [deg]
#  17 FLAGS                  Extraction flags                                          
         1    490.2545     15.1927 300.3325646 +22.5432711     981.5721     72.06815      1.289     2.70     6.665143     20.33261      118.577        15     0.955     0.923  84.00   0
         2     63.4492     14.9140 300.1998552 +22.4154250     522.6204      72.0498      1.708     5.15     6.467563     20.33261     54.23619         8     1.324     0.566 -69.73   0
         3    393.9107     12.9628 300.3032881 +22.5137986     748.3726     72.04979      1.493     4.18     6.603824     20.33261     76.35178        12     1.051     0.796  56.90   0
         4    776.8779     12.2478 300.4228390 +22.6281649     473.6691     72.06815      1.595     3.90     6.254348     20.33261     40.67102         6     0.909     0.479 -35.36   0
         5    165.4438      3.2286 300.2353527 +22.4426102     3523.733     65.71179      1.614     3.12     6.560043     20.33261     378.0601        29     1.274     1.174  30.05  24
         6    733.5123      3.9599 300.4120022 +22.6128117     699.6702     68.43368      1.566     3.50      6.19038     20.33261     75.38871        12     1.049     0.812  40.07  16
         7    155.0108    997.9109 299.9093041 +22.7249234     829.1886     72.01306      2.341     8.71     83.78723     20.33261     58.45271        17     1.796     1.278  12.94   3
         8    315.1912   1022.9689 299.9509754 +22.7801620     548.9922     59.94226      4.078     4.83     5.157684     20.33261     28.84895         5     0.903     0.731 -78.10  24
         9     78.3315   1009.9362 299.8815563 +22.7053606     5378.684      72.1232     19.223   119.56     73.10563     20.33261     161.2289      2610    20.476    19.369 -28.95  27
        10     69.5098    946.1211 299.8995651 +22.6844241      5510.06     72.19653     33.375   120.87     23.03857     20.33261     1241.902      4976    23.503    17.247 -53.20  27
        11    212.8724    983.6667 299.9319289 +22.7382000     4620.867     72.10486      8.244    27.93     67.33488     20.33261     93.87653       361     6.421     4.599 -52.32   3
        12    920.2922    970.0993 300.1566928 +22.9463812     737.4867     72.23317      2.092     7.26     4.628627     20.33261     41.38943        16     1.231     1.200  23.55   0
        13    224.2227    999.5822 299.9302832 +22.7461678     567.0605      72.0498      1.854     6.74     82.45006     20.33261     42.61861        14     1.535     0.829 -47.67   0
        14      2.7438   1011.3577 299.8576043 +22.6830826     1666.208      63.4169     11.135    15.46     -16.3022     20.33261     49.96828        62     3.826     1.738 -83.51  27
        15    149.4387    959.7291 299.9199874 +22.7123069     798.7409     72.03143      7.601     7.84      48.2704     20.33261     30.33372        11     1.673     1.027 -38.78   1
        16     12.7455   1021.8760 299.8572913 +22.6890983     1010.449     65.20654     10.076    15.25    -5.230949     20.33261     34.83815        27     4.444     1.456 -43.74  27
        17    924.9253    959.0587 300.1617287 +22.9445989     1621.826      72.1232      0.405     2.44     4.674078     20.33261      1491.46         6     0.534     0.336 -22.78   0
        18    645.6126    953.3368 300.0765031 +22.8592635     6927.715     72.03143      2.027     4.79     4.545242     20.33261     373.0904        54     1.619     1.562  67.55   0
        19    349.1594    997.4193 299.9698546 +22.7830246     599.9763     72.08651      2.474     7.70     4.206952     20.33261     37.83717        11     1.495     1.110  -3.40   0
        20    157.2453    950.3982 299.9254485 +22.7119742     1113.417     72.06815      4.881     5.34     39.17817     20.33261     28.02172         5     1.515     0.531 -40.69   3
        21     36.6242    995.5352 299.8732775 +22.6887171     666.0405      72.0498      6.100     5.53     21.30869     20.33261     38.54309         5     1.147     0.751  16.16   1
        22    156.6816    944.0897 299.9273244 +22.7099966     1128.503     72.17821      5.431     6.27     33.60298     20.33261     49.40941        10     1.352     0.923  23.06   2
        23    554.1079    944.0886 300.0510035 +22.8291814     1603.752     72.23317      2.136     4.83     4.469208     20.33261     111.6289        26     1.374     1.310  29.97   0
        24    540.6917    990.9979 300.0315705 +22.8386176     2348.043     71.97631      2.083     4.91     4.447252     20.33261     139.1069        35     1.564     1.401 -16.26   0
        25    143.0826    940.7912 299.9241686 +22.7049711     873.5386     72.01306      3.375     3.42     30.26456     20.33261     33.73486         5     1.583     0.214  62.26   0
        26    159.6717    967.7340 299.9205662 +22.7176717     1181.926     72.10486      6.086     8.43     55.96048     20.33261     45.32509        23     2.511     0.791  51.59   3
        27    448.0309    940.4965 300.0191392 +22.7963485     1054.994     72.01306      1.878     4.90     4.362011     20.33261     80.68754        21     1.325     1.134  29.10   0
        28    378.4755    938.4462 299.9981547 +22.7749039     6643.006     72.06815      2.014     4.59     4.376808     20.33261     428.2732        50     1.584     1.504   7.10   0
        29    193.4358    985.1295 299.9254087 +22.7327882     3810.546     72.08651      7.668    20.36     69.62574     20.33261     91.08973       236     4.773     4.260 -37.74   3
        30    411.6156    925.5746 300.0126546 +22.7811494     607.0351     72.08651      1.850     4.53     4.421699     20.33261     47.75018        12     1.152     0.902  42.61   0
        31    231.8234    972.9792 299.9412983 +22.7408212     7384.758     72.06815      7.766    31.00     50.19824     20.33261     166.9721       657     9.970     4.772  62.14  18
        32    627.3469    986.4824 300.0600330 +22.8632998     9107.391     72.10486      2.181     5.97     4.521186     20.33261     433.7178        54     1.778     1.536   8.48   3
        33    924.9304    917.5530 300.1752268 +22.9326818     2147.543      72.0498      2.165     5.96     4.676097     20.33261     102.4164        35     1.664     1.458  58.92   0
        34    576.3780    913.7547 300.0678030 +22.8271530     290.6288      72.1232      1.425     4.08     4.467436     20.33261     32.64706         5     1.004     0.474 -83.44   0
        35    713.8151    905.8215 300.1132075 +22.8660655     845.3206     72.04979      2.253     7.42     4.561636     20.33261     43.49799        17     1.627     0.983  61.33   0
        36    632.9879    983.9623 300.0626101 +22.8642676     9284.461     72.06815      2.121     5.23     4.537301     20.33261      523.909        48     1.679     1.424  38.20   3
        37    748.3691    900.4906 300.1257117 +22.8748890      1075.67     72.01306      2.034     8.11     4.588288     20.33261     57.55747        22     1.397     1.315   9.96   0
        38    526.6287    901.2106 300.0563858 +22.8086411     285.8806     72.06815      1.224     3.54     4.456296     20.33261     37.79681         5     0.822     0.440 -73.23   0
        39    770.8374    894.1520 300.1347770 +22.8798012     11562.04     72.08651      1.959     4.53     4.650437     20.33261     684.7556        53     1.528     1.499 -20.20   0
        40    816.0422    894.5075 300.1487564 +22.8934464     591.1273     72.06815      2.260     6.42     4.688265     20.33261     33.96521         8     1.362     0.969 -15.58   0
        41    727.7096    986.8638 300.0911858 +22.8934904     697.3455     72.15987      1.883     6.47     4.655632     20.33261     37.93397        18     1.407     1.034  80.21   0
        42      4.1183   1020.2360 299.8551440 +22.6860390     2222.535     67.67554     12.360    21.75     -16.8986     20.33261     48.47699        98     5.338     2.462 -50.70  27
        43    198.9428    890.2531 299.9579678 +22.7072390      720.273      72.1232      5.028     5.46     10.62788     20.33261       34.409         5     1.439     0.584  22.01   1
        44      3.0534    996.2684 299.8626075 +22.6788519     1656.147     64.92188     16.131    26.47    -13.11562     20.33261     46.42455       100     6.275     3.100  61.69  27
        45    475.5454    882.9910 300.0464012 +22.7881001     499.7112     72.06815      1.991     5.34     4.419415     20.33261     32.55282         9     1.097     0.735  42.98   2
        46     82.1257    885.9606 299.9230436 +22.6709650     1171.837     72.04979      7.338     8.00     8.613059     20.33261     50.73157        18     1.875     1.131 -14.23   0
        47    779.4130    876.2089 300.1432839 +22.8772190      1338.61     71.95793      1.780     4.96     4.692857     20.33261     85.63852        25     1.331     1.243  64.18   0
        48    169.2581    999.5150 299.9132123 +22.7296580     2274.203     72.17821      4.851    17.36     85.21474     20.33261     57.64981        64     3.632     2.305  48.60   3
        49    960.8458    876.8314 300.1996720 +22.9317435     335.6283      72.1232      1.664     5.23     4.625536     20.33261     30.29742         5     1.182     0.654  69.55   0
        50    631.5911    873.3982 300.0981239 +22.8321192     291.2514     71.88435      1.657     4.87     4.488917     20.33261     40.36126         6     1.383     0.487  42.24   0
        51    817.6475    869.4623 300.1573989 +22.8867361     985.4021     72.08651      2.291     7.55     4.717896     20.33261     50.32948        15     1.370     1.166 -44.46   0
        52    865.7772    861.2138 300.1750905 +22.8987847     647.0001      72.0498      1.907     6.13     4.584917     20.33261     51.09762        16     1.454     0.955  39.72   0
        53    717.4261    860.0601 300.1292093 +22.8540111     859.4982     72.06815      2.024     6.14     4.578161     20.33261     44.53172        19     1.274     1.170 -34.42   0
        54    429.7960    856.0800 300.0409051 +22.7666640     4189.859     71.97631      1.810     4.09     4.474693     20.33261     312.7677        35     1.411     1.318   6.26   0
        55    728.0410    857.5189 300.1333441 +22.8564619     503.9744     72.03143      1.835     4.70     4.593112     20.33261     52.66737         7     1.253     0.499  -0.63   0
        56    164.2784    997.5900 299.9122900 +22.7276121      2677.66     72.03143      4.919    15.43      83.6076     20.33261     68.81118        65     3.250     2.037  58.57   3
        57    155.2665    841.8688 299.9601123 +22.6802647     881.5803      72.1232      1.849     5.29     7.791139     20.33261     64.93355        16     1.384     0.982 -10.36   0
        58    132.0993    838.8220 299.9538994 +22.6724420     1665.228     72.01306      2.019     4.68     6.911031     20.33261     147.3088        30     1.561     1.318 -10.39   0
        59     64.5401    840.1362 299.9324713 +22.6525525     444.8594     72.10486      1.571     4.14     5.430624     20.33261     43.58143         6     0.766     0.638  47.04   0
        60   1004.1649    828.1203 300.2290241 +22.9307232      2327.27     72.01306      2.118     5.31     4.481637     20.33261     117.1332        36     1.559     1.487 -85.60   0
        61    958.2022    826.7147 300.2151377 +22.9165565     2264.638     71.99469      2.043     4.88     4.478209     20.33261     113.0515        36     1.579     1.393  16.52   0
        62    662.9478    826.6287 300.1230965 +22.8280906     482.0134     72.08651      2.095     5.52     4.501301     20.33261     34.56813         8     1.270     0.676  38.89   0
        63    741.6033    820.9210 300.1494670 +22.8500177     538.2435     71.97631      1.520     4.85     4.831171     20.33261     35.06066         9     1.163     0.573  26.14   0
        64    165.1537    820.5562 299.9701127 +22.6771188     275.4905     72.10486      1.383     2.16     6.617455     20.33261     45.93317         5     0.687     0.465 -20.23   0
        65    609.8210    814.3798 300.1105234 +22.8086553     4674.817     72.06815      1.743     3.84     4.445675     20.33261     368.9052        36     1.348     1.312 -24.29   0
        66    100.1689    815.1217 299.9516748 +22.6560687     444.1752      72.0498      1.509     3.05       5.6142     20.33261     52.93349         8     0.829     0.654 -48.83   0
        67    411.8744    811.2148 300.0499072 +22.7484191     541.6254     72.06815      1.768     5.12     4.728969     20.33261     47.66851        16     1.290     1.125 -21.80   0
        68    159.9213    808.1983 299.9725015 +22.6720057     1283.889     71.97631      1.897     4.60     5.863031     20.33261     115.6726        26     1.528     1.232  -6.36   0
        69    630.3833    806.7657 300.1194045 +22.8126311      730.189     72.06815      1.740     4.85      4.45816     20.33261     67.53065        15     1.248     1.003  43.18   0
        70    161.6465    975.2728 299.9187289 +22.7204252     2235.891     72.06815      6.375    19.23      62.3868     20.33261     55.90931        85     4.148     2.476  51.93   3
        71    547.4170    797.0848 300.0967041 +22.7849904     354.5288     72.03143      1.534     4.24     4.495697     20.33261     44.90509         5     1.140     0.449  78.77   0
        72   1002.7978    794.8770 300.2394016 +22.9207634     1200.684     71.97631      2.061     6.07     4.380882     20.33261     70.46926        20     1.376     1.069   3.48   0
        73    785.7943    794.1210 300.1719539 +22.8555601     4266.898     71.99469      1.803     3.99     5.190936     20.33261     336.6123        36     1.436     1.293  39.14   0
        74    194.8307    788.3263 299.9898142 +22.6767764     421.5953     72.08651      1.605     4.72     5.333962     20.33261      56.7421        10     1.118     1.049  10.10   0
        75    502.7746    786.5278 300.0862310 +22.7685814     702.0383     72.08651      1.716     3.79     4.526217     20.33261     70.00527        14     1.156     0.972  29.40   0
        76    149.1528    784.1470 299.9769682 +22.6618789     965.2914     72.10486      1.866     4.14      5.38125     20.33261     95.35157        21     1.440     1.174  17.11   0
        77    298.8579    776.4572 300.0260296 +22.7045650     54136.57     72.14154      1.832     3.83     5.172113     20.33261     4943.353        99     1.562     1.536  13.32   0
        78    564.5373    780.0873 300.1075601 +22.7852422     491.1763     72.17821      1.680     5.47     4.574077     20.33261      51.2113        10     1.229     0.687 -10.90   0
        79    969.7524    774.9974 300.2355493 +22.9051581     807.7755     72.06815      1.816     5.56     4.470708     20.33261     73.43562        18     1.290     1.208 -43.42   0
        80    556.8182    775.4982 300.1066468 +22.7816118     1517.974     71.99469      1.626     4.15     4.600624     20.33261     131.3113        22     1.194     1.157  -0.31   0
        81    227.9120    774.5683 300.0045731 +22.6827507     580.0656     72.03143      1.824     4.51     5.261736     20.33261     47.86893         9     0.982     0.720 -22.08   0
        82    585.7243    771.7349 300.1168740 +22.7891934     928.5231     72.14154      1.725     4.07     4.612767     20.33261     79.69073        16     1.146     0.983 -69.92   0
        83    596.6230    770.1677 300.1207785 +22.7920093     568.6442     72.06815      1.653     5.33     4.622796     20.33261     56.33238        10     1.214     0.661  24.60   0
        84    916.9112    767.9807 300.2213421 +22.8873202     381.2558     72.01306      1.714     4.66     4.759713     20.33261     33.44167         6     1.175     0.525  -1.09   0
        85    702.7086    766.3942 300.1550624 +22.8227097     356.3718     71.97631      1.555     3.25     4.808156     20.33261     51.42542         7     1.023     0.883 -46.01   0
        86    739.9548    757.1281 300.1696832 +22.8312063     741.9544     72.03143      1.641     4.09     5.004611     20.33261     65.81415        13     1.188     0.735  -1.53   0
        87    348.5799    753.7363 300.0488835 +22.7129531     32022.17      72.0498      1.752     3.88     4.968872     20.33261      2824.04        80     1.499     1.468  -9.02   0
        88    360.4711    748.2076 300.0543803 +22.7149314     640.1417      72.0498      1.983     4.76     4.949136     20.33261      52.8651        13     1.156     1.016  37.85   3
        89    871.8901    750.0592 300.2131210 +22.8686907     2703.704     72.15987      1.727     3.76     5.167338     20.33261      192.509        29     1.351     1.207  83.05   0
        90    629.4924    745.8752 300.1389123 +22.7948837     940.4993     72.23317      1.729     4.80     4.760514     20.33261     68.82624        18     1.287     1.032   8.93   0
        91    231.2584    745.3849 300.0150952 +22.6753831     830.8391      72.0498      1.680     3.53     5.222565     20.33261     97.44662        17     1.170     1.047  37.66   0
        92     36.1027    740.8262 299.9559004 +22.6155489     540.2729     72.01306      1.980     6.52      4.89727     20.33261     39.73454        10     1.475     0.808 -69.62   0
        93    476.7909    740.4457 300.0931123 +22.7475685     968.3519     72.08651      1.761     4.94     4.779273     20.33261     82.12641        19     1.313     1.203   1.09   0
        94    877.8191    737.9984 300.2188890 +22.8670016     388.4533     71.99469      1.427     3.59     5.202357     20.33261     45.70472        10     0.919     0.754   5.76   0
        95    422.5387    735.4351 300.0778491 +22.7298707     450.8316     72.08651      1.651     5.90     4.953626     20.33261     44.83686        10     1.144     0.856 -46.31   0
        96    362.8945    754.3604 300.0531356 +22.7174233     2041.441     72.08651      1.722     3.56     4.944937     20.33261     180.3893        26     1.334     1.152  41.28   2
        97     65.3046    735.0655 299.9668476 +22.6226560     447.2975     72.19653      1.644     4.10      5.05892     20.33261     45.62144         6     1.080     0.444  60.59   0
        98    855.9938    732.4279 300.2138912 +22.8588658     482.6007     72.06815      1.828     4.72     5.294683     20.33261     42.33992         8     1.045     0.603  20.50   0
        99    228.8248    729.9599 300.0193492 +22.6702286     411.9182     72.10486      1.497     5.24     5.223766     20.33261     48.29596         8     1.200     0.646  11.91   0
       100    551.9479    720.2624 300.1230753 +22.7642969     472.4431      72.1232      1.608     4.65     4.799927     20.33261     49.25065         8     0.873     0.701  31.36   0
       101    521.6835    718.3272 300.1142777 +22.7546728     826.6553     72.19653      1.747     5.52     4.807497     20.33261     59.69273        17     1.267     1.118  38.83   0
       102    938.3071    715.3770 300.2451086 +22.8786140      4631.07     71.99469      1.825     3.98     5.121601     20.33261     327.8889        41     1.434     1.376  49.69   0
       103    431.8769    717.7393 300.0865047 +22.7275910     267.0417      72.1232      1.285     3.58     5.055655     20.33261     46.56993         5     0.794     0.497 -46.93   0
       104    543.7239    716.0266 300.1218897 +22.7606167     1580.086     72.08651      1.744     3.77      4.79398     20.33261      113.002        24     1.237     1.165 -67.92   0
       105    625.2255    710.7645 300.1489891 +22.7835247     256.8397     72.08651      1.438     3.18     4.897386     20.33261     46.03328         5     1.064     0.660 -12.89   0
       106    926.7604    706.6605 300.2443377 +22.8726526     1606.456     72.06815      1.767     4.09      5.25972     20.33261     136.6687        22     1.252     1.134  43.01   0
       107    289.6193    700.3273 300.0478868 +22.6799539     873.0711     72.06815      1.713     4.10     5.391275     20.33261     77.16934        16     1.319     0.938  -9.88   0
       108    753.0710    697.9196 300.1930074 +22.8181310     2721.206     72.17821      1.800     3.77     5.220962     20.33261     180.3107        34     1.388     1.301  13.11   0
       109    957.9312    697.0049 300.2572001 +22.8792103     1680.739     72.03143      1.899     4.52     5.262255     20.33261      116.489        27     1.404     1.238  46.47   0
       110    138.8216    684.3822 300.0061641 +22.6301677     639.4456     72.04979      1.717     3.37     5.399127     20.33261     63.76045        11     1.017     0.806   4.51   0
       111    835.0543    684.0731 300.2230688 +22.8387050     545.4347     72.04979      1.573     4.41     5.448024     20.33261     50.79233        11     1.170     0.832  -8.10   0
       112    871.4994    674.8730 300.2374242 +22.8469746     148410.1     72.21486      1.714     3.72     5.549143     20.33261     11418.33       159     1.568     1.532 -43.15   0
       113    634.0684    678.7100 300.1621565 +22.7769698     383.2603     72.21486      1.627     3.35     5.004323     20.33261     48.75774         7     0.963     0.770 -67.63   0
       114   1018.4082    676.9938 300.2825740 +22.8915634     1251.517     71.90276      1.826     4.51     5.513186     20.33261     82.00806        25     1.428     1.141  -8.27  16
       115    723.7786    674.9377 300.1913407 +22.8027573     829.7184     72.04979      1.578     5.39     5.216074     20.33261      79.5642        13     1.270     1.018 -89.76   0
       116    904.4516    667.7979 300.2500015 +22.8548076     389.8925      72.0498      1.476     5.37     5.583811     20.33261     37.34686        11     1.094     0.742  37.02   0
       117    557.5895    663.5799 300.1432439 +22.7497142     1743.576      72.0498      1.602     3.02     4.962994     20.33261     213.1106        21     1.190     1.062  30.35   0
       118    738.9741    660.9160 300.2006318 +22.8032810     9575.624     72.04979      1.582     3.21     5.287052     20.33261     759.1658        48     1.349     1.294  63.06   0
       119    220.8199    662.5755 300.0387458 +22.6484974     251.2548     72.06815      1.382     5.18     5.342786     20.33261     33.63211         8     1.025     0.739 -29.76   0
       120    240.4384    655.7623 300.0470607 +22.6524240     5008.733     72.14154      1.756     3.49     5.397883     20.33261     492.9297        38     1.371     1.292  12.87   0
       121    322.4414    653.9927 300.0731479 +22.6764971     1186.454     72.08651      1.641     3.42     5.524508     20.33261     133.7525        17     1.206     0.948  -3.73   0
       122    198.4221    651.4503 300.0353925 +22.6385908     586.2023     72.06815      1.521     2.95     5.432796     20.33261     102.0538        12     1.221     0.690 -35.05   0
       123    530.6569    649.6671 300.1393734 +22.7376507     850.9904     72.10486      1.771     3.48     5.109527     20.33261     79.17911        15     1.085     0.911   1.67   0
       124    522.4131    641.6732 300.1394019 +22.7328858     3176.942     72.08651      1.522     2.93     5.207686     20.33261     396.1122        27     1.216     1.065  24.10   0
       125    512.4613    635.2543 300.1383870 +22.7280613     1423.061      72.1232      1.575     3.14     5.287587     20.33261      168.466        22     1.380     1.061  59.89   0
       126    906.0096    633.7526 300.2615447 +22.8454916     359.5694     72.08651      1.449     4.82     5.585011     20.33261      43.5598         9     1.005     0.675  48.71   0
       127    424.8171    632.8135 300.1118894 +22.7010997     226.3401     72.01306      1.274     4.86     5.499692     20.33261     31.01031         5     1.218     0.549  61.23   0
       128    176.1231    631.5419 300.0349224 +22.6261939     667.2943     72.10486      1.792     4.31     5.545569     20.33261     88.41193        13     1.492     0.834  -8.73   0
       129    191.0526    630.2342 300.0399899 +22.6302946     635.3809     72.08651      1.534     2.88       5.5214     20.33261     63.22069         9     0.891     0.652 -70.75   0
       130    959.4037    626.7344 300.2804832 +22.8594580     435.5782     72.08651      1.453     4.20     5.602347     20.33261     48.17324        10     1.263     0.633  48.07   0
       131    247.7290    626.7463 300.0587508 +22.6462840     310.2864     72.08651      1.625     4.35     5.483931     20.33261     36.20053         5     1.111     0.485 -31.59   0
       132    215.5418    626.8752 300.0486970 +22.6366723     446.1745      72.1232      1.426     5.31     5.479912     20.33261     56.86014         9     1.188     0.669  10.87   0
       133    536.4085    625.7599 300.1489285 +22.7325098     483.8038     72.06815      1.490     2.88     5.390666     20.33261      77.5138        12     0.936     0.878  -6.54   0
       134    437.3454    625.0059 300.1183251 +22.7026126     1952.421     72.06815      1.653     3.33     5.481458     20.33261     173.4394        24     1.239     1.093  11.91   0
       135   1013.3437    623.1545 300.2984794 +22.8745738     640.8724     72.10486      1.447     4.29     5.602907     20.33261     63.97153        15     1.184     0.911  24.80   0
       136     91.3445    619.8032 300.0123748 +22.5974078     19972.84     72.03143      1.854     3.77     5.674377     20.33261      1879.44        67     1.560     1.460  33.58   0
       137     12.7510    621.7124 299.9873276 +22.5743876     770.7827     72.06815      1.750     3.81     5.582423     20.33261     77.84714        13     1.044     0.945 -50.04   0
       138    522.2424    620.5881 300.1461957 +22.7267809     1052.208     72.06815      1.568     3.07     5.442152     20.33261      119.001        17     1.073     1.002  -9.38   0
       139    275.8533    611.9237 300.0723129 +22.6504607     265.4724     72.10486      1.254     3.94     5.522363     20.33261     32.33672         6     0.972     0.458 -37.62   0
       140    940.3719    607.0165 300.2809478 +22.8480946     972.1503     72.08651      1.582     3.97     5.601936     20.33261     81.70732        17     1.100     1.057 -78.71   0
       141     37.5240    603.9892 300.0007805 +22.5767333     1546.412     72.08651      2.064     5.46     5.790687     20.33261     112.0702        28     1.624     1.293 -89.18   0
       142    806.8612    604.8536 300.2400044 +22.8075046      518.076      72.1232      1.502     4.98     5.429786     20.33261     57.82362        13     1.225     0.961  13.69   0
       143    103.4879    605.0018 300.0209555 +22.5968029     475.2578     71.99469      2.063     4.38     5.726304     20.33261     48.63867         9     1.179     0.593 -11.08   0
       144    485.5728    601.1875 300.1410753 +22.7102247     519.3798     72.06815      1.410     3.47     5.542264     20.33261     62.46489        10     0.961     0.837  -6.74   0
       145    879.3958    599.4487 300.2643819 +22.8276672     1034.101      72.0498      2.805     6.75     5.570599     20.33261     58.31974        21     2.183     0.970   4.68   0
       146    625.0106    597.2568 300.1857858 +22.7508655     323.3531     72.03143      1.342     3.10     5.674199     20.33261     40.37092         5     0.796     0.479  50.97   0
       147    442.5481    593.4160 300.1302020 +22.6951029     805.4775     72.06815      1.633     3.81     5.533858     20.33261     75.83749        12     1.057     0.902   2.67   0
       148    591.5824    591.3281 300.1772956 +22.7391504     1224.719     72.06815      0.750     3.83     5.730467     20.33261     823.6945        10     0.974     0.432 -33.18   0
       149    637.8188    590.4524 300.1919861 +22.7527474     517.7539      72.0498      1.606     4.50     5.636288     20.33261     63.09024         7     0.889     0.647  27.32   0
       150    608.0850    590.0687 300.1828459 +22.7437317       578.48     72.15987      1.538     4.44     5.763556     20.33261     61.09914        10     0.957     0.804  45.05   0
       151    486.7108    589.2638 300.1453011 +22.7071422     937.4405     72.17821      1.553     3.43     5.559075     20.33261     99.15956        17     1.104     1.022 -57.53   0
       152    452.1879    584.6146 300.1360608 +22.6954644     1607.465     71.99469      1.486     2.90     5.541975     20.33261     195.0153        19     1.076     1.010  15.47   0
       153   1018.8787    583.5660 300.3130621 +22.8648510     678.9006     72.01306      1.597     4.24     5.601882     20.33261     71.79582        12     1.096     0.866 -15.91  16
       154     14.0540    577.8655 300.0019676 +22.5622026     5253.238     72.10486      1.999     3.94     5.844988     20.33261     450.6017        49     1.630     1.456  30.08   0
       155    920.5737    584.9073 300.2819495 +22.8358146     3277.961     72.01306      1.681     3.74     5.598097     20.33261     275.2276        30     1.257     1.240 -18.38   0
       156    315.6557    571.2486 300.0979028 +22.6507162     9251.291     72.10486      1.616     3.08     5.520152     20.33261     979.3912        45     1.313     1.286  43.07   0
       157    438.0291    568.3594 300.1369298 +22.6865555     8954.667     72.08651      1.507     2.88     5.542377     20.33261     949.0508        41     1.250     1.235  41.69   0
       158     82.4011    564.8674 300.0274296 +22.5789673     322.0107     72.03143      1.625     3.52     5.784106     20.33261     45.18418         5     0.853     0.420 -70.10   0
       159    934.5411    559.9954 300.2943956 +22.8328355     12704.27     72.03143      1.677     3.55     5.601725     20.33261     1083.288        55     1.414     1.346 -75.70   0
       160    849.8344    562.5552 300.2671398 +22.8082162     1988.966      72.1232      1.679     3.53     5.578581     20.33261     164.0228        28     1.323     1.139  80.06   0
       161    498.7271    557.9611 300.1592055 +22.7017542     11740.62     72.03143      1.505     3.07     5.620567     20.33261     1257.235        45     1.275     1.215  59.72   0
       162    668.1247    553.7055 300.2133604 +22.7512686     617.9277     72.21486      1.577     5.71     5.690771     20.33261     56.72566        12     1.060     0.868  59.48   0
       163    226.0827    553.3334 300.0758514 +22.6187293     1410.017     72.17821      1.658     3.70     5.524508     20.33261     134.6473        22     1.297     1.050  52.36   0
       164    384.0008    552.5281 300.1252500 +22.6658226     318.6361     71.95793      1.355     2.48     5.517333     20.33261     44.63281         6     0.760     0.498   2.78   0
       165    472.7299    550.9623 300.1533819 +22.6919565      406.756     72.03143      1.506     3.58     5.588078     20.33261     54.94149         8     1.034     0.594  55.76   0
       166    773.3383    546.6985 300.2484326 +22.7807591     809.8642     72.15987      1.440     3.20     5.498711     20.33261     90.82888        14     0.993     0.921  -6.89   0
       167    430.3508    546.0695 300.1417752 +22.6778555     4324.884     72.06815      1.497     3.01     5.541574     20.33261     435.2425        31     1.222     1.143  84.08   0
       168    408.8513    544.5717 300.1355683 +22.6709841     1237.043     72.08651      1.526     3.02     5.523546     20.33261     157.4814        18     1.098     0.999 -36.89   0
       169    162.8000    543.7582 300.0592782 +22.5970133     655.6302     72.08651      1.622     4.21     5.649135     20.33261     70.00135        14     1.120     1.019  -8.61   0
       170    850.2148    541.8229 300.2739890 +22.8023723     1587.446     72.06815      1.654     3.40     5.605389     20.33261      133.006        27     1.322     1.178 -35.36   0
       171    547.0255    533.7205 300.1821171 +22.7092605     208440.9      72.0498      1.502     2.90     5.755723     20.33261     22462.95       203     1.518     1.466 -12.38   0
       172    730.7706    538.9470 300.2376777 +22.7657872     824.7701     72.06815      1.420     2.89     5.441585     20.33261     98.76871        14     0.965     0.927 -80.28   0
       173    370.8501    540.0754 300.1251990 +22.6583074     286.6739     72.06815      1.212     2.33     5.508555     20.33261      53.4063         6     0.741     0.536 -47.63   0
       174    233.0231    533.4653 300.0844593 +22.6151076     3570.933      72.0498      1.623     3.07     5.515069     20.33261     435.7736        34     1.320     1.265  37.02   0
       175    798.8326    530.2347 300.2617265 +22.7836609     503.8971     72.10486      1.259     3.38     5.671696     20.33261     56.81237         8     0.853     0.616  38.32   0
       176     96.3833    541.2258 300.0394501 +22.5763767     220.7068     72.08651      1.465     4.89     5.785645     20.33261     32.24971         6     1.123     0.602  19.12   0
       177    578.1985    520.1892 300.1962199 +22.7147108     126.9868     71.88435      1.201     3.88     5.823441     20.33261     37.88863         5     1.049     0.412  44.82   0
       178    437.6664    513.6550 300.1545741 +22.6707403     3541.187      72.1232      1.586     6.61     5.539161     20.33261     498.8701        25     1.221     1.005 -79.53   2
       179    281.9396    516.3378 300.1052360 +22.6248515     342.9451     72.10486      1.398     4.77     5.514761     20.33261     46.77308        10     1.156     0.669 -15.69   0
       180    887.5538    514.4536 300.2945203 +22.8056828     357.0518     72.10486      1.636     5.39     5.601794     20.33261     33.31274         8     0.999     0.821 -27.77   0
       181    849.4121    510.8060 300.2838069 +22.7932182     364.3539     71.93954      1.417     3.86     5.645251     20.33261     43.99936         8     1.050     0.708  59.79   0
       182    667.7554    510.5688 300.2272476 +22.7387663      248.407      72.1232      1.559     3.37     5.836955     20.33261     30.99184         5     0.741     0.444  21.70   0
       183    755.3207    502.9663 300.2570104 +22.7627993     415.0644     72.01306      1.467     4.77     5.671844     20.33261     50.43634         8     0.917     0.794  79.47   0
       184    834.5259    500.4490 300.2825257 +22.7857860     1595.708     72.06815      1.505     2.90     5.709637     20.33261     182.1464        20     1.147     1.026  75.06   0
       185    705.8987    497.9299 300.2432382 +22.7465559     2704.745     72.19653      1.506     3.16     5.756037     20.33261      271.859        28     1.228     1.093  89.16   0
       186    343.9019    497.5067 300.1306284 +22.6380125     273.2559     72.25149      1.200     2.91     5.464581     20.33261     51.96175         5     0.833     0.514  49.19   0
       187    950.4073    496.2556 300.3200370 +22.8192624     507.4806     72.06815      1.735     4.46     5.601388     20.33261     42.88471         8     1.074     0.528  36.83   2
       188    949.1719    491.5875 300.3211666 +22.8175508     815.3406     72.06815      1.834     4.27     5.601408     20.33261      75.3951        13     1.088     0.985 -83.94   2
       189    915.5420    495.6497 300.3093552 +22.8086544     376.9685      72.1232      1.636     3.24     5.601794     20.33261     45.46471         7     0.838     0.661 -10.18   0
       190    610.5264    494.4702 300.2146392 +22.7170047     460.8655     72.14154      1.480     3.01     5.868003     20.33261     57.31961         7     0.830     0.662  75.04   0
       191    493.2132    493.8881 300.1782855 +22.6817031      706.673     72.01306      1.388     2.93     5.598038     20.33261      89.0783        14     0.991     0.902 -16.32   0
       192    963.1628    492.2277 300.3253246 +22.8219215     1208.237     72.06815      1.495     3.28     5.601137     20.33261     120.5374        19     1.225     0.918  45.45   0
       193    835.0257    490.4712 300.2859200 +22.7830679     2194.354     72.06815      1.772     3.76     5.733602     20.33261      189.812        32     1.538     1.138  73.00   0
       194    588.3609    488.6663 300.2096170 +22.7086998      646.738     72.03143      1.491     3.30      5.86342     20.33261     64.66438        12     1.105     0.741 -12.94   2
       195    587.9503    484.6349 300.2107974 +22.7074189     388.2285     72.08651      1.400     5.10     5.867024     20.33261     44.42559         8     1.170     0.697 -37.31   2
       196    374.2101    488.0407 300.1431333 +22.6443753     193.4701     72.06815      1.109     2.56     5.472332     20.33261     44.96148         5     0.769     0.482 -38.47   0
       197    873.1190    485.6016 300.2993820 +22.7930699     4349.274     71.97631      1.551     3.00     5.601794     20.33261     467.0269        33     1.294     1.151  70.25   0
       198    426.7281    487.1606 300.1597673 +22.6598559     393.7354      72.0498      1.349     3.39     5.527042     20.33261     54.81618         8     0.920     0.673 -21.63   0
       199    533.5898    481.3498 300.1949297 +22.6901954     390.3029     72.08651      1.183     3.41     5.811376     20.33261     48.28881         7     0.904     0.537 -26.22   0
       200    965.0874    476.0945 300.3311612 +22.8178594      801.788     72.25149      1.506     3.90     5.596084     20.33261     86.83884        16     1.173     1.018  76.09   0
       201    104.9600    475.4858 300.0634515 +22.5600852     996.3511     72.04979      1.633     3.41     5.788244     20.33261     106.9211        19     1.196     1.029  37.26   0
       202    705.2473    460.0258 300.2553363 +22.7354701     573.3796     72.08651      1.807     3.75     5.899186     20.33261     54.23803         8     0.975     0.764  45.75   0
       203    594.3441    457.5197 300.2215887 +22.7015445     424.5153     72.10486      1.743     3.56     5.933544     20.33261     53.71968         8     1.037     0.885 -84.63   0
       204    646.3591    456.1205 300.2382501 +22.7167172     729.7283     72.04979      1.394     3.32     5.954548     20.33261     84.86269        13     1.017     0.835  57.03   0
       205    961.1728    448.5494 300.3388787 +22.8087689     666.6025     72.08651      1.528     5.23     5.569044     20.33261     57.28589        14     1.156     0.940 -63.34   0
       206    707.2864    448.1375 300.2598297 +22.7326645     792.3131     72.17821      1.451     3.72     5.932737     20.33261      84.3894        17     1.154     0.965  52.52   0
       207    864.6357    444.5815 300.3100477 +22.7787403     963.2733     72.06815      1.509     3.27     5.702128     20.33261     127.2869        17     1.117     0.972 -58.61   0
       208    848.8190    440.8630 300.3063209 +22.7729379     725.6371     72.04979      1.565     3.10      5.78171     20.33261     71.96257        12     0.978     0.834 -84.72   0
       209    828.9895    440.9194 300.3001180 +22.7670195     356.9455     72.04979      1.399     4.60     5.867252     20.33261     39.65179         7     0.857     0.702  67.95   0
       210    593.1609    438.6865 300.2273311 +22.6957799     3318.923      72.0498      1.469     2.65     5.986677     20.33261     376.0533        28     1.158     1.085  78.42   0
       211    953.4722    438.0837 300.3398718 +22.8034558     619.7566     72.19653      1.734     5.21      5.55805     20.33261     44.00793        10     1.099     0.698  39.82   0
       212     69.5567    429.8721 300.0672458 +22.5363844     366.4705      72.0498      1.282     3.24     5.911893     20.33261     45.03996         5     0.840     0.553 -43.32   0
       213    433.4038    425.9350 300.1817126 +22.6442737     422.2358     72.06815      1.544     3.23      6.04693     20.33261     47.02514         8     0.927     0.643 -13.85   0
       214   1004.5712    417.8315 300.3623901 +22.8129210     1270.714     72.06815      1.646     4.08     5.537903     20.33261     109.4098        24     1.364     1.157  71.83   0
       215    876.1138    417.3802 300.3224543 +22.7743560     586.9294     71.99469      1.810     3.34     5.738356     20.33261     52.93531         9     0.969     0.811  83.56   0
       216    962.9059    416.7785 300.3497286 +22.8001528     892.4612     71.99469      1.507     3.41     5.536912     20.33261     93.60912        16     1.139     0.963  45.89   0
       217    703.7849    412.5867 300.2702733 +22.7214006     1124.306     72.01306      1.437     3.22     6.024611     20.33261     141.6242        18     1.115     0.995 -49.47   0
       218    499.7669    413.1679 300.2065192 +22.6604823     392.8622      72.1232      1.225     3.83     6.130002     20.33261     52.84632         6     0.794     0.529 -36.69   0
       219    207.7264    410.8621 300.1163752 +22.5723367     635.9067     72.10486      1.586     3.24     5.875703     20.33261     69.94302        13     1.037     0.844 -80.24   0
       220     47.4312    409.1530 300.0670901 +22.5238070     308.0747     72.10486      1.859     4.31     5.941245     20.33261     26.87044         5     0.926     0.571 -44.34   0
       221    269.9674    406.3966 300.1371854 +22.5897037     3787.407     72.06815      1.536     2.79     5.784772     20.33261     413.1531        31     1.228     1.189  80.33   0
       222   1003.2767    405.2494 300.3660684 +22.8089157     4273.332     72.06815      1.630     3.05     5.528796     20.33261     436.6183        37     1.323     1.284  -5.09   0
       223    217.2110    401.0284 300.1225153 +22.5723558     7689.238     72.06815      1.614     3.05     5.889897     20.33261     777.0969        42     1.363     1.243  61.01   0
       224    595.9597    400.6826 300.2405334 +22.6856996     347.3969     72.03143      1.407     3.78      6.03081     20.33261     40.41523         5     0.828     0.494  51.78   0
       225    983.2714    396.3090 300.3627253 +22.8003600     1878.812     72.23317      1.667     3.35     5.522708     20.33261      203.822        27     1.312     1.227 -81.36   0
       226    358.0647    395.3676 300.1681772 +22.6129289     4733.062     72.06815      1.470     2.75      5.96542     20.33261     556.3373        30     1.234     1.088 -84.45   0
       227    602.3185    392.2469 300.2452512 +22.6851797     18645.33     72.06815      1.432     2.64     6.017163     20.33261      2128.67        53     1.256     1.202  63.08   0
       228    620.0829    392.0975 300.2508347 +22.6904554     941.9955     72.23317      2.043     5.63     6.006911     20.33261     70.59978        19     1.551     0.978 -38.47   0
       229    799.0072    383.0411 300.3095463 +22.7414100     366.1184     72.10486      1.437     4.17     5.946705     20.33261     49.52583         7     0.908     0.546 -38.43   0
       230    222.2970    379.3723 300.1311223 +22.5676627     327.1371     72.01306      1.087     2.66     5.935849     20.33261     56.85782         5     0.687     0.483   1.74   0
       231    936.0475    374.5258 300.3550557 +22.7799681      778.301     72.06815      1.729     6.24     5.508504     20.33261     66.81894        18     1.510     1.009 -67.32   0
       232    472.8224    374.3656 300.2107160 +22.6412676      478.494     72.08651      1.717     3.29     6.132191     20.33261     44.93289         8     0.898     0.646 -17.76   0
       233    156.9941    372.0345 300.1131925 +22.5459893     2114.657     72.06815      1.603     3.12     5.934484     20.33261      195.382        28     1.314     1.141  85.05   0
       234    956.6865    362.3323 300.3654514 +22.7826365     1256.413     72.17821      1.648     3.63     5.499711     20.33261     108.6083        18     1.170     0.994 -86.96   0
       235    542.9498    361.6255 300.2366892 +22.6586066     6568.874     72.08651      1.441     2.65     6.033978     20.33261     852.6086        36     1.219     1.127  76.52   0
       236    258.1897    360.9019 300.1482788 +22.5731133     599.6785     71.95793      1.363     2.77     5.914361     20.33261     77.39726        12     0.946     0.803 -18.82   0
       237    803.1353    353.9557 300.3202685 +22.7342846      283.067     72.04979      1.199     4.93      5.88141     20.33261     39.37809         7     1.095     0.630 -44.31   0
       238    115.6263    354.0468 300.1061639 +22.5284299     350.8748     72.08651      1.288     3.14      5.97882     20.33261     69.45433         8     0.931     0.750 -59.99   0
       239    747.4578    350.8692 300.3039090 +22.7167349     1217.953     72.08651      1.571     2.89      5.90997     20.33261      139.155        18     1.158     0.942  58.44   0
       240    656.7965    352.2122 300.2752136 +22.6899849     436.3029     71.90276      1.266     2.60     5.943469     20.33261     60.46573         8     0.865     0.600   6.16   0
       241    449.5596    347.8664 300.2120677 +22.6266894     6136.148     72.03143      1.467     2.68      6.11952     20.33261      779.167        39     1.293     1.155  75.89   0
       242    939.1386    342.8006 300.3663112 +22.7717704     671.6852     72.03143      1.526     4.31     5.493623     20.33261     73.18687        12     1.087     0.852 -57.32   0
       243    841.5639    342.4961 300.3359703 +22.7424894     1387.596     72.06815      1.501     2.72     5.874446     20.33261     169.4404        20     1.107     1.050 -64.61   0
       244    434.1292    336.8275 300.2108436 +22.6188976     455.8217      72.0498      1.527     4.59     6.091644     20.33261     63.54102         8     1.307     0.783 -35.86   0
       245    516.6946    334.7319 300.2372342 +22.6430189     452.7034     72.21486      1.395     4.35     6.007574     20.33261     50.84514        11     1.087     0.826  71.13   0
       246    814.4235    330.4434 300.3314150 +22.7309032     640.5338      72.1232      1.466     2.60     5.866179     20.33261      67.4948        10     0.882     0.756  15.94   0
       247     95.1536    329.3765 300.1077999 +22.5152138     347.8914     72.08651      2.072     5.24     6.066436     20.33261     27.37132         6     1.063     0.730   7.26   0
       248    337.1535    327.0082 300.1838417 +22.5870341     2499.688     72.08651      1.441     2.87     6.344397     20.33261     288.2356        25     1.150     1.083  75.51   0
       249     55.5543    324.3613 300.0971165 +22.5019076     935.9912      72.1232      1.640     3.72     6.186926     20.33261     105.2637        20     1.357     1.023 -11.05   0
       250    685.1536    321.8575 300.2938967 +22.6897490      405.676      72.1232      1.760     4.06     5.886407     20.33261     27.79382         6     0.803     0.586 -45.64   0
       251    306.4801    316.4152 300.1777316 +22.5748046     30226.83      72.0498      1.552     2.75     6.246625     20.33261     3814.914        67     1.386     1.265  66.97   0
       252    841.3398    314.2408 300.3450645 +22.7342987     1391.648     72.06815      1.491     3.18      5.86191     20.33261     173.2863        17     1.094     0.970  88.28   0
       253      2.9978    304.0924 300.0873548 +22.4803397     4576.832     64.57454      1.653     3.34      6.61781     20.33261      448.831        32     1.384     1.216  88.33  24
       254    880.0845    303.7655 300.3605472 +22.7428786     276.2659     72.03143      1.884     4.92     5.776334     20.33261     28.58346         5     1.568     0.437 -23.25   0
       255    756.3500    302.8919 300.3222418 +22.7056048     549.7407     72.10486      1.353     3.55     5.866541     20.33261     72.07014         9     0.915     0.769  57.04   0
       256    180.5473    302.7045 300.1430016 +22.5331432      468.998     72.14154      1.497     5.74      6.00256     20.33261     60.68715        11     1.269     0.787  58.52   0
       257    405.2943    301.7456 300.2132436 +22.6001854     525.1052      72.1232      1.367     3.13     6.090052     20.33261     72.03432        12     0.994     0.823 -83.21   0
       258    717.1090    296.3912 300.3121162 +22.6919930     1893.346     71.99469      1.468     2.67     5.862291     20.33261     236.4872        21     1.147     1.008 -51.09   0
       259    525.0605    291.3065 300.2539226 +22.6330468     348.5591     72.15987      1.218     2.76      5.84074     20.33261      51.8861         6     0.848     0.496  38.05   0
       260    932.2724    289.5501 300.3814391 +22.7544029     563.3438     72.06815      1.371     2.62     5.493623     20.33261     73.28885         9     0.853     0.713  17.99   0
       261    378.9104    280.8247 300.2118144 +22.5862750     2195.082     72.01306      1.611     3.51     6.227732     20.33261     207.8914        29     1.398     1.082  62.43   0
       262    591.1718    280.1486 300.2781354 +22.6496314     441.4264     72.08651      1.569     3.32      5.87894     20.33261     53.39231         7     0.976     0.545  18.56   0
       263    204.0241    279.3377 300.1578800 +22.5334672     1562.106     72.04979      0.667     1.77      6.12525     20.33261     659.7903         9     0.597     0.457 -71.70   0
       264    817.8962    274.0859 300.3507745 +22.7157390     626.7056     72.25149      1.446     3.06     5.830576     20.33261     84.20775        13     1.032     0.841  -2.25   0
       265    810.2463    275.0656 300.3480712 +22.7137319     229.5444     72.06815      1.335     4.34     5.826979     20.33261     36.18967         7     0.758     0.709  36.65   0
       266    700.3318    271.8183 300.3148546 +22.6799086      370.934     72.06815      1.299     3.67     5.846209     20.33261     52.28463         7     0.974     0.557 -21.23   0
       267    668.7990    270.2709 300.3055279 +22.6700269     310.0051     71.99469      1.027     3.80     5.843725     20.33261     41.08414         6     1.365     0.304 -64.64   0
       268     27.6087    261.0373 300.1089629 +22.4753574     218.9377     72.08651      1.340     4.69     6.648547     20.33261      51.5675         7     1.227     0.672 -64.57   0
       269    454.5760    260.1959 300.2420595 +22.6030055     1184.874     72.03143      1.360     2.73     5.898645     20.33261     143.7842        18     1.158     0.897  70.26   0
       270    699.5349    252.1978 300.3209679 +22.6740299     2218.218     72.08651      1.466     2.67      5.84312     20.33261     259.6804        22     1.193     0.956 -71.87   0
       271    960.8610    246.6948 300.4042560 +22.7506282     3278.567     72.15987      1.666     3.33     5.600468     20.33261     301.3355        34     1.380     1.233  67.15   0
       272    507.5220    245.0528 300.2634572 +22.6145056     123.3761     72.10486      1.354     5.00     5.860228     20.33261     34.54558         6     1.011     0.701 -36.24   0
       273   1021.8826    242.0087 300.4248204 +22.7675297     405.8602      65.0847      1.238     2.71     5.507374     20.33261     57.35934         9     0.779     0.756  13.54  16
       274    407.7708    235.8450 300.2353816 +22.5819955     702.8253     72.10486      1.433     2.97     5.833229     20.33261     85.12363        13     0.947     0.873 -80.13   0
       275     82.6415    230.0354 300.1361192 +22.4829473     1402.657      72.1232      1.926     3.98     6.598133     20.33261      121.257        26     1.428     1.218 -33.64   0
       276    113.7806    230.3214 300.1457075 +22.4923586     577.2215     72.06815      1.491     2.61      6.47323     20.33261     85.77197         8     0.909     0.559 -19.01   0
       277    976.7484    227.7990 300.4153403 +22.7499444     388.7335     72.03143      1.167     2.17     5.612781     20.33261     55.83133         6     0.721     0.526  35.39   0
       278    831.3354    227.9247 300.3699326 +22.7064861     328.6425     72.14154      1.571     4.22     5.808407     20.33261     31.28452         5     1.067     0.475  26.93   0
       279    820.3372    224.2409 300.3676967 +22.7021365     352.2865      72.0498      1.503     4.75     5.790308     20.33261     43.76316         9     0.951     0.824 -49.59   0
       280    166.4131    222.1356 300.1647271 +22.5057752     433.8468     72.03143      1.426     3.99     6.195968     20.33261     60.29494        10     0.998     0.743  27.57   0
       281    843.1046    216.4701 300.3773168 +22.7067128      341.296     72.17821      1.329     5.12     5.820533     20.33261     39.60294         8     1.230     0.601 -31.97   0
       282    771.0693    213.9321 300.3556749 +22.6844327     636.1439      72.1232      1.402     2.81     5.804715     20.33261      81.3661        10     0.879     0.728 -82.15   0
       283    361.8025    213.2015 300.2284127 +22.5617264     515.4675     71.84753      1.654     2.28     6.012048     20.33261     50.78119         6     0.709     0.555 -40.88   0
       284    861.8099    206.9925 300.3862238 +22.7095824     455.3639     71.93954      1.409     4.16     5.831591     20.33261      49.1405         9     0.987     0.639  31.03   0
       285    869.3923    202.8490 300.3899321 +22.7106588      2101.16     72.06815      1.532     2.92     5.825338     20.33261     211.0581        22     1.101     1.086  46.77   0
       286    287.8293    199.7619 300.2097483 +22.5357146     2173.021     72.10486      1.539     2.84     6.240182     20.33261     286.2601        27     1.267     1.091  70.80   0
       287    365.7352    195.1168 300.2354988 +22.5577084     1074.699     72.17821      1.580     3.22     6.098454     20.33261     104.1309        19     1.169     0.986 -43.63   0
       288    767.6421    194.4959 300.3609068 +22.6778186     556.0361     72.08651      1.396     2.94     5.819514     20.33261     73.10428        10     0.960     0.752 -35.56   0
       289    117.6581    195.4508 300.1582159 +22.4835079     371.3741      72.1232      1.360     3.50     6.519013     20.33261     43.85241         6     0.980     0.539 -33.44   0
       290    182.7435    187.1517 300.1811452 +22.5006205      670.147     72.10486      1.504     3.19     6.294442     20.33261     83.48403        13     1.047     0.896 -54.76   0
       291    300.8714    186.8996 300.2179755 +22.5359255     342.1253     72.21486      1.347     3.95     6.276258     20.33261     31.83786         6     0.961     0.464 -38.13   0
       292    785.4370    184.1189 300.3698191 +22.6801582     504.1802     72.03143      1.290     3.07     5.817975     20.33261     77.25198         8     0.923     0.738 -75.51   0
       293    720.3948    184.3146 300.3494765 +22.6607555      1609.84     71.99469      1.413     2.53     5.838949     20.33261     192.0791        20     1.088     0.975  56.85   0
       294    204.2567    180.2850 300.1900619 +22.5050918     645.2021     72.15987      1.822     4.04     6.262422     20.33261     66.70064         9     1.012     0.833 -18.64   0
       295    991.6812    176.6613 300.4365779 +22.7396987     852.3564     72.15987      1.638     4.67     6.172337     20.33261     85.50877        15     1.262     0.954  78.58   0
       296    724.3616    175.9598 300.3534212 +22.6595401     848.7173     72.14154      1.560     2.83     5.838949     20.33261     94.92014        13     0.985     0.815  25.00   0
       297    644.9274    174.9372 300.3289936 +22.6354784     1212.259     72.10486      1.450     3.25     5.848944     20.33261     158.3247        21     1.100     1.060  68.24   0
       298    494.0077    176.5476 300.2814546 +22.5907738     351.8548     72.06815      1.423     3.76     5.848776     20.33261     41.63745         6     0.820     0.496   4.05   0
       299    466.1258    171.5553 300.2743898 +22.5809932      393.855      72.0498      1.827     4.39     5.857858     20.33261     42.91901         7     1.153     0.475   8.02   0
       300    840.3674    166.5641 300.3926399 +22.6915412      1446.68     72.08651      1.476     3.03     5.800747     20.33261     173.0775        19     1.144     0.954 -70.00   0
       301    571.0903    166.6066 300.3086868 +22.6109876     977.2917     71.97631      1.395     2.39     5.850631     20.33261     134.5301        13     1.140     0.802  73.81   0
       302    852.3345    165.5164 300.3967122 +22.6948193      908.081     72.17821      1.571     3.29     5.790427     20.33261      107.994        14     1.169     0.807  61.35   0
       303    899.2175    164.4469 300.4116840 +22.7085338     368.0367     72.10486      1.751     4.30     5.816798     20.33261     26.67655         5     0.904     0.583 -48.17   0
       304   1013.3663    156.4057 300.4499115 +22.7403550     1666.016     72.06815      1.639     3.40     6.528483     20.33261     164.4804        25     1.240     1.184  89.46   0
       305    969.2113    155.8622 300.4363065 +22.7269958     1090.967     72.01306      1.501     3.63     6.194828     20.33261     109.7447        21     1.203     1.088  46.74   0
       306    203.3163    148.4418 300.2000891 +22.4956644     738.9419     72.03143      1.550     3.21     6.304959     20.33261     82.56236        13     1.045     0.860  76.82   0
       307     64.9895    143.1871 300.1587794 +22.4527236     2299.776     71.97631      1.830     3.80     6.748339     20.33261     226.3412        33     1.434     1.295  27.89   0
       308    888.1179    140.7607 300.4158978 +22.6984008     788.1927     72.03143      1.545     3.97     5.847144     20.33261     82.98791        15     1.298     0.800  -0.19   0
       309     14.7259    140.5044 300.1440258 +22.4368957      390.701     72.21486      1.456     2.89     6.932483     20.33261     59.27697         8     0.912     0.636   3.70   0
       310    222.4069    136.5916 300.2098673 +22.4979778     5875.611     71.92115      1.683     3.24      6.27717     20.33261     683.9561        42     1.440     1.269  46.78   0
       311      6.8887    131.0171 300.1446643 +22.4318239     1211.531     71.99469      1.656     3.53     6.963028     20.33261     141.2495        17     1.230     1.014 -27.08  16
       312    206.3213    127.6269 300.2077687 +22.4905857     526.6752     72.06815      1.384     3.93     6.361389     20.33261     77.94117         8     1.150     0.660 -64.48   0
       313   1021.4605    124.5615 300.4627582 +22.7336122     18155.09     66.86927      1.735     3.59      6.49786     20.33261     1668.652        56     1.554     1.302 -89.09  24
       314    866.7135    118.4641 300.4164460 +22.6855857     3598.047     72.15987      1.611     3.28     5.769351     20.33261     388.4995        32     1.341     1.154 -85.46   0
       315    970.3383    117.3517 300.4491386 +22.7162528     2946.354      72.1232      1.712     3.10     6.296748     20.33261     308.2512        29     1.348     1.154  79.09   0
       316    415.7768    113.4055 300.2775570 +22.5492109     648.3992      72.0498      1.484     3.46      6.27187     20.33261     79.33323        14     1.097     0.895 -80.61   0
       317    168.7303    114.5039 300.2003291 +22.4755588     312.9093     72.19653      1.450     3.43     6.508016     20.33261     38.55903         5     1.101     0.309 -21.82   0
       318    530.5548    111.5300 300.3139076 +22.5830249      245.118      72.0498      1.038     3.78     5.990866     20.33261     33.15537         6     1.023     0.402 -18.36   0
       319    875.3160    104.3958 300.4236882 +22.6841114     293.7745     71.99469      1.787     3.68     5.828495     20.33261      42.3708         5     1.003     0.389  74.01   0
       320    341.0075    104.4699 300.2571780 +22.5242608     1015.316      72.0498      2.374     6.98     6.388956     20.33261     81.46717        16     2.026     0.888 -42.78   0
       321    467.4478    100.8312 300.2977199 +22.5610630     1715.232     72.10486      1.513     2.74     6.421823     20.33261     202.9213        24     1.290     1.006 -88.34   0
       322    395.2320    101.1136 300.2751437 +22.5395287     433.7357      72.0498      1.572     5.22     6.369442     20.33261     46.16913         9     1.124     0.780 -67.61   0
       323    106.3900    102.4754 300.1848413 +22.4534335     536.8642      72.0498      1.707     4.35       6.6114     20.33261     62.97898        10     1.236     0.579 -11.49   0
       324    529.0215    100.2976 300.3170695 +22.5793373      428.353     71.99469      1.481     2.64     6.042679     20.33261     55.87769         6     0.855     0.481 -43.17   0
       325    210.9258     95.9790 300.2194550 +22.4828737     474.3414     72.04979      1.916     4.15     6.454402     20.33261     50.34458         9     1.126     0.902 -82.26   0
       326    755.8467     90.3530 300.3909791 +22.6443409     292.6739     72.06815      1.383     4.26     6.066813     20.33261     43.15717         6     0.865     0.728   5.78   0
       327    901.6830     85.9000 300.4379069 +22.6866750     423.5857     72.23317      1.484     4.38     6.119918     20.33261     33.94564         6     0.856     0.639  58.31   0
       328    241.4670     80.4831 300.2339759 +22.4875671     6046.301     72.17821      1.658     2.98     6.416138     20.33261     758.8654        39     1.397     1.225  77.64   0
       329    748.0548     81.6069 300.3913834 +22.6394948     343.2067     72.06815      1.366     3.44     6.119865     20.33261     42.38372         5     0.818     0.418 -21.09   0
       330     93.0268     80.1410 300.1879224 +22.4430169     668.5811     72.06815      1.514     2.65     6.606451     20.33261       89.808         8     0.848     0.653  78.09   0
       331    213.2384     74.5872 300.2271047 +22.4774210     387.3965     72.06815      1.700     3.43     6.449809     20.33261     35.57594         5     0.775     0.438 -20.61   0
       332    257.2993     72.6451 300.2414407 +22.4900556     264.6449     72.08651      1.294     3.37     6.411846     20.33261      44.9654         5     0.867     0.584 -49.30   0
       333    717.2426     72.1252 300.3848493 +22.6275513     273.7428      72.0498      1.527     3.24     6.243887     20.33261     41.35808         5     0.929     0.341 -44.29   0
       334      3.1663     70.8673 300.1629948 +22.4134382     418.8729      65.3484      1.549     3.50     6.798227     20.33261     46.25027         8     0.948     0.695  66.17  16
       335    487.5385     65.9578 300.3152747 +22.5570518      6264.31      72.0498      1.517     2.90     6.510677     20.33261     663.6867        40     1.350     1.175  82.52   0
       336    372.7532     66.1318 300.2794796 +22.5227471     720.1298     72.04979      1.487     3.89     6.435897     20.33261     74.70636        15     1.302     0.773  16.07   0
       337    544.7119     61.2723 300.3346004 +22.5728136     308.4474     72.23317      1.187     2.99     6.236041     20.33261     53.71013         5     0.944     0.380 -15.52   0
       338    740.1608     55.9136 300.3972462 +22.6297439     827.9382     72.04979      1.753     4.14       6.1657     20.33261     88.20903        16     1.352     1.015 -75.72   0
       339    832.9099     55.1592 300.4264130 +22.6572657     379.3708     72.06815      1.373     3.96     6.069198     20.33261     58.25001         9     1.078     0.740  85.50   0
       340    180.5695     50.1900 300.2248466 +22.4606303     515.9842     72.06815      1.639     3.74     6.523299     20.33261     65.60227        12     1.092     0.878   5.13   0
       341    539.0041     48.3372 300.3370127 +22.5673869     368.0933      72.0498      1.250     4.01     6.376027     20.33261     51.65937        10     0.987     0.851 -16.44   0
       342    615.9658     46.1060 300.3617131 +22.5897720     6246.297     72.03143      1.479     3.06      6.48438     20.33261     754.2689        34     1.281     1.132  81.89   0
       343    390.8978     45.0067 300.2919711 +22.5221068     1347.051     71.95793      1.435     2.97     6.514216     20.33261     171.2952        21     1.240     0.971 -83.70   0
       344    657.1174     43.6881 300.3753206 +22.6013876      892.092     72.17821      1.448     2.90     6.470389     20.33261     119.1548        14     0.986     0.900   8.81   0
       345    673.2967     39.3918 300.3817549 +22.6049919     656.5019     71.95793      1.708     3.64     6.475961     20.33261     69.37789        11     1.097     0.777  74.49   0
       346    942.8568     37.4193 300.4664602 +22.6850364     497.7666     72.06815      1.424     4.74     6.475391     20.33261     66.04128        10     1.233     0.770  46.33   0
       347    139.8310     37.5037 300.2162866 +22.4447872     746.8951     72.01306      1.719     3.82     6.558512     20.33261     80.94978        13     1.122     0.874  36.99   0
       348    711.6489     34.9737 300.3951408 +22.6151932     520.6448     72.08651      1.381     3.89     6.294541     20.33261     63.98537         8     0.977     0.567 -72.59   0
       349    660.1826     30.9836 300.3803912 +22.5986509     2830.436      72.0498      1.476     2.98     6.493258     20.33261     306.6529        30     1.324     1.119  86.15   0
       350    300.7044     31.9807 300.2681185 +22.4913660     468.0014     71.97631      1.755     3.55     6.422771     20.33261     55.32107         8     0.933     0.888  12.67   0
       351    675.1676     30.1173 300.3853423 +22.6028843     864.5635      72.0498      1.662     5.48     6.486256     20.33261     86.27058        13     1.337     0.803  52.42   0
       352    746.5654     22.5744 300.4100427 +22.6220700     1578.629     72.08651      1.573     2.87     6.182182     20.33261     195.5278        20     1.242     1.004  72.74   0
       353    906.9724     21.1661 300.4605283 +22.6696310     218.4692     72.08651      1.237     4.04     6.477625     20.33261     31.82818         6     0.930     0.503  34.20   0
       354    684.7983     15.7912 300.3929844 +22.6016448     805.0405     71.88435      1.411     2.84     6.461445     20.33261     101.9256        14     0.982     0.871  79.37   0
       355    167.8449    990.9743 299.9155503 +22.7267858     2219.042     72.08651      7.366    16.95     76.86515     20.33261     58.98866        74     3.961     2.015 -83.70   3
       356    322.8406   1020.1381 299.9542762 +22.7816449       663.83     71.06998      4.944     5.39     4.913783     20.33261     28.43039         7     1.328     0.618  27.96  16
       357    289.3946   1011.8670 299.9465603 +22.7692407     1271.391     72.04979      2.253     5.44     5.975628     20.33261     77.73691        23     1.557     1.158 -18.54   0
       358    192.4963   1001.5239 299.9197851 +22.7372060     1557.629     72.21486      3.822    11.10     85.97424     20.33261     49.20439        31     2.160     1.832 -50.45   1
       359    125.5096   1008.8636 299.8965703 +22.7192106     1048.724     72.15987      3.284    11.57     94.37613     20.33261     58.57851        19     3.187     1.169 -11.22  18
