#   1 NUMBER                 Running object number                                     
#   2 X_IMAGE                Object position along x                                    [pixel]
#   3 Y_IMAGE                Object position along y                                    [pixel]
#   4 ALPHA_J2000            Right ascension of barycenter (J2000)                      [deg]
#   5 DELTA_J2000            Declination of barycenter (J2000)                          [deg]
#   6 FLUX_APER              Flux vector within fixed circular aperture(s)              [count]
#   7 FLUXERR_APER           RMS error vector for aperture flux(es)                     [count]
#   8 FLUX_RADIUS            Fraction-of-light radii                                    [pixel]
#   9 FWHM_IMAGE             FWHM assuming a gaussian core                              [pixel]
#  10 BACKGROUND             Background at centroid position                            [count]
#  11 THRESHOLD              Detection threshold above background                       [count]
#  12 FLUX_MAX               Peak flux above background                                 [count]
#  13 ISOAREA_IMAGE          Isophotal area above Analysis threshold                    [pixel**2]
#  14 A_IMAGE                Profile RMS along major axis                               [pixel]
#  15 B_IMAGE                Profile RMS along minor axis                               [pixel]
#  16 THETA_IMAGE            Position angle (CCW/x)                                     [deg]
#  17 FLAGS                  Extraction flags                                          
         1    477.2383     17.0951 300.3609768 +22.5321060     1324.028     72.42818      1.309     2.32     4.222338      20.4394     186.2053        16     1.014     0.823  63.38   0
         2    582.5066     13.7123 300.3948453 +22.5626563     1366.611     72.61252      1.284     2.24     4.721682      20.4394     189.1383        18     1.046     0.888  89.17   0
         3    177.3545     12.6399 300.2691445 +22.4409904     470.8096     72.52041      1.194     3.10     4.852513      20.4394     99.75629        10     1.093     0.643  47.02   0
         4    226.5681     10.7202 300.2850660 +22.4551855     507.0296     72.44663      1.415     2.88     4.683729      20.4394     66.10857        11     0.940     0.796 -52.20   0
         5    402.9334      7.7007 300.3408991 +22.5071524     2134.802     72.53884      1.312     2.49     4.256753      20.4394     322.5356        22     1.103     0.908  64.44   0
         6     49.8001      5.4685 300.2318312 +22.4007045     1594.129     72.39125      1.515     3.20     5.719462      20.4394      177.601        23     1.336     0.997  49.58  16
         7    893.8300      4.9155 300.4947048 +22.6533120     231.8944     71.57408      1.194     3.34     5.012251      20.4394     40.79991         7     0.926     0.573 -13.70  16
         8    533.9111      2.1021 300.3834787 +22.5447687     393.1065     60.76519      1.210     2.17     4.130986      20.4394     69.71896         7     0.793     0.526 -51.52  24
         9    411.4111   1006.6079 300.0190304 +22.7963709     1083.244     72.33583      1.683     3.99      3.10679      20.4394     94.40002        21     1.247     1.135  67.72   0
        10    192.9786   1022.7130 299.9458669 +22.7354103      2189.11     61.53039      9.804    23.98     13.15663      20.4394     62.32128       118     7.004     2.280  59.99  27
        11    179.6997   1020.8716 299.9423394 +22.7308952      2258.38      69.5276     10.891    22.26     15.73104      20.4394     57.66898        80     4.838     2.845  -6.88  19
        12    120.3216   1010.7549 299.9271819 +22.7101654     1105.594     72.42818      5.447     6.34     27.07598      20.4394     38.20753         8     1.207     0.935 -32.08   3
        13    121.7874   1016.5164 299.9257618 +22.7122561     1621.141     72.40971      4.948     6.91      28.1227      20.4394     45.03421        16     2.598     0.515  29.05  19
        14    102.8321   1020.9855 299.9184178 +22.7078436     2382.428     69.04523     19.483    24.77     33.66744      20.4394        59.44       107     7.471     2.281   8.02  27
        15     85.8081   1022.5776 299.9126109 +22.7031867     1440.205     62.30765      6.214     8.17     41.02314      20.4394     56.81099        18     1.772     1.053 -27.61  27
        16     56.5183   1022.5652 299.9035167 +22.6943858     1279.037     62.35054     13.598    16.49     55.00775      20.4394     50.57549        39     3.275     2.307  12.38  27
        17     68.0631   1003.7123 299.9132397 +22.6924531     1855.208     72.55727     14.254    16.87     40.98749      20.4394     56.55504        66     3.128     2.528  -1.04   0
        18    694.7079   1006.8105 300.1071520 +22.8814342     309.6186     72.39125      1.264     4.65     3.146554      20.4394     37.30098         6     0.907     0.675  13.00   0
        19    342.0342   1004.4835 299.9981424 +22.7749376     6451.084     72.40971      1.650     3.34     3.571403      20.4394     545.8182        38     1.314     1.251   5.33   0
        20     55.3039   1005.2560 299.9087740 +22.6890631     1304.843     72.53884      5.003     6.21     46.48133      20.4394     43.82613        10     1.579     0.687  77.60   2
        21    184.6257   1023.3663 299.9430582 +22.7330892     1595.407     58.11118     11.552    16.64     14.88239      20.4394     63.23806        44     4.132     1.863  -7.11  27
        22     49.1648    992.4742 299.9110277 +22.6835579     969.5243     72.40971      6.026     5.58     41.53942      20.4394     52.04488        15     1.221     1.159 -60.30   1
        23    374.3994    991.1116 300.0125616 +22.7808198     356.9211     72.35431      1.301     3.76     3.398036      20.4394     49.53474         9     0.886     0.778 -12.81   0
        24     37.3347    987.5236 299.9089647 +22.6785867     1989.745     72.53884      6.488    20.69     42.87593      20.4394     50.78669        63     5.385     2.208 -12.25   3
        25    949.1172    985.1835 300.1934818 +22.9515226     8916.426     72.40971      0.813     2.36     3.053832      20.4394      2881.79        15     0.788     0.474 -13.35   0
        26    888.3631    982.9781 300.1752571 +22.9326744     2216.898     72.46508      1.761     3.72     3.073436      20.4394     144.6321        29     1.356     1.184 -30.42   0
        27     31.9350    976.1240 299.9109980 +22.6736996     2072.104     72.53884      5.209    14.36     36.58178      20.4394     46.76339        60     2.831     2.059 -52.03   3
        28     38.3844    972.7675 299.9140935 +22.6746751     1975.054     72.42818      5.991    16.91     33.32462      20.4394     56.97166        58     3.744     2.124  -4.00   3
        29    677.1789    971.9053 300.1130550 +22.8661637     762.2364     72.35431      1.648     4.40     3.261456      20.4394     74.79378        14     1.322     0.821  65.02   0
        30   1004.5421    970.9489 300.2154012 +22.9640519     643.1492     72.50197      1.810     5.99     3.129112      20.4394      40.0471        13     1.209     0.836  17.33   0
        31    712.0812    966.0806 300.1258226 +22.8749616     1041.799     72.59411      1.449     3.44      3.20396      20.4394     106.1824        14     1.056     0.914  89.50   0
        32    489.7062    966.8346 300.0563388 +22.8084648     340.2664     72.40971      1.477     3.08     2.818917      20.4394     64.48198         7     0.978     0.748 -66.12   0
        33    538.6652    980.1736 300.0672349 +22.8269804     343.7825     72.42818      1.248     2.45     2.764597      20.4394      47.8862         6     0.716     0.586  36.90   0
        34    734.1674    959.7961 300.1347487 +22.8797829     11357.85     72.44663      1.559     3.00     3.208265      20.4394     1018.794        48     1.292     1.243 -18.11   0
        35    924.0518    959.5347 300.1940154 +22.9366464      3462.43     72.48353      1.173     3.63     3.193719      20.4394     1605.855        10     1.137     0.334 -23.05   0
        36    779.8665    959.9760 300.1489287 +22.8935399     447.1195     72.42818      1.575     4.30     3.205502      20.4394     42.29129         8     0.986     0.740  -6.41   0
        37     46.0043    951.7139 299.9233121 +22.6709326     264.5778     72.37278      1.304     4.42     19.50668      20.4394     47.57297        11     1.191     0.627 -64.63   0
        38    438.9725    947.7866 300.0467515 +22.7877790     441.9849     72.44663      1.691     4.55     3.003388      20.4394     42.07099         8     0.971     0.674 -59.37   0
        39    786.1324    946.8401 300.1551569 +22.8916498     333.5838     72.40971      1.360     4.48     3.297283      20.4394     55.93698         8     1.246     0.560  38.52   0
        40    742.8889    941.8725 300.1432997 +22.8772562       1346.5     72.61252      1.431     3.04     3.332583      20.4394     135.7749        17     1.053     0.945  -2.67   0
        41    925.7681    940.9965 300.2005847 +22.9318401     440.3096     72.42818      1.656     4.34     3.295281      20.4394     51.54491        12     1.116     0.901 -38.30   0
        42    595.1706    938.9467 300.0982445 +22.8321095     455.5538     72.44663      1.397     3.83     3.005705      20.4394     49.87205         7     0.976     0.571 -33.47   0
        43    780.9190    935.1664 300.1573318 +22.8867368     854.3809     72.40971      1.586     3.89     3.382004      20.4394     87.44663        15     1.149     0.927  88.92   0
        44    889.3854    932.1107 300.1921334 +22.9183823     376.0369     72.39125      1.590     4.62     3.443294      20.4394     43.11422         7     1.260     0.533 -29.52   0
        45    573.3987    928.2078 300.0949611 +22.8224980      219.882     72.26186      1.756     4.58     2.981541      20.4394     22.03844         5     1.352     0.441  58.65   0
        46    829.3956    926.6024 300.1752264 +22.8988152     452.3476     72.26186      1.406     4.05       3.4777      20.4394      45.7351        10     0.962     0.847   1.38   0
        47    680.4422    925.6215 300.1291358 +22.8538651     699.6828     72.48353      1.427     3.48     3.267259      20.4394      60.7928        13     1.016     0.839 -36.27   0
        48    283.8673    925.2712 300.0058362 +22.7347728     228.1423     72.48353      1.177     4.02     3.630139      20.4394      39.6306         6     0.755     0.643  64.99   0
        49    393.2254    922.0677 300.0408893 +22.7666766     4144.251     72.42818      1.491     2.78     3.255311      20.4394     439.0426        30     1.189     1.134 -33.93   0
        50    981.8281    921.8248 300.2243065 +22.9431416     222.9219     72.42818      1.412     4.39     3.382353      20.4394     28.36016         6     1.617     0.339  51.97   0
        51    692.0372    922.7203 300.1336916 +22.8565104     648.4508     72.40971      1.505     2.96     3.300543      20.4394      69.8679        10     0.924     0.722 -59.01   0
        52    171.6168    911.1874 299.9755260 +22.6970391     424.7499     72.37278      1.663     5.11     5.052958      20.4394     40.35089         7     0.967     0.762 -49.38   0
        53    436.6635    909.9454 300.0583480 +22.7762359     418.8995     72.50197      1.477     3.67     3.126178      20.4394     41.58343         7     0.766     0.647  81.00   0
        54     55.3652    910.2438 299.9397144 +22.6618631     440.0733     72.50197      1.646     3.45     5.774161      20.4394     38.41023         5     0.764     0.450  73.78   0
        55     36.4444    909.9420 299.9339357 +22.6560948     398.1044     72.48353      1.693     4.57     5.575222      20.4394     33.78191         7     0.869     0.780  34.36   0
        56    118.3489    907.8999 299.9600434 +22.6801039     835.0466     72.53884      1.866     4.16      5.82281      20.4394     75.49295        18     1.256     1.055 -59.24   0
        57     27.3040    906.1106 299.9323436 +22.6522522      612.024     72.63093      1.901     3.86     5.364771      20.4394     48.79412         6     0.758     0.565  62.77   2
        58     95.6158    905.1329 299.9538809 +22.6724852     1527.224     72.44663      1.609     3.25     6.004642      20.4394     168.2927        22     1.236     1.042  -5.03   0
        59    967.3438    893.7299 300.2289325 +22.9307346     2112.472     72.46508      1.592     3.18      3.51055      20.4394     190.7467        20     1.115     1.030  -5.74   0
        60    626.4432    893.2593 300.1228501 +22.8283849     449.1543     72.42818      1.954     6.14     3.138366      20.4394     34.87788        10     1.576     0.673 -66.91   0
        61    921.4393    892.1660 300.2151268 +22.9165260     2141.028     72.48353      1.536     3.08     3.556837      20.4394     190.8098        24     1.208     1.048 -36.61   0
        62    705.1833    886.1959 300.1496724 +22.8499738      533.081     72.37278      1.400     3.68     3.339102      20.4394     61.63013        11     0.976     0.865 -61.04   0
        63    128.1058    886.5763 299.9700130 +22.6769229     499.9492     72.35431      1.471     2.59     5.051224      20.4394     66.57594         7     0.851     0.534  83.67   0
        64    573.1764    880.2434 300.1105001 +22.8086735     4798.339     72.50197      1.408     2.73     3.166151      20.4394     515.1583        26     1.108     1.053 -17.97   0
        65     62.7039    881.1484 299.9514605 +22.6557305      395.781     72.52041      1.798     5.98     4.853346      20.4394      37.5307         8     1.142     0.881 -24.42   0
        66    375.3809    877.3814 300.0498790 +22.7485092     580.3091     72.44663      1.457     3.30     3.455321      20.4394     70.41199        13     0.982     0.885  60.42   0
        67    123.1619    874.1260 299.9725276 +22.6718708     1354.517     72.39125      1.574     3.40     4.683331      20.4394     139.7583        21     1.185     1.095 -28.71   0
        68    593.9614    872.6147 300.1194535 +22.8127198    -4555.234     72.46508      1.419     3.29     3.177275      20.4394     90.75315        14     0.997     0.934 -54.00   0
        69    391.6505    872.2213 300.0566189 +22.7519118     262.5511     72.44663      1.112     2.19     3.418109      20.4394      45.3433         5     0.713     0.437 -70.21   0
        70    142.9798    871.2424 299.9796236 +22.6769942     323.1677     72.48353      1.154     4.36     4.537153      20.4394     48.46914         8     0.988     0.588  61.70   0
        71    510.6141    863.4843 300.0964782 +22.7850990     239.3927     72.40971      1.560     4.07     3.260653      20.4394      32.4855         5     0.954     0.497  -3.34   0
        72    965.9471    859.9534 300.2394877 +22.9206189     1106.534     72.48353      1.501     3.40     3.644189      20.4394     106.6191        19     1.158     1.037  39.14   0
        73    749.2574    859.8557 300.1719737 +22.8556318     4220.908     72.52041      1.420     2.55     3.505559      20.4394     454.4605        32     1.260     1.058  -3.24   0
        74   1004.1775    860.1119 300.2513598 +22.9321220     312.3918     72.37278      1.139     3.28     3.597995      20.4394     57.35891         7     0.770     0.736  67.68   0
        75    157.5072    854.2332 299.9896715 +22.6764806     489.5849     72.39125      1.500     4.66     4.361546      20.4394     45.65828        12     1.108     0.877  72.08   0
        76    466.1796    852.4688 300.0862335 +22.7686092      745.235     72.42818      1.537     3.55     3.352621      20.4394     67.31727        13     1.146     0.775   7.52   0
        77    112.5388    850.5009 299.9769127 +22.6619111     1110.341     72.52041      1.701     3.88     4.378777      20.4394     101.2091        22     1.247     1.172  54.87   0
        78    262.2488    842.5875 300.0260169 +22.7045821     52592.84     72.48353      1.502     2.70     4.023791      20.4394      5710.44       106     1.446     1.390  48.88   0
        79    528.0251    845.7225 300.1076761 +22.7852274     513.7704     72.46508      1.380     3.43     3.317131      20.4394      48.6626         9     0.932     0.661  51.73   0
        80    520.0203    841.6496 300.1065096 +22.7816579     1695.626     72.44663      1.411     2.75     3.332908      20.4394     185.7172        22     1.109     1.034 -36.24   0
        81    932.8990    840.7175 300.2354405 +22.9051911     829.0057     72.61252      1.411     3.30     3.698411      20.4394     86.67683        10     0.881     0.771  52.65   0
        82    190.6100    840.7875 300.0043332 +22.6825638     395.9912     72.33583      1.194     2.67     4.247339      20.4394     71.63878         8     0.868     0.617  27.58   0
        83    548.9054    837.4424 300.1168695 +22.7891155     885.2941     72.44663      1.380     3.61      3.33656      20.4394     107.1447        13     1.055     0.803  16.41   0
        84    559.8909    835.7526 300.1208390 +22.7919259     637.2542     72.44663      1.539     4.08     3.317477      20.4394     61.05577        12     0.997     0.956  55.89   0
        85    880.3842    832.6542 300.2216905 +22.8871358     366.6291     72.40971      1.233     3.36     3.794638      20.4394     39.12049         6     0.839     0.509  46.80   0
        86    665.3220    831.9081 300.1549192 +22.8224430     440.9789     72.59411      1.262     2.85     3.328171      20.4394     66.00533         9     0.950     0.678  42.35   0
        87    311.9483    819.8391 300.0488703 +22.7129752     30778.66     72.42818      1.447     2.65     3.955787      20.4394     3561.954        72     1.296     1.288 -39.20   0
        88    703.0012    822.3894 300.1697522 +22.8310103     851.5402     72.26186      1.468     2.82     3.560943      20.4394     99.54172        14     1.039     0.835  -5.74   0
        89    326.1762    820.4601 300.0530929 +22.7174228     2000.745     72.42818      1.441     2.56     3.932519      20.4394     221.3937        25     1.246     1.033 -26.25   0
        90    835.0985    815.5716 300.2131314 +22.8686573     2689.401     72.39125      1.408     2.56     3.870674      20.4394     309.6442        26     1.099     1.074 -80.88   0
        91    323.0375    814.3902 300.0540912 +22.7147405     773.0533     72.46508      1.762     3.19     3.970289      20.4394     76.61197        10     1.048     0.634  43.35   1
        92    593.1050    811.8398 300.1389586 +22.7950274     1057.667     72.44663      1.393     3.20     3.286543      20.4394     129.9653        15     1.085     0.837  59.00   0
        93    429.2117    811.5853 300.0880303 +22.7457929     437.6012     72.37278      1.320     3.00     3.796017      20.4394     58.05513        10     0.944     0.691  81.33   0
        94    194.4148    811.7006 300.0149772 +22.6753682     749.1895     72.35431      1.459     3.33     4.215832      20.4394     82.92767        14     1.054     0.881  21.48   0
        95    440.0799    806.5269 300.0930572 +22.7476026     910.9391     72.55727      1.353     2.74     3.758921      20.4394      108.774        12     0.882     0.830  39.39   0
        96    841.2447    803.2841 300.2190442 +22.8669724     406.9183     72.40971      1.417     3.44     3.921474      20.4394     51.84461         9     0.903     0.688 -73.28   0
        97    342.0202    802.7545 300.0637795 +22.7171001     407.1677     72.50197      1.461     2.13     4.027068      20.4394     56.23194         7     0.676     0.652 -86.34   0
        98     27.7002    801.3441 299.9665476 +22.6223530     536.1152     72.53884      1.710     5.23     4.188131      20.4394      50.1731        11     1.288     0.817  -5.59   0
        99    386.1078    801.2963 300.0779671 +22.7299101     244.6704     72.63093      1.083     2.20     4.008387      20.4394     57.32507         6     0.721     0.567 -78.98   0
       100    818.9224    798.0937 300.2137751 +22.8587911      420.928     72.57569      1.303     1.94     3.945743      20.4394     66.52972         6     0.691     0.546 -53.20   0
       101    192.3065    796.1209 300.0193892 +22.6702693     643.3814     72.55727      1.685     4.21     4.202708      20.4394     51.84586        11     0.978     0.917 -63.15   0
       102    515.3064    786.1669 300.1230900 +22.7643282     398.1613     72.39125      1.296     3.29     3.645405      20.4394      58.2945        11     0.890     0.846  74.73   0
       103    522.8407    785.1569 300.1257636 +22.7662983     233.0699     72.53884      1.046     2.67     3.653312      20.4394     49.05843         5     0.719     0.673  37.68   0
       104    484.9729    784.6614 300.1141389 +22.7547978     533.3671     72.44663      1.274     2.77      3.66856      20.4394     76.20731        12     0.918     0.819  70.81   0
       105    506.9058    781.9246 300.1218552 +22.7605915     1334.274     72.59411      1.342     2.50     3.693193      20.4394     190.4174        18     1.143     0.838  39.92   0
       106    394.0772    783.5438 300.0862202 +22.7272097     217.9858     72.48353      0.924     2.55     4.044851      20.4394      48.9006         6     0.753     0.494   6.73   0
       107    901.4230    780.8658 300.2450963 +22.8785734     4553.932     72.42818      1.428     2.51     3.852608      20.4394     551.3483        29     1.132     1.063  21.75   0
       108    588.1905    777.1655 300.1487067 +22.7836049     247.6034     72.42818      1.235     3.78     3.593841      20.4394     32.57161         6     0.750     0.578  41.34   0
       109    889.9955    772.1313 300.2443745 +22.8726407    -1049.396     72.40971     -6.707     2.70     3.887521      20.4394     193.0593        20     1.051     0.956 -50.01   0
       110    252.8194    766.4000 300.0478657 +22.6799092     827.4499     72.35431      1.387     3.07     4.014214      20.4394     107.9819        11     0.869     0.832 -20.38   0
       111    921.0559    762.4003 300.2572237 +22.8791551     1713.512     72.35431      1.446     2.53     3.859779      20.4394     193.7479        24     1.206     1.024  43.72   0
       112    716.3744    763.5741 300.1930490 +22.8181404     2615.944     72.40971      1.450     2.59     3.938124      20.4394      316.442        30     1.376     1.039   4.76   0
       113    935.0439    752.8994 300.2646755 +22.8806187     291.6292     72.44663      1.381     4.72     3.850612      20.4394     38.08706         8     0.998     0.665 -21.43   0
       114    101.7145    750.1221 300.0061967 +22.6298921     612.5428     72.55727      1.660     3.84     4.246223      20.4394     71.35154        13     1.103     0.854 -51.24   0
       115    798.5434    749.3740 300.2232699 +22.8386966      484.321     72.44663      1.436     3.52     4.166985      20.4394     57.99187         9     0.972     0.662  54.62   0
       116    380.9823    749.2070 300.0933134 +22.7134331     239.1404     72.40971      1.244     3.88      4.11887      20.4394     31.94617         6     0.911     0.475  38.68   0
       117    834.6739    740.4819 300.2374224 +22.8469732     146419.9     72.55727      1.332     2.31     4.068087      20.4394     18074.88       168     1.423     1.360  78.68   0
       118    597.2559    744.1326 300.1622723 +22.7768449      297.631     72.48353      1.074     2.23     3.943702      20.4394     61.86752         7     0.730     0.622  60.03   0
       119    981.7274    742.1192 300.2827401 +22.8915114     1245.477     72.57569      1.465     2.86     3.662235      20.4394      140.686        18     1.025     0.996  12.32   0
       120    687.1573    740.7595 300.1913672 +22.8028328     669.3098     72.53884      1.231     2.51      4.09759      20.4394     115.7886        11     0.842     0.818   3.13   0
       121    867.4938    733.5636 300.2499027 +22.8548232     455.1919     72.42818      1.225     3.42     3.957308      20.4394     59.52343         9     0.893     0.831  53.48   0
       122    702.1768    726.6839 300.2006230 +22.8032956      9132.42     72.40971      1.279     2.15     4.080092      20.4394     1357.636        40     1.164     1.069  60.75   0
       123    520.7375    729.4434 300.1432275 +22.7496834     1560.222     72.44663      1.214     2.36     4.187124      20.4394     222.1547        14     0.915     0.808 -37.91   0
       124    203.6544    721.9610 300.0470323 +22.6524137     4746.717     72.44663      1.384     2.47      4.00034      20.4394     651.6302        31     1.131     1.097  41.80   0
       125    285.6954    719.9931 300.0731777 +22.6764668     1111.652     72.33583      1.325     2.45     3.834137      20.4394     154.0577        14     0.974     0.815  29.57   0
       126    160.9994    717.8351 300.0351165 +22.6384300     540.7153     72.40971      1.456     4.53     4.064579      20.4394     56.90235         8     0.825     0.707 -36.39   0
       127    493.8533    715.4799 300.1394003 +22.7376143     725.7753     72.48353      1.280     2.50       4.2037      20.4394      100.217        12     0.932     0.795  -4.21   0
       128    485.6135    707.5505 300.1394140 +22.7328681     3192.707     72.48353      1.215     2.12     4.208341      20.4394     440.9293        24     0.998     0.979  57.18   0
       129    475.9460    701.3195 300.1384313 +22.7281810     1387.185     72.48353      1.255     2.05     4.215512      20.4394     227.9933        16     0.924     0.864  80.66   0
       130    869.3676    698.9904 300.2617291 +22.8454573     522.4376     72.44663      1.299     2.64     4.142783      20.4394      68.5524         8     0.891     0.607  82.22   0
       131    138.8843    697.5937 300.0348249 +22.6259899     634.4622     72.37278      1.516     3.37     4.061426      20.4394      61.5584        11     0.914     0.837 -45.80   0
       132    153.5346    695.9440 300.0399138 +22.6299135     636.1432     72.50197      1.375     2.78     3.986849      20.4394     76.93272        10     0.957     0.644  27.01   0
       133    210.6096    693.1970 300.0585460 +22.6462531     318.7932     72.26186      1.107     1.97     3.841497      20.4394      48.5009         5     0.674     0.459 -70.55   0
       134    178.9359    693.0052 300.0487635 +22.6366937     589.2357     72.42818      1.263     3.43     3.904645      20.4394     77.77066         8     0.841     0.642  32.18   0
       135    922.6469    692.3829 300.2804889 +22.8595251      432.328     72.48353      1.274     2.54     3.947677      20.4394     62.09853         8     0.849     0.646   3.10   0
       136    499.6659    691.5509 300.1489895 +22.7324918     468.3766     72.42818      1.311     3.48     4.201176      20.4394     59.43409         8     0.928     0.657  45.86   0
       137    400.6998    691.0215 300.1183662 +22.7026579     1720.387     72.39125      1.264     2.17     4.256453      20.4394     257.8299        17     0.964     0.870  36.88   0
       138     54.6263    686.1667 300.0123618 +22.5974256     19729.51     72.46508      1.538     2.68     4.253406      20.4394     2308.298        65     1.359     1.313  25.95   0
       139    976.2913    688.1546 300.2985928 +22.8743834     862.7892     72.42818      1.436     2.63     3.765662      20.4394     105.5578        12     1.003     0.679  10.30   0
       140    485.5758    686.3575 300.1462927 +22.7267762     1094.052     72.50197      1.412     2.11     4.208568      20.4394     132.6218        13     0.863     0.786 -44.97   0
       141    520.9899    685.2173 300.1576858 +22.7370692     318.2725     72.40971      1.201     2.34     4.190758      20.4394     58.03946         8     0.797     0.624  47.18   0
       142    856.9522    682.1906 300.2633211 +22.8369126     273.5572     72.46508      1.435     4.36      4.25068      20.4394     34.51842         6     0.912     0.592  88.92   0
       143    402.4160    683.1495 300.1214594 +22.7009144     183.8611     72.46508      1.000     3.41     4.271196      20.4394     29.72129         5     0.751     0.448  70.04   0
       144    903.4473    672.5678 300.2809448 +22.8480814     1013.423     72.48353      1.288     2.62     4.077662      20.4394     129.3952        15     1.037     0.829  24.39   0
       145      1.4363    670.2144 300.0010269 +22.5768873       1000.2     56.97278      1.478     4.70     4.271208      20.4394     114.5824        17     1.755     0.594 -88.06  24
       146    770.3450    670.3388 300.2401816 +22.8075541     490.6604     72.52041      1.335     3.62     4.122926      20.4394     70.58385        11     1.084     0.724  51.15   0
       147     66.7598    670.7087 300.0211559 +22.5966361     309.9601     72.44663      1.280     3.14     4.250537      20.4394     48.78762         9     0.875     0.734  10.63   0
       148    448.9507    666.7625 300.1412654 +22.7101700     386.6946     72.46508      1.153     1.88     4.257681      20.4394     87.20434         7     0.665     0.633 -84.51   0
       149    241.7880    666.3354 300.0769705 +22.6479052      398.962     72.39125      1.422     3.16     3.771405      20.4394     41.61751         5     0.760     0.427 -18.74   0
       150    843.8195    665.1453 300.2647690 +22.8280824     741.2535     72.42818      1.222     2.35     4.270151      20.4394     92.78037         8     0.757     0.657  41.21   0
       151    308.0716    664.9727 300.0980233 +22.6674001     203.5079     72.42818      1.214     3.35     3.940094      20.4394     36.65296         5     0.618     0.613  68.98   0
       152    588.0328    663.2749 300.1856906 +22.7508750     298.2989     72.44663      1.356     4.81     4.120198      20.4394     45.18721         7     1.239     0.530  66.89   0
       153    405.8061    659.2401 300.1302866 +22.6950720     727.0488     72.48353      1.247     2.63     4.269072      20.4394     96.46468        10     0.899     0.683  16.93   0
       154    553.7869    657.9285 300.1767666 +22.7390727     617.3732     72.46508      1.636     3.59     4.231592      20.4394     67.69432        10     0.968     0.855  10.61   0
       155    601.1142    656.1948 300.1920654 +22.7527649     569.9411     72.37278      1.578     2.58     4.139236      20.4394     78.42957         9     0.904     0.631  30.33   0
       156    571.1316    655.8403 300.1828453 +22.7436739     586.9252     72.40971      1.282     3.49     4.204842      20.4394     78.77677         9     0.997     0.628  42.02   0
       157    449.7222    654.9850 300.1453340 +22.7070223     922.1084     72.46508      1.305     2.75     4.249961      20.4394     126.5284        12     0.896     0.839 -12.27   0
       158    636.4115    654.2280 300.2036964 +22.7627824     232.0464     72.44663      1.013     2.53     4.109477      20.4394     40.61016         5     0.696     0.470  73.65   0
       159    883.6351    650.4285 300.2819654 +22.8357868     3288.606     72.46508      1.247     2.21     4.182391      20.4394     446.8341        25     1.087     0.958 -29.44   0
       160    415.4763    650.5516 300.1361195 +22.6954797     1587.464     72.44663      1.227     2.19     4.272696      20.4394     221.7002        17     0.943     0.912  30.21   0
       161    981.6368    648.5563 300.3131339 +22.8646104     664.1578     72.52041      1.331     3.12     3.764999      20.4394     93.10259        13     1.044     0.854  63.66   0
       162    780.3472    647.5193 300.2507169 +22.8039998     250.7657     72.46508      0.901     3.14     4.155597      20.4394     54.35936         5     0.724     0.444 -23.62   0
       163    766.3062    646.9257 300.2465345 +22.7996213     166.6235     72.59411      1.413     4.16     4.169616      20.4394     31.10959         5     1.045     0.472  25.41   0
       164    923.1074    640.1660 300.2976086 +22.8446658     331.4903     72.39125      1.224     3.02     3.917812      20.4394     59.11808         8     0.760     0.703 -69.47   0
       165    278.7852    637.3655 300.0978901 +22.6506960     9192.918     72.44663      1.305     2.28     3.863432      20.4394     1225.771        40     1.183     1.077  54.79   0
       166    401.2582    634.3571 300.1369600 +22.6865691     8913.518     72.42818      1.247     2.16     4.213456      20.4394     1222.176        38     1.123     1.040  66.10   0
       167   1005.8825    629.5729 300.3268676 +22.8664200     1013.227     72.44663      1.499     3.38     3.713667      20.4394     117.7283        19     1.249     0.984  41.01   0
       168    166.2890    631.3721 300.0648672 +22.6152259     267.2636     72.42818      1.126     3.48     3.871295      20.4394     32.69045         5     0.766     0.456  15.04   0
       169    647.8365    630.4539 300.2149826 +22.7593830     286.7241     72.46508      1.106     2.13     4.223512      20.4394     55.29787         5     0.687     0.461 -21.68   0
       170     45.3176    629.9892 300.0277303 +22.5785274      141.726     72.40971      1.247     3.92      4.24234      20.4394      39.2062         5     1.023     0.430  23.75   0
       171    812.8612    628.1373 300.2671501 +22.8081780     1803.838     72.48353      1.290     2.29     4.112721      20.4394      278.834        21     1.082     0.887  59.73   0
       172    897.5088    625.5189 300.2943882 +22.8327893     12314.83     72.57569      1.267     2.17     4.075215      20.4394     1554.105        49     1.174     1.146  66.55   0
       173    461.8373    623.9018 300.1592074 +22.7017365     11241.01     72.44663      1.280     2.07     4.233217      20.4394     1853.014        44     1.149     1.076  82.96   0
       174    631.1813    619.9489 300.2132101 +22.7513748       510.35     72.42818      1.242     2.99     4.330459      20.4394      78.8607        11     1.004     0.701  70.55   0
       175    189.2678    619.4369 300.0758881 +22.6186979     1359.989     72.42818      1.363     2.75     3.922428      20.4394     154.0862        17     1.000     0.965 -67.51   0
       176    347.2947    618.5694 300.1253048 +22.6658547     263.2692     72.35431      1.249     4.27     4.044267      20.4394     43.39069         7     0.940     0.552 -55.27   0
       177    436.3701    617.3041 300.1534271 +22.6922063     357.3553     72.39125      1.294     3.30     4.227207      20.4394     71.40189        10     1.049     0.718  35.66   0
       178    823.2712    616.4827 300.2741829 +22.8079505     177.0993     72.57569      1.140     3.43     4.122158      20.4394     32.72323         5     0.745     0.457  20.11   0
       179    393.5118    612.1540 300.1417665 +22.6778756     4430.339     72.42818      1.236     2.12     4.153603      20.4394     622.7604        27     1.072     0.930  42.84   0
       180    736.4413    612.0515 300.2485649 +22.7806574      819.297     72.44663      1.266     2.29     4.459546      20.4394     130.7672        15     1.019     0.816  28.32   0
       181    125.9325    610.2587 300.0591878 +22.5970623     765.2385     72.48353      1.363     3.74     4.013614      20.4394     116.5615        12     1.132     0.707 -53.39   0
       182    371.7944    610.4547 300.1355629 +22.6708748     1369.863     72.44663      1.308     2.60     4.089297      20.4394     156.2334        17     0.985     0.905  -4.43   0
       183    510.1070    599.6424 300.1821146 +22.7092484     196653.4     72.46508      1.254     2.05      4.34551      20.4394     31110.96       203     1.403     1.394 -68.57   0
       184    813.3012    607.4993 300.2739953 +22.8023831     1582.402     72.68613      1.314     2.52     4.056749      20.4394     216.6583        18     1.088     0.841 -17.61   0
       185     59.4811    607.6819 300.0393796 +22.5763826     342.9087     72.59411      1.647     3.27     4.202923      20.4394     37.54288         5     0.767     0.700  33.71   0
       186    913.6293    606.1891 300.3056974 +22.8320668     40.10629     72.44663      1.005     3.41     3.945024      20.4394     34.49547         5     0.746     0.451 -73.06   0
       187    334.0903    605.9720 300.1252921 +22.6582802     317.8292     72.42818      1.393     2.73      3.99063      20.4394     59.30885         6     0.937     0.499 -11.29   0
       188    693.9171    604.4158 300.2377987 +22.7657202     807.6466     72.40971      1.156     2.35     4.291875      20.4394      127.928        11     0.852     0.740 -81.70   0
       189    196.2148    599.7489 300.0844457 +22.6151358     3455.982     72.44663      1.325     2.37     3.966548      20.4394     445.6186        26     1.168     1.002  55.59   0
       190    898.0652    601.1572 300.3024800 +22.8259586     318.1691     72.42818      1.324     3.59     4.059607      20.4394      41.7343         8     0.831     0.672 -47.82   0
       191    763.4964    600.2747 300.2608224 +22.7853838     234.4216     72.59411      1.270     4.86      4.24975      20.4394     37.41302         5     1.083     0.617 -28.02   0
       192    761.8376    595.8629 300.2617394 +22.7836199     557.6498     72.46508      1.205     2.47     4.238617      20.4394     92.67912         9     0.883     0.629 -38.54   0
       193    541.3781    586.2549 300.1961995 +22.7147816     200.9437     72.46508      1.243     3.70     4.391021      20.4394     49.05758         7     1.042     0.490  58.61   0
       194    400.6493    580.3836 300.1543118 +22.6709003     2731.881     72.48353      1.402     2.51     4.182983      20.4394     428.6861        26     1.498     0.885  88.78   0
       195    244.9811    582.2269 300.1052994 +22.6247398      502.179     72.46508      1.339     3.38     4.002903      20.4394     62.71585         9     1.012     0.700  62.35   0
       196    850.3937    579.4385 300.2946768 +22.8054380     283.8596     72.48353      1.177     4.07     4.211907      20.4394     35.09632         5     0.965     0.491   5.12   0
       197    811.9006    576.1777 300.2837384 +22.7929682     354.4727     72.39125      1.315     3.18     4.023337      20.4394     47.27438         8     0.788     0.707  27.43   0
       198    505.0411    575.7056 300.1883168 +22.7008597     232.6449     72.46508      1.179     3.04     4.324893      20.4394     46.92671         6     0.806     0.644 -26.91   0
       199    718.0445    568.6232 300.2569471 +22.7626741     437.9287     72.48353      1.364     3.38     4.167901      20.4394     59.88499         8     1.010     0.643  54.03   0
       200    797.7374    566.0227 300.2826243 +22.7858079     1701.518     72.42818      1.223     1.98     3.970765      20.4394     306.9133        19     0.982     0.910  -6.97   0
       201    668.9615    563.7839 300.2432299 +22.7465746      2645.73     72.46508      1.253     1.96     4.043137      20.4394     453.8643        23     1.054     0.929  20.30   0
       202    307.3832    563.9017 300.1306574 +22.6382005     237.5609     72.35431      1.259     3.90     3.935108      20.4394     32.63867         6     1.035     0.421  75.09   0
       203    913.0911    561.0485 300.3202000 +22.8189385     527.5915     72.46508      1.265     1.92     3.934283      20.4394     87.31483         5     0.635     0.492  -1.57   2
       204    911.9069    556.6515 300.3212596 +22.8173207     755.6086     72.52041      1.420     2.71     3.939716      20.4394     93.60768        10     0.907     0.694  73.29   2
       205    573.6671    560.4624 300.2146333 +22.7170578     459.7866     72.50197      1.142     2.55     4.280298      20.4394     75.73969         6     0.816     0.468  85.25   0
       206    456.1762    559.7337 300.1782991 +22.6816248     784.0178     72.42818      1.195     2.07     4.295447      20.4394     128.7943         9     0.792     0.653  75.39   0
       207    926.3019    557.6285 300.3254307 +22.8219134     1288.916     72.39125      1.177     2.13     3.841518      20.4394     203.8298        16     0.901     0.879  39.83   0
       208    797.9121    556.1027 300.2859024 +22.7830112     2341.012     72.63093      1.437     2.68     3.958307      20.4394     307.8315        26     1.562     0.867  72.08   0
       209    551.2128    554.2261 300.2096690 +22.7085365     793.4561     72.44663      1.705     2.34     4.270179      20.4394     94.42675        10     0.863     0.702  67.95   0
       210    389.9883    553.2717 300.1598049 +22.6599237     404.6876     72.46508      1.367     3.91     4.171895      20.4394     44.50474         7     0.734     0.681  86.23   0
       211    836.1188    551.1512 300.2994195 +22.7930363     4221.027     72.48353      1.230     2.07     4.120783      20.4394     701.7451        26     1.032     0.931  67.53   0
       212    337.0767    554.2241 300.1430367 +22.6443294     403.7437     72.46508      1.167     2.10     4.032763      20.4394     58.11201         7     0.683     0.649 -18.61   0
       213    573.7581    547.7059 300.2188067 +22.7134231     248.7635     72.46508      1.086     2.56      4.22976      20.4394     45.65252         6     0.692     0.636 -64.57   0
       214    496.4649    547.0972 300.1949435 +22.6900774     424.4185     72.55727      1.178     1.53     4.334495      20.4394     69.69844         5     0.622     0.453  60.60   0
       215     68.2993    541.8530 300.0635088 +22.5601535     976.5831     72.53884      1.319     3.54     4.080997      20.4394     130.2382        14     1.155     0.783  40.44   0
       216    927.8837    541.6135 300.3311280 +22.8177863     794.6698     72.40971      1.192     2.46     3.829987      20.4394     139.1108        10     0.934     0.628  59.50   0
       217    698.3105    539.1393 300.2603800 +22.7482940     236.2872     72.53884      1.401     3.72      3.97722      20.4394     42.03117         5     0.932     0.688   9.74   0
       218    729.3582    535.4012 300.2712671 +22.7565244     314.3272     72.44663      1.082     3.37      4.01999      20.4394     61.62248         6     0.955     0.391  71.46   0
       219    334.4861    534.8840 300.1485148 +22.6380035     212.3116     72.55727      1.236     3.40     4.025517      20.4394     48.39703         5     0.871     0.519  40.66   0
       220     60.5005    531.9026 300.0643188 +22.5549601     371.4503     72.64933      1.316     4.24      4.05495      20.4394     61.09817         7     1.035     0.637 -42.67   0
       221    668.5151    525.8533 300.2554155 +22.7355498     536.3242     72.50197      1.262     2.82     3.944871      20.4394     82.44286        10     0.908     0.766  43.13   0
       222    557.0706    523.5392 300.2214633 +22.7014833     207.7937     72.48353      1.248     3.32     4.230101      20.4394     42.20123         6     0.779     0.497   3.73   0
       223    609.4330    521.6944 300.2383663 +22.7166486     707.4251     72.42818      1.233     2.25     4.190413      20.4394       113.88        13     0.888     0.813 -45.55   0
       224   1017.2243    519.3165 300.3662374 +22.8381373      1065.94     72.40971      1.358     2.50     3.413732      20.4394     132.9601        13     0.908     0.834 -52.66   0
       225    924.0151    514.0120 300.3388899 +22.8086975     474.5787     72.37278      1.086     2.41      3.90919      20.4394     93.53529         9     0.865     0.643  66.08   0
       226    670.3914    513.9272 300.2598747 +22.7326875     882.4961     72.42818      1.027     1.86     3.934392      20.4394     161.2985        12     0.875     0.738  -5.78   0
       227    827.5662    510.0747 300.3101002 +22.7786751     1006.469     72.44663      1.171     2.32     4.014824      20.4394     151.5013        11     0.848     0.702 -21.59   0
       228    811.8244    506.3957 300.3063890 +22.7729023      585.972     72.40971      1.197     2.18     3.954226      20.4394     87.98047         9     0.794     0.669  68.59   0
       229    792.2736    506.6231 300.3002219 +22.7671104     247.3967     72.50197      0.962     2.11     3.924582      20.4394     56.40165         5     0.692     0.448 -20.53   0
       230    556.0903    504.5774 300.2273184 +22.6957459     3127.072     72.37278      1.197     1.96     4.230864      20.4394     477.9923        21     0.986     0.910  26.36   0
       231    916.7018    503.2112 300.3401186 +22.8034038     532.6765     72.33583      1.274     2.28      3.95257      20.4394     81.91029         8     0.827     0.606  78.82   0
       232     32.3918    496.1094 300.0672147 +22.5362620     399.5694     72.35431      1.500     4.27     3.941699      20.4394     45.36608         8     0.872     0.700  34.99   0
       233    328.2051    491.9950 300.1604944 +22.6238133     315.4009     72.29886      1.365     3.91     3.985561      20.4394     39.67358         5     0.854     0.513 -40.01   0
       234    396.0132    491.3843 300.1817853 +22.6439702     275.2561     72.39125      1.242     3.54     4.190788      20.4394     59.77309         7     0.957     0.648   3.40   0
       235    967.4991    483.3500 300.3624122 +22.8129106     1420.831     72.53884      1.319     2.44     3.546739      20.4394     167.6996        18     1.052     0.908  49.63   0
       236    925.7259    482.1639 300.3497701 +22.8000592     917.0859     72.39125      1.219     2.40     3.966255      20.4394     133.7644        13     0.965     0.816   9.72   0
       237    839.2971    483.2127 300.3224834 +22.7744727     556.1843     72.33583      1.211     2.95     3.993888      20.4394     77.09953        10     0.962     0.701   7.85   0
       238    462.4632    479.3116 300.2063832 +22.6604272     418.9622     72.55727      1.303     2.88     4.332274      20.4394     58.14962         9     0.850     0.729 -66.21   0
       239    666.6008    478.4642 300.2702146 +22.7213679     1095.054     72.44663      1.202     2.18     3.930282      20.4394     157.7744        14     0.851     0.841  65.60   0
       240    170.8992    476.9354 300.1164781 +22.5723148     683.7608     72.53884      1.354     2.35      3.81285      20.4394     99.32213         9     0.776     0.716  29.14   0
       241     10.3733    474.8998 300.0672648 +22.5235734     319.7223     72.39125      1.415     3.44     3.883929      20.4394     40.58158         5     0.787     0.436 -71.35   0
       242    233.0410    472.5204 300.1372286 +22.5896866     3587.126     72.42818      1.289     2.29     4.063254      20.4394      511.866        24     1.065     0.942  64.19   0
       243    966.1531    470.7287 300.3660924 +22.8088806     4325.926     72.42818      1.280     2.16     3.526144      20.4394     679.0802        29     1.077     1.013 -47.36   0
       244    180.2825    467.2862 300.1225286 +22.5723613     7515.813     72.57569      1.312     2.39     3.846084      20.4394     855.6702        35     1.176     1.062  49.43   0
       245    684.7861    467.2224 300.2795308 +22.7235887     165.4098     72.42818      1.137     2.89     3.903372      20.4394     43.35915         6     0.856     0.618  71.12   0
       246    946.1270    461.7532 300.3627624 +22.8003042     1836.808     72.44663      1.264     2.04      3.71868      20.4394     308.6113        21     1.060     0.932  55.12   0
       247    321.0138    461.4682 300.1681734 +22.6128969     4759.853     72.46508      1.279     2.25      4.04706      20.4394     645.4829        27     1.048     0.980  50.58   0
       248    565.2468    458.0814 300.2452727 +22.6851411     18089.73     72.44663      1.219     1.99     4.227225      20.4394     3006.621        56     1.185     1.085  61.70   0
       249    412.5883    459.8862 300.1971734 +22.6398994       346.35     72.39125      1.217     3.70     4.243309      20.4394     47.77161         6     0.808     0.486 -83.09   0
       250    581.9219    458.6961 300.2502649 +22.6903151     819.2983     72.57569      1.740     2.18     4.212916      20.4394      96.5277         8     0.793     0.600  28.17   2
       251    808.7267    453.9816 300.3224501 +22.7569177     206.1648     72.44663      1.106     2.97      3.91866      20.4394     43.12416         5     0.792     0.483  29.81   0
       252    762.3311    448.3179 300.3098309 +22.7413921     384.9074     72.55727      1.226     2.33     3.903372      20.4394     65.47662         6     0.680     0.607 -39.95   0
       253    185.2506    445.0960 300.1312796 +22.5674853     408.7965     72.52041      1.177     2.48     3.847612      20.4394     59.89253         6     0.826     0.478  53.36   0
       254    898.7747    440.6002 300.3548674 +22.7800446     743.1389     72.39125      1.270     2.40     3.917255      20.4394     133.6389         9     0.805     0.739  -2.89   0
       255    435.6916    440.1549 300.2107704 +22.6411618     315.4337     72.42818      1.180     3.24     4.292484      20.4394     47.78264         7     0.833     0.604  52.12   0
       256    119.8124    438.3737 300.1131258 +22.5459292     1965.801     72.44663      1.342     2.71     3.813029      20.4394     233.8004        19     1.094     0.936  44.33   0
       257    505.9133    427.6052 300.2367002 +22.6586078     6395.171     72.37278      1.213     2.00      4.32385      20.4394     1061.622        32     1.090     0.956  66.20   0
       258    919.5378    427.8104 300.3654956 +22.7825875     1199.561     72.37278      1.207     2.21     3.818312      20.4394     178.5103        16     0.929     0.858  20.71   0
       259    220.6756    426.8882 300.1482045 +22.5728856     651.8229     72.57569      1.286     2.72     4.066746      20.4394     93.73616         8     0.864     0.630  71.25   0
       260    765.4387    419.4162 300.3201860 +22.7340206     353.9648     72.46508      1.377     2.93     3.903372      20.4394     55.45694         7     0.892     0.538  59.87   0
       261     78.4695    420.0972 300.1062153 +22.5282852     529.4573     72.57569      1.331     3.04     3.884292      20.4394      58.4604         8     0.810     0.665   8.38   0
       262    619.6843    417.6205 300.2753643 +22.6898362     488.0773     72.39125      1.085     2.76     4.141078      20.4394     77.72552         7     0.863     0.544  61.45   0
       263    710.2055    416.5667 300.3039020 +22.7166555     1229.657     72.44663      1.399     1.92     3.903372      20.4394     171.5118        16     1.032     0.838  18.56   0
       264    412.5125    413.8811 300.2120908 +22.6266713     6034.173     72.57569      1.235     2.06     4.271345      20.4394     940.3471        31     1.030     1.013  64.45   0
       265    192.9948    415.8296 300.1431909 +22.5614112     202.5457     72.42818      1.341     4.55     3.872749      20.4394     32.45808         5     0.953     0.617  34.20   0
       266    804.5222    408.0481 300.3360580 +22.7424619     1347.532     72.44663      1.204     2.09      3.92796      20.4394     198.9342        17     0.964     0.810  64.59   0
       267    901.8997    408.1606 300.3663774 +22.7716587     660.8698     72.46508      1.250     2.25     3.863241      20.4394     99.61026         9     0.756     0.717   0.22   0
       268    396.8686    402.7734 300.2108305 +22.6187932     447.2689     72.42818      1.151     3.18     4.279248      20.4394     68.72049         8     0.979     0.583 -54.49   0
       269    479.8912    400.3557 300.2374499 +22.6429849      462.283     72.42818      1.249     2.06     4.369614      20.4394     69.93949         7     0.680     0.637 -15.07   0
       270    460.7072    398.4616 300.2320946 +22.6366912     253.4577     72.53884      1.278     2.93     4.340838      20.4394     42.94479         5     0.707     0.473 -17.49   0
       271    777.1046    395.8221 300.3314835 +22.7307369     512.6281     72.35431      1.295     2.70     3.988821      20.4394     67.80079         8     0.805     0.644  33.54   0
       272    281.7923    395.5367 300.1773873 +22.5822157      242.873     72.42818      1.243     3.44     4.272259      20.4394     32.87973         5     0.796     0.430  22.11   0
       273    300.0099    393.1084 300.1838409 +22.5869811     2494.997     72.39125      1.254     2.17     4.295588      20.4394     370.8726        23     1.108     0.879  48.05   0
       274     18.5552    390.6718 300.0971579 +22.5018721     1019.701     72.40971      1.349     3.30     3.888033      20.4394     135.0113        13     1.104     0.732  28.78   0
       275    269.3857    382.5878 300.1777338 +22.5747796     29821.66     72.37278      1.269     2.17     4.268308      20.4394     3770.842        71     1.280     1.155  56.62   0
       276    804.0119    379.8638 300.3450512 +22.7342113     1235.972     72.39125      1.170     1.83     3.986839      20.4394     271.7339        13     0.861     0.749  33.97   0
       277    842.3290    369.4900 300.3603629 +22.7427063     291.7565     72.61252      1.526     3.03     3.988397      20.4394     42.27734         6     0.854     0.469 -87.80   0
       278    719.1200    368.8876 300.3221618 +22.7056298     539.3661     72.59411      1.061     2.22     4.186741      20.4394     100.4584         8     0.774     0.631 -89.88   0
       279    143.6811    368.8393 300.1431212 +22.5331397     454.0109     72.40971      1.317     2.78     3.773712      20.4394     62.35276         8     0.745     0.701 -74.51   0
       280    367.8741    367.6328 300.2132204 +22.6000142     551.6567     72.44663      1.205     2.83     4.331717      20.4394     68.30942         9     0.967     0.599  62.70   0
       281    679.7705    362.0845 300.3121121 +22.6918877     1821.941     72.44663      1.181     1.97     4.088494      20.4394     328.8032        17     0.949     0.801  64.37   0
       282    487.8978    356.8867 300.2540559 +22.6329035     236.4214     72.61252      0.927     1.64     4.358141      20.4394     74.33318         6     0.679     0.507  34.00   0
       283    894.8644    355.0207 300.3814393 +22.7542805     630.0062     72.42818      1.283     3.10     3.927635      20.4394     95.44547        11     0.986     0.745 -55.77   0
       284    341.5378    346.8919 300.2117618 +22.5861656     2083.613     72.53884      1.400     2.91     4.371845      20.4394     237.5643        24     1.304     0.880  58.01   0
       285    553.7794    345.5908 300.2782312 +22.6494022     349.5999     72.42818      0.964     2.26     4.232224      20.4394     57.25146         5     0.679     0.473  15.85   0
       286    780.8779    339.5480 300.3509311 +22.7156986     602.5556     72.44663      1.187     2.07     4.202628      20.4394     121.4244        10     0.917     0.595  66.44   0
       287    662.8700    337.2725 300.3149033 +22.6796972     536.8198     72.52041      1.491     2.62      4.16813      20.4394     68.98442         8     0.863     0.602  10.68   0
       288    417.2961    326.1688 300.2420572 +22.6029241     1171.496     72.39125      1.243     2.17     4.282898      20.4394     163.6935        15     1.030     0.735  66.79   0
       289    502.4474    323.7207 300.2693515 +22.6277398     283.4453     72.46508      1.051     3.28     4.301282      20.4394      39.7731         5     0.719     0.476 -74.52   0
       290    269.6374    323.8702 300.1968744 +22.5580028     250.6006     72.40971      1.302     3.67     4.327867      20.4394     32.32756         5     1.427     0.272  50.10   0
       291    929.0074    321.8550 300.4028532 +22.7549711     324.2456     72.44663      1.255     3.27     3.937803      20.4394     48.96421         8     0.848     0.630  40.50   0
       292    800.6096    319.2679 300.3636643 +22.7157805     302.3331     72.44663      1.109     2.22      4.25026      20.4394     46.29973         5     0.687     0.460 -71.34   0
       293    662.2540    318.0105 300.3209645 +22.6739793      2089.47     72.44663      1.210     1.93     4.259984      20.4394      389.949        18     0.952     0.844  52.11   0
       294    923.5292    312.2664 300.4042576 +22.7505748     3128.281     72.48353      1.231     2.25     3.957373      20.4394     396.3467        25     1.078     0.960  37.02   0
       295    984.7998    306.7438 300.4251592 +22.7673302     433.2898     72.35431      1.207     3.02     4.048019      20.4394     75.55502         9     0.937     0.642 -73.31   0
       296    370.5552    301.8586 300.2354064 +22.5819354      611.084     72.48353      1.271     2.76     4.364752      20.4394     106.2915        11     1.014     0.674  85.13   0
       297    992.9276    300.2426 300.4298048 +22.7678942     1602.732     72.42818      1.241     2.11     4.183527      20.4394      239.189        17     0.917     0.890  89.97   0
       298     45.3373    296.4933 300.1360489 +22.4828891     1394.827     72.53884      1.670     3.53     4.073619      20.4394     133.5529        22     1.309     1.084 -32.74   0
       299     76.3199    296.3130 300.1457327 +22.4921292     565.1945     72.61252      1.322     3.52     3.960554      20.4394     61.61152        10     0.945     0.826  54.99   0
       300    793.3568    293.3054 300.3698316 +22.7061477     175.4753     72.46508      0.959     4.37     4.407829      20.4394     32.65316         6     1.017     0.535  56.53   0
       301    939.0093    292.5812 300.4154750 +22.7495507     559.6802     72.42818      1.277     2.60     4.037592      20.4394     78.00529         9     0.854     0.668  67.88   0
       302    783.1536    289.5632 300.3678664 +22.7020169      440.882     72.48353      1.538     2.81     4.425648      20.4394     53.82949         6     0.960     0.429  60.80   0
       303    129.3644    288.1286 300.1648710 +22.5056875     522.0192     72.44663      1.407     2.87     4.015426      20.4394      89.1048         8     0.988     0.570  69.80   0
       304    924.4769    285.2766 300.4133142 +22.7431003     315.7558     72.53884      1.141     2.70     4.020739      20.4394     48.31441         5     0.717     0.447 -66.53   0
       305    805.3691    281.3127 300.3774680 +22.7062984     518.1832     72.42818      1.259     2.81     4.409114      20.4394     66.37775         6     0.710     0.612 -63.19   0
       306    733.7928    279.4582 300.3557648 +22.6843305      426.369     72.42818      1.039     2.23     4.441045      20.4394     89.11944         8     0.738     0.688 -10.63   0
       307    324.2688    279.1956 300.2283643 +22.5615555      413.057     72.40971      1.249     2.50     4.433461      20.4394     60.34415         6     0.730     0.544  44.78   0
       308    824.8319    272.7358 300.3863182 +22.7096614     349.1447     72.44663      1.277     3.32     4.311023      20.4394     51.05097         6     0.734     0.584  29.97   0
       309    832.0606    268.4693 300.3899562 +22.7105996     2151.625     72.48353      1.213     2.01     4.291351      20.4394     353.8163        19     0.969     0.891  84.18   0
       310    250.5245    265.8921 300.2097492 +22.5356312     2071.502     72.61252      1.302     2.27     4.376891      20.4394     301.4395        22     1.187     0.940  68.57   0
       311    328.3342    261.0370 300.2355219 +22.5575607     1067.503     72.44663      1.413     2.94      4.53283      20.4394     111.0445        17     1.057     0.927 -66.25   0
       312     80.7217    261.5276 300.1583892 +22.4834681      305.809     72.55727      1.218     2.94     4.187248      20.4394     43.50336         5     0.712     0.470  18.23   0
       313    730.3947    260.0473 300.3610059 +22.6777351     556.1344     72.42818      1.229     2.57     4.457664      20.4394     82.91374        11     0.892     0.772  15.11   0
       314    837.4224    257.1300 300.3953077 +22.7089459     385.4201     72.46508      1.123     3.33     4.310563      20.4394     49.74062         5     0.753     0.426  66.26   0
       315    375.2062    257.7127 300.2511808 +22.5706542     299.0639     72.35431      1.724     3.92     4.592788      20.4394     40.12536         5     0.985     0.447   4.42   0
       316    145.3736    253.3692 300.1811265 +22.5005127     691.7495     72.44663      1.251     3.17     4.208599      20.4394     88.60863        14     1.068     0.852  46.43   0
       317    263.2901    252.0981 300.2181948 +22.5354982     221.8357     72.63093      1.194     3.91     4.435489      20.4394     43.55412         6     0.911     0.480  50.73   0
       318    683.2058    249.8565 300.3496118 +22.6606741     1656.432     72.40971      1.237     2.15     4.539809      20.4394     290.6762        17     1.001     0.821  83.37   0
       319    748.0135    249.3699 300.3699609 +22.6799431     643.6745     72.44663      1.207     2.31     4.454764      20.4394     93.91213        10     0.803     0.715  62.07   0
       320    166.8953    246.9993 300.1898824 +22.5051371     584.8392     72.31734      1.546     3.69     4.230434      20.4394     70.72414         7     1.026     0.489  58.79   0
       321    954.7122    242.1690 300.4367342 +22.7397586     909.2882     72.42818      1.293     2.59     4.473692      20.4394     125.8946        17     1.009     0.939  73.51   0
       322    607.7484    240.7385 300.3290686 +22.6354531     1178.823     72.50197      1.197     2.37      4.26982      20.4394     210.3663        14     1.185     0.727  74.85   0
       323    456.1128    242.4674 300.2813022 +22.5905212     364.9575     72.55727      1.067     3.47     4.485687      20.4394     55.22206         6     0.779     0.498   2.18   0
       324    687.1943    241.2782 300.3536381 +22.6594038     792.3986     72.35431      1.151     2.15     4.557425      20.4394     117.7563         8     0.685     0.670 -82.73   0
       325    803.0252    232.0077 300.3927390 +22.6914261     1485.969     72.44663      1.240     2.06     4.460045      20.4394     244.4787        17     1.128     0.764  63.47   0
       326    533.8809    232.5188 300.3087365 +22.6109638     1018.649     72.61252      1.284     2.37     4.296413      20.4394     143.6489        14     0.879     0.861  61.44   0
       327    815.1432    231.0743 300.3968189 +22.6947861     837.5082     72.50197      1.312     2.44     4.443985      20.4394     140.1301        14     0.932     0.896 -19.19   0
       328    861.4437    230.4122 300.4114667 +22.7084581     262.4331     72.44663      1.121     3.45     4.385544      20.4394     39.69743         7     0.836     0.675  79.78   0
       329    975.9119    221.8673 300.4499344 +22.7402669     1694.673     72.55727      1.341     2.34     4.742128      20.4394     262.2989        18     0.991     0.955  65.33   0
       330    931.8660    221.3602 300.4363620 +22.7269373     1025.669     72.40971      1.253     2.28     4.462767      20.4394     146.6153        15     0.929     0.864 -31.54   0
       331    165.7756    214.7970 300.1999831 +22.4955587     818.6844     72.39125      1.405     2.67     4.373248      20.4394     106.5913        11     0.922     0.764 -17.13   0
       332     27.8161    209.5412 300.1588217 +22.4526861     2226.998     72.40971      1.436     2.76     4.620294      20.4394     253.7906        27     1.256     1.062  28.52   0
       333    850.8444    206.2478 300.4160035 +22.6983385     789.3104     72.46508      1.274     2.23     4.468949      20.4394     125.7852        13     1.016     0.769  74.52   0
       334    185.2359    202.8728 300.2099007 +22.4979698     5717.502     72.40971      1.361     2.31     4.557621      20.4394     760.5659        34     1.254     1.004  58.92   0
       335    166.8935    203.5693 300.2039733 +22.4926711     399.8637     72.37278      1.225     3.92     4.488646      20.4394     54.97058         8     0.926     0.633  59.67   0
       336    168.4615    193.8695 300.2076076 +22.4903570     587.6287     72.48353      1.262     2.65      4.59295      20.4394     79.57442        11     0.939     0.725 -11.13   0
       337    984.0916    190.0230 300.4628186 +22.7335583     18196.01     72.37278      1.337     2.29     4.850722      20.4394      2660.15        58     1.283     1.138 -63.62   0
       338    829.3488    184.2696 300.4164338 +22.6855853      3599.04     72.44663      1.225     2.12     4.597543      20.4394     493.1824        25     1.053     0.952 -61.59   0
       339    932.9659    182.9561 300.4491660 +22.7162245     2757.118     72.50197      1.256     2.00     4.743233      20.4394     463.5833        22     0.968     0.936  88.32   0
       340    378.6749    179.5212 300.2776306 +22.5492402     629.2008     72.55727      1.186     2.28     4.997917      20.4394     94.71391        11     0.855     0.733  69.11   0
       341    132.1027    180.1950 300.2007437 +22.4755321     337.2734     72.35431      1.300     3.20     4.753846      20.4394     47.59623         6     0.770     0.598 -80.97   0
       342    302.8163    171.1640 300.2567457 +22.5241083     868.2333     72.44663      1.786     2.51     4.927889      20.4394     77.94643         9     0.782     0.711 -56.42   0
       343    837.8133    169.4451 300.4238819 +22.6838576     230.3215     72.44663      1.143     3.16     4.613352      20.4394     36.08327         5     0.735     0.447 -21.83   0
       344     68.8401    168.4444 300.1848982 +22.4531933     606.0815     72.52041      1.296     3.53     4.894167      20.4394     80.66773        11     0.997     0.733  49.01   0
       345    429.9995    166.7907 300.2977295 +22.5609619     1671.312     72.26186      1.264     2.05     4.920448      20.4394     292.5382        17     0.949     0.859  58.59   0
       346    358.1192    167.3478 300.2751850 +22.5395848     481.4525     72.46508      1.344     2.84     5.105633      20.4394     67.32884         9     0.859     0.720  83.17   0
       347    491.6094    165.8469 300.3172096 +22.5791483     535.7336     72.46508      1.736     3.19     4.859918      20.4394     77.60563         8     0.989     0.612  54.76   0
       348    253.8528    163.0310 300.2441579 +22.5070990     209.3423     72.46508      1.260     3.92     4.963363      20.4394     33.11789         5     0.857     0.513 -35.55   0
       349    173.6770    162.5483 300.2193893 +22.4829294     440.8687     72.42818      1.232     2.36     4.914783      20.4394     49.37745         5     0.670     0.476  17.83   0
       350    718.5751    155.9960 300.3910849 +22.6442928     375.9123     72.40971      1.234     4.11     4.615764      20.4394     44.62738         8     0.935     0.718 -61.35   0
       351     75.2206    152.2460 300.1921348 +22.4504572     191.2604     72.50197      1.130     3.90     4.939775      20.4394     34.08886         5     0.964     0.451  45.54   0
       352    864.5823    150.1745 300.4384786 +22.6863305     334.6475     72.46508      1.457     4.36     4.597263      20.4394     43.65758         6     0.861     0.628 -58.18   0
       353    994.5409    147.3705 300.4799158 +22.7244195     3520.757     72.46508      1.282     2.22     4.921032      20.4394      448.149        29     1.109     1.060  55.99   2
       354    990.4735    149.5283 300.4779470 +22.7238229     221.1631     72.50197      1.108     3.15      4.91774      20.4394     44.26098         5     0.729     0.483  15.00   3
       355    204.1701    146.7160 300.2340035 +22.4875242     5910.171     72.46508      1.335     2.34      4.96265      20.4394     801.3967        35     1.238     1.038  71.48   0
       356    710.8491    146.8816 300.3916345 +22.6393599     419.4175     72.46508      1.304     2.14     4.691308      20.4394     56.83984         6     0.702     0.557  40.36   0
       357     55.2668    146.1771 300.1879040 +22.4427331     793.6597     72.42818      1.567     3.31     4.964396      20.4394     80.18716        15     1.113     0.898  66.35   0
       358    833.3669    143.8801 300.4307893 +22.6751769     199.9039     72.40971      0.963     2.65     4.773135      20.4394     50.83021         6     0.734     0.590  34.47   0
       359    175.9633    140.3353 300.2273051 +22.4772380     323.2581     72.44663      1.361     3.57     4.930437      20.4394     51.73655         5     0.811     0.488 -53.04   0
       360    679.5569    137.7374 300.3848520 +22.6273619     171.2507     72.44663      1.130     3.42     4.853607      20.4394     34.06104         5     0.724     0.474  74.30   0
       361    219.7713    138.0172 300.2416751 +22.4897027     370.2728     72.44663      1.258     2.45     4.968408      20.4394     48.37756         7     0.705     0.662  67.58   0
       362    450.2054    132.0259 300.3152942 +22.5570294       6201.4     72.42818      1.281     2.16     4.929776      20.4394     923.1924        35     1.157     0.999  57.08   0
       363    335.7378    131.7538 300.2797687 +22.5226563      556.638     72.46508      1.217     2.55     5.015115      20.4394     82.64138         9     0.805     0.727  68.64   0
       364    507.2043    126.4800 300.3348335 +22.5725102     315.2275     72.35431      1.213     2.49     4.878374      20.4394     53.14504         5     0.710     0.474  17.40   0
       365    644.0007    123.2603 300.3784725 +22.6125543     295.6479     72.40971      1.346     2.77     4.830208      20.4394     48.37417         7     0.752     0.643 -17.02   0
       366    702.4763    121.3277 300.3973148 +22.6295081     784.8486     72.52041      1.381     3.42     4.828141      20.4394     93.97432        12     1.027     0.836  36.34   0
       367    795.4687    120.2656 300.4266364 +22.6570432     289.4512     72.50197      1.134     2.34     4.973993      20.4394     73.02705         9     0.822     0.692  71.91   0
       368    143.3076    115.4039 300.2252414 +22.4602924      548.552     72.33583      1.443     3.44      4.91785      20.4394     71.30285         9     1.161     0.595  84.99   0
       369    501.6048    114.6036 300.3369425 +22.5674209     428.2609     72.26186      1.181     3.24     4.885884      20.4394     67.53369         9     0.906     0.818   7.17   0
       370    578.5881    112.0829 300.3617269 +22.5897535     6113.643     72.40971      1.254     2.10      4.76897      20.4394     866.1188        29     1.068     0.978  60.24   0
       371    353.4338    111.1890 300.2919431 +22.5220523     1347.192     72.42818      1.225     2.36      4.98974      20.4394     189.4929        18     1.064     0.830 -84.07   0
       372    619.7809    109.3414 300.3754437 +22.6013015     779.0441     72.40971      1.165     2.21     4.762541      20.4394     122.2592        11     0.833     0.748  76.22   0
       373    689.3954    106.7206 300.3979773 +22.6213931     313.8192     72.35431      1.249     3.34     4.915623      20.4394     40.01614         5     0.758     0.425 -67.38   0
       374    635.5544    105.0774 300.3817392 +22.6047995      540.939     72.42818      1.247     3.03     4.824548      20.4394     73.35709         8     0.849     0.645  43.82   0
       375    102.6788    103.7628 300.2163909 +22.4447722     588.9019     72.42818      1.476     3.30     4.921496      20.4394     74.00366        14     1.106     0.797  55.99   0
       376    905.3539    102.7516 300.4665731 +22.6848977     549.0577     72.46508      1.202     2.64     5.023414      20.4394     69.68914        10     0.865     0.737  74.96   0
       377    674.1044    100.6898 300.3951698 +22.6150814     504.9685     72.63093      1.290     2.35      4.97148      20.4394     83.94257         9     0.799     0.723  82.89   0
       378    622.8032     96.9136 300.3804156 +22.5986350     2788.756     72.37278      1.252     2.13      4.77991      20.4394     438.2141        25     1.131     0.908  67.99   0
       379    263.7531     97.9863 300.2683330 +22.4913890     309.8439     72.44663      1.166     2.30     4.876018      20.4394     62.08767         6     0.815     0.471  50.77   0
       380    637.9991     95.6604 300.3855548 +22.6028250     911.6328     72.40971      1.676     4.70      4.84598      20.4394      91.6656        17     1.581     0.681  49.59   0
       381    709.2689     88.4126 300.4101063 +22.6220807     1465.339     72.46508      1.214     2.20     4.965819      20.4394     201.0353        15     0.930     0.811  74.58   0
       382    787.0925     82.9498 300.4361284 +22.6438076     241.0973     72.48353      0.988     1.99     5.058722      20.4394     53.37071         5     0.584     0.575  57.89   0
       383    647.0715     81.5389 300.3929601 +22.6014829     626.9658     72.48353      1.224     2.27     4.954694      20.4394      118.663        10     0.891     0.667 -63.74   0
       384    452.8346     80.9754 300.3326691 +22.5431512     1065.078     72.46508      1.289     2.26     4.785898      20.4394     154.7258        13     0.991     0.719  62.97   0
       385     25.5538     80.8970 300.1998444 +22.4150888     492.0432     72.46508      1.385     3.77     5.239927      20.4394     63.64188        11     1.098     0.718  85.11   0
       386    356.6968     79.1511 300.3033480 +22.5138278     791.1974     72.50197      1.264     2.35     4.886234      20.4394     109.9798        13     1.059     0.707  36.82   0
       387    738.8558     77.8101 300.4227633 +22.6278904      407.719     72.44663      1.198     2.04     4.995021      20.4394     65.00021         6     0.699     0.548  49.19   0
       388    999.6689     75.7805 300.5047356 +22.7053633     2312.649     72.44663      1.413     2.35     5.016792      20.4394     287.8406        25     1.153     1.020 -85.02   0
       389    696.2612     69.5687 300.4121648 +22.6127697     720.7854     72.48353      1.350     2.57      5.11122      20.4394     95.12428        12     0.896     0.818   1.02   0
       390    128.0880     69.2659 300.2354733 +22.4424850     3750.246     72.55727      1.379     2.53     4.916925      20.4394      412.762        29     1.213     1.013  45.70   0
       391    550.4438     66.3508 300.3677949 +22.5681833     290.1828     72.48353      0.926     2.46      4.61823      20.4394     46.12606         5     0.674     0.473  71.66   0
       392    453.8050     66.3928 300.3376998 +22.5392523      267.445     72.29886      1.206     2.37     4.653134      20.4394     49.61657         6     0.709     0.592  58.22   0
       393    244.0067     61.2763 300.2740971 +22.4749298     1319.718     72.37278      1.405     2.78      4.72235      20.4394     160.7532        18     1.193     0.865  73.02   0
       394    689.3232     61.4538 300.4126348 +22.6083598     858.2633     72.48353      1.182     2.36     5.178159      20.4394     116.3732        13     0.985     0.772  63.05   0
       395    654.9807     60.5993 300.4022140 +22.5978324     313.0729     72.37278      1.212     2.30      5.10288      20.4394     57.97713         5     0.709     0.591  85.66   0
       396    782.7559     58.4333 300.4427272 +22.6354608     156.1669     72.48353      1.138     4.54     5.093863      20.4394     26.50838         5     0.808     0.725  57.10   0
       397    727.2026     56.6174 300.4260046 +22.6183094     742.2526     72.35431      1.603     3.32     5.171271      20.4394     87.32118        14     1.111     0.811  75.18   0
       398    470.5202     58.2864 300.3455306 +22.5419298     223.1486     72.61252      0.914     3.39     4.580122      20.4394     51.31305         5     0.775     0.429 -66.67   0
       399    650.7344     56.5370 300.4022086 +22.5953934     570.3578     72.48353      1.231     2.36      5.10354      20.4394     70.94789         7     0.752     0.610  73.65   0
       400    747.1849     52.8749 300.4334445 +22.6232152     2290.514     72.44663      1.300     2.11     5.175073      20.4394     353.5681        20     1.077     0.871  72.50   0
       401    452.7971     51.2191 300.3423063 +22.5345909     436.7745     72.37278      1.173     2.48     4.520735      20.4394     68.84707         8     0.740     0.687  51.36   0
       402    130.3478     48.3155 300.2429684 +22.4371473     1008.812     72.48353      1.392     3.02     4.914309      20.4394     118.7023        15     1.005     0.934  44.03   0
       403    922.0784     46.2464 300.4901128 +22.6736522     682.0695     72.44663      1.253     2.29     5.047112      20.4394     124.3063        11     0.910     0.711 -80.33   0
       404    695.6486     45.5019 300.4197779 +22.6056679     895.9253     72.48353      1.157     2.13      5.27108      20.4394     121.0975        11     0.837     0.719  82.45   0
       405    402.8445     43.5736 300.3292412 +22.5174320     326.3144     72.46508      1.090     3.49     4.533605      20.4394      50.1492         5     0.751     0.467  16.03   0
       406    453.2033     37.6473 300.3468332 +22.5308131     367.7845     72.42818      1.325     3.92     4.405831      20.4394     52.13367         7     0.972     0.591  46.46   0
       407    146.3644     37.9433 300.2513090 +22.4389693     264.3845     72.46508      1.531     4.02     4.908672      20.4394     29.93785         6     1.066     0.433  77.59   0
       408    280.4224     34.7763 300.2940127 +22.4782303     614.4677     72.40971      2.059     2.98      4.27648      20.4394     64.42525         8     0.958     0.725 -72.45   0
       409    548.0931     30.2440 300.3787704 +22.5571031     824.1165     72.44663      1.359     2.34     4.370842      20.4394     119.9729        11     0.900     0.685  62.35   0
       410    780.5115     29.0649 300.4515504 +22.6263448     319.4308     72.55727      1.194     4.11     5.155254      20.4394     43.88424         6     0.967     0.498  86.90   0
       411    282.7458     28.0609 300.2969124 +22.4769976      479.567     72.50197      2.561     5.98     4.181559      20.4394     35.20681        10     1.240     0.812 -17.91   0
       412    157.4906     27.4401 300.2581722 +22.4392878     458.9601     72.44663      1.372     3.70     4.903392      20.4394     67.55059        11     1.036     0.818  12.71   0
       413    711.2238     25.1233 300.4312378 +22.6044719     729.1846     72.46508      1.317     2.37     5.415239      20.4394      102.488        10     0.823     0.738  24.31   0
       414    519.8575     23.3177 300.3722257 +22.5466574     1908.226     72.52041      1.296     2.34     4.283948      20.4394     251.2531        21     1.113     0.856  53.89   0
       415    242.6725     20.7821 300.2868112 +22.4629006      714.035     72.44663      1.440     2.94     4.539925      20.4394     81.02402         8     0.866     0.645  68.81   0
       416    609.0841   1019.1733 300.0764617 +22.8592927     6697.898     72.44663      1.638     3.25     3.405662      20.4394     530.4376        43     1.347     1.298 -45.62  16
       417    973.7085     17.4761 300.5155436 +22.6808246     217.4828     72.59411      1.240     3.39     5.086696      20.4394     31.57636         5     1.070     0.311  22.41   0
       418     40.0548   1020.5208 299.8990687 +22.6888551     3386.354      70.5014      6.363    19.42     61.99289      20.4394     71.76596       157     4.267     3.317  -8.04  27
       419     36.2757   1008.4162 299.9018353 +22.6842529     2674.061     72.44663     10.051    31.32     55.72271      20.4394     62.74641       220     6.264     4.348 -85.77  19
       420    200.2536   1013.4012 299.9511593 +22.7349267     752.3565     72.40971      2.301     3.87     10.90806      20.4394     70.10765        14     1.407     0.930 -43.05   0
       421    760.9235   1011.9540 300.1261056 +22.9027711     348.2546     72.44663      1.889     6.23     2.838378      20.4394     39.16603         9     1.321     0.825 -39.48   0
       422    488.2933   1012.5129 300.0410298 +22.8211378     458.7277     72.63093      2.043     6.12      2.62671      20.4394     38.34795         8     1.261     0.836  49.06   0
       423    517.5834   1009.8183 300.0510228 +22.8291549     1662.637     72.42818      1.690     2.97     2.639246      20.4394     157.7461        22     1.139     1.094  -3.49   0
