#   1 NUMBER                 Running object number                                     
#   2 X_IMAGE                Object position along x                                    [pixel]
#   3 Y_IMAGE                Object position along y                                    [pixel]
#   4 ALPHA_J2000            Right ascension of barycenter (J2000)                      [deg]
#   5 DELTA_J2000            Declination of barycenter (J2000)                          [deg]
#   6 FLUX_APER              Flux vector within fixed circular aperture(s)              [count]
#   7 FLUXERR_APER           RMS error vector for aperture flux(es)                     [count]
#   8 FLUX_RADIUS            Fraction-of-light radii                                    [pixel]
#   9 FWHM_IMAGE             FWHM assuming a gaussian core                              [pixel]
#  10 BACKGROUND             Background at centroid position                            [count]
#  11 THRESHOLD              Detection threshold above background                       [count]
#  12 FLUX_MAX               Peak flux above background                                 [count]
#  13 ISOAREA_IMAGE          Isophotal area above Analysis threshold                    [pixel**2]
#  14 A_IMAGE                Profile RMS along major axis                               [pixel]
#  15 B_IMAGE                Profile RMS along minor axis                               [pixel]
#  16 THETA_IMAGE            Position angle (CCW/x)                                     [deg]
#  17 FLAGS                  Extraction flags                                          
         1    485.0261     14.9328 300.3327113 +22.5431180     1045.637     72.09814      1.526     3.47     7.454946     20.34626     105.0519        17     1.084     1.030 -71.51   0
         2    771.0737     12.9304 300.4225137 +22.6280991     337.8038     72.18995      1.373     4.93     7.150517     20.34626     42.72009         7     1.169     0.589  58.42   0
         3    388.8585     13.4555 300.3032417 +22.5139182     666.3757     72.18995      1.498     3.19     7.348256     20.34626     69.30827        11     1.040     0.672 -46.64   0
         4    160.0877      3.1424 300.2353895 +22.4424794     3576.973     65.33146      1.659     3.15     7.076472     20.34626     320.4167        34     1.404     1.206  -0.24  24
         5    728.0200      3.8596 300.4120261 +22.6126140     561.1664     68.13051      1.574     5.86     7.533337     20.34626     51.90591         9     1.197     0.807  81.55  24
         6    195.9647   1001.7151 299.9224397 +22.7399904     1103.344     72.09814      2.321     3.97     83.44175     20.34626     33.85217         5     1.633     0.276  52.72   3
         7     74.2034   1011.5316 299.8813860 +22.7062750     6060.522     72.09814     19.476   105.58     72.20119     20.34626     171.7328      3035    23.446    18.875  82.39  27
         8    218.7613    999.5321 299.9302405 +22.7462026     733.2389     72.07977      2.073     7.64     80.03005     20.34626     49.34612        15     1.818     1.190  57.02   0
         9    343.9579    997.6565 299.9698049 +22.7832145     707.3296     72.07977      3.343     7.44      5.46192     20.34626     40.66438        12     1.626     0.953 -43.19   0
        10    188.2382    985.4434 299.9253288 +22.7330050     4035.838      72.2083      7.787    22.49     68.22473     20.34626     98.00542       256     5.039     4.697  47.68   3
        11    207.3775    984.9598 299.9314390 +22.7386075     4632.135     72.15324      8.332    26.21     66.70707     20.34626     86.75272       364     6.198     4.669 -53.77   3
        12    226.1391    972.7620 299.9412419 +22.7407358     6877.421     72.13488      7.753    28.90     53.04849     20.34626     157.6603       632     9.253     4.905  61.31  18
        13    622.8261    986.3961 300.0603135 +22.8635880     7347.153     72.07977      1.982     5.24      5.25613     20.34626     423.5404        32     1.705     1.123  78.86   3
        14    627.8411    984.2471 300.0625752 +22.8644740     9473.346      72.1716      2.637    15.33     5.253574     20.34626     416.9017        81     3.824     1.709 -15.87   3
        15    722.4547    987.1537 300.0911197 +22.8936627     672.4777     72.15324      2.021     7.10     4.840359     20.34626     37.77959        13     1.322     1.069  -2.75   0
        16      2.0839   1020.5783 299.8560280 +22.6872272      772.286     58.09775      4.653     7.39    0.1690308     20.34626     43.25855        11     2.012     0.760 -88.31  26
        17    155.9752    977.6970 299.9178143 +22.7211046     2022.796       72.043      6.115    18.37     64.05904     20.34626     54.43405        61     3.356     2.794  62.73   3
        18    155.7729    971.5709 299.9197437 +22.7192867     1431.395     72.09814     24.429    15.83     58.63987     20.34626     48.40384        38     4.626     1.506  56.62   3
        19    165.9490   1004.9391 299.9120560 +22.7319107     1145.937      72.1716      3.694    12.30     88.13027     20.34626     58.72974        19     2.851     1.477 -34.82   3
        20    914.5167    970.5791 300.1564117 +22.9464415     783.2076     72.07977      2.165     7.41     5.213215     20.34626     42.12948        13     1.429     1.076  61.86   0
        21    136.3839    954.3402 299.9193177 +22.7085277     2016.095     72.07977     13.231    19.43     42.38234     20.34626     57.77044        70     3.456     3.034 -13.94   3
        22    535.4322    991.1337 300.0315445 +22.8387524     2358.914     72.11652      2.136     5.24     5.163926     20.34626     115.5645        37     1.630     1.420  19.94   0
        23    152.9055    949.5759 299.9260046 +22.7121172     953.3775     72.02461      4.165     5.11     38.76955     20.34626     36.69779         7     1.426     0.519 -70.40   0
        24    520.7064    948.1088 300.0409506 +22.8219865     417.6463     72.28165      1.720     4.43     5.025905     20.34626      31.6202         6     1.155     0.482 -45.19   0
        25    155.5730    992.6669 299.9128207 +22.7252778     834.4581     72.09814      4.682     5.10     77.60699     20.34626     58.44157         9     1.404     0.525 -66.66   3
        26    640.2878    953.3792 300.0764933 +22.8593406     6739.589       72.043      2.137     4.84     5.211043     20.34626     337.3028        54     1.659     1.588  -7.88   0
        27    548.7325    944.0408 300.0510035 +22.8292192     1379.808     72.09814      1.962     5.24     5.129558     20.34626     87.56875        26     1.392     1.293 -10.15   0
        28    442.4256    940.5444 300.0190319 +22.7963484     984.0676     72.11652      2.288     6.18     4.945988     20.34626     53.74404        23     1.419     1.257  57.00   0
        29    130.0954    939.2229 299.9222780 +22.7023048     907.6863     72.02461      8.763     7.91     28.83439     20.34626     33.83414        12     2.062     0.848 -86.93   1
        30    373.1371    938.3689 299.9981682 +22.7749502     6413.329     72.13488      2.087     4.93     5.426274     20.34626     408.2869        45     1.568     1.515   8.75   0
        31    406.0177    925.2371 300.0126739 +22.7810394     419.0626     72.11652      1.751     4.35     5.202811     20.34626     36.36185         6     0.817     0.658  -5.96   0
        32    919.4589    917.3959 300.1752499 +22.9326400     2198.087     72.07977      2.139     5.46     5.210512     20.34626     105.2152        40     1.747     1.422  31.46   0
        33    162.5019    989.6432 299.9159588 +22.7264892     1813.194     72.11652      8.924    15.88     74.74608     20.34626     58.21276        49     3.514     1.994 -71.53   3
        34    209.0341    911.8933 299.9557138 +22.7181419     586.8585     72.06139      4.310     4.56     12.05947     20.34626     28.43246         5     1.198     0.492  67.38   0
        35    160.7037    997.8396 299.9127339 +22.7283008     3113.749     72.09814      5.897    19.30     82.12297     20.34626      75.1836       128     4.452     2.827  12.01  19
        36    707.9481    906.0355 300.1129777 +22.8660178     897.0118     72.13488      2.264     8.92      5.30839     20.34626     40.89032        21     1.767     1.258  57.98   0
        37     67.4449    952.0682 299.8986233 +22.6871938     5716.894     72.09814     29.786    30.52     31.17895     20.34626     1294.187      3996    22.822    16.179 -68.75  19
        38    743.1373    900.5283 300.1257390 +22.8749786     955.0954     72.15324      2.018     5.92     5.351826     20.34626      62.6301        20     1.349     1.184  62.22   0
        39    103.5779    897.6999 299.9275335 +22.6824390     1026.531     72.06139      8.763     9.29     15.74261     20.34626     39.24372        15     1.971     1.223 -56.13   3
        40    208.0128    897.7713 299.9599875 +22.7137837     618.9985     72.11652      3.507     3.99     10.81182     20.34626     30.62635         5     1.371     0.331 -62.98   0
        41    765.3969    894.1351 300.1347583 +22.8798105     11388.24     72.13488      2.010     4.58     5.397583     20.34626     631.6963        55     1.574     1.531 -34.29   0
        42    195.1797    891.4076 299.9580647 +22.7081090     744.9486     72.07977      5.008     5.05     11.42925     20.34626      25.0476         5     1.094     0.659 -66.17   0
        43    160.3453    993.0295 299.9141869 +22.7268135     1342.646     72.11652      4.511     7.67     77.60699     20.34626     70.33758        21     1.869     0.882  53.67   3
        44    471.5041    882.1992 300.0470574 +22.7883157      431.804     71.98782      2.151     4.41     5.082388     20.34626     46.82615         7     1.138     0.487 -48.02   2
        45    773.9117    876.2980 300.1432127 +22.8772368     1456.186     72.28165      2.008     5.45      5.43544     20.34626     89.54216        26     1.424     1.327   8.21   0
        46    956.9896    875.8306 300.2004766 +22.9319339     581.6774     72.11652      2.409     5.01       5.2422     20.34626     45.39653         8     1.137     0.801  11.30   0
        47    812.1475    869.7722 300.1572584 +22.8868150     930.3084     72.13488      2.317     5.83     5.465167     20.34626     59.75739        21     1.446     1.232 -71.33   0
        48    860.9068    861.4249 300.1751809 +22.8990203      627.634     72.06139      2.094     6.41     5.416077     20.34626     46.66829        10     1.368     0.892 -47.19   0
        49    711.6362    860.1512 300.1290454 +22.8539424     714.6539     72.11652      1.885     5.05      5.34162     20.34626     53.19932        15     1.300     0.917  24.50   0
        50    424.3600    856.1632 300.0408415 +22.7667095     4162.484     72.18995      1.971     4.40     5.360592     20.34626     254.9012        43     1.546     1.423  36.03   0
        51    723.3032    856.9839 300.1337123 +22.8565277     615.1873     72.02461      1.937     5.42     5.362198     20.34626     52.57421         9     1.118     0.775  42.97   0
        52    150.2049    842.0779 299.9601126 +22.6804665     586.1799     72.02461      1.815     5.59      9.59326     20.34626     42.18199        13     1.428     0.791 -38.65   0
        53    126.7968    838.6384 299.9539515 +22.6724592     1456.881     72.15324      1.980     4.79     9.299491     20.34626     116.9158        26     1.484     1.242  12.54   0
        54    998.5530    828.3765 300.2288760 +22.9307382     2053.602     72.13488      2.051     4.94     5.314634     20.34626     107.4691        34     1.489     1.454  50.42   0
        55    952.7344    826.5538 300.2151682 +22.9164963     2181.815     72.11652      2.108     4.90     5.416126     20.34626     99.13849        38     1.604     1.474  12.18   0
        56      2.6802    827.7210 299.9189169 +22.6320981     362.9462     63.31317      1.789     5.39     4.784445     20.34626     32.63686         7     1.137     0.809 -42.30  24
        57    658.1765    826.8371 300.1232109 +22.8283565     420.4102     72.13488      1.773     4.81     5.022249     20.34626     35.11773         6     1.073     0.610 -68.79   0
        58    736.1857    820.4379 300.1496085 +22.8498872     703.8002     72.11652      1.960     5.93     5.391746     20.34626     47.93773        14     1.291     0.967  63.20   0
        59    604.4582    814.3009 300.1105449 +22.8086612     4833.892      72.2083      1.842     3.95     4.951157     20.34626     324.6396        38     1.375     1.366  82.00   0
        60    406.5348    811.2612 300.0498865 +22.7484750     614.5869     72.15324      2.059     6.06     5.422998     20.34626      42.5949        12     1.265     1.180  28.90   0
        61    154.7639    807.9326 299.9726278 +22.6720360     1338.107     72.11652      1.927     4.87     6.917968     20.34626     89.46392        29     1.510     1.287  -2.24   0
        62    625.1855    806.9675 300.1193874 +22.8127649     766.9327     72.11652      1.690     4.72     4.905332     20.34626     63.33419        16     1.246     0.938 -41.92   0
        63    174.1689    804.8265 299.9796721 +22.6769638     403.8985     72.11652      1.834     4.89     6.578978     20.34626     29.35113         6     1.046     0.648  -8.75   0
        64    997.7845    794.6942 300.2395843 +22.9208251      1133.26       72.043      2.107     5.45      5.38379     20.34626     68.32017        22     1.342     1.214 -32.33   0
        65    780.5085    794.2570 300.1719382 +22.8556402     4175.135      72.1716      1.907     4.04     5.484984     20.34626     251.1048        39     1.430     1.372  24.57   0
        66    189.5379    788.5169 299.9897524 +22.6768918     461.3753      72.2083      1.684     4.15     6.196783     20.34626     42.42118         8     0.995     0.607 -49.06   0
        67    497.6890    786.8121 300.0862171 +22.7687736     659.2922     72.06139      1.666     5.07     5.320486     20.34626      52.1825        12     1.183     0.873   7.05   0
        68    144.1633    784.4352 299.9769671 +22.6621143     1046.556     72.18995      1.920     5.25     6.225778     20.34626     73.60464        20     1.434     1.123  21.62   0
        69    293.5060    776.4429 300.0260211 +22.7045977     54012.11     72.11652      1.903     4.05     5.940687     20.34626     3887.885        96     1.614     1.578   7.96   0
        70    551.4370    775.6628 300.1065825 +22.7816769     1569.864     72.13488      1.732     4.40     5.310181     20.34626     128.5006        24     1.370     1.238  46.56   0
        71    964.5117    774.7513 300.2356808 +22.9051310     757.6533     72.11652      1.800     6.62     5.568389     20.34626     48.02474        18     1.390     1.067  20.81   0
        72    222.1507    774.0021 300.0046135 +22.6825046      463.709     72.09814      1.400     3.90     6.046263     20.34626     48.41956         6     1.428     0.305 -65.99   0
        73    580.4311    771.7065 300.1169013 +22.7892276     982.9522       72.043      1.757     4.92     5.256517     20.34626     87.71799        19     1.302     1.059 -37.59   0
        74    591.5674    770.2094 300.1208576 +22.7921340     630.5474     72.09814      1.763     5.40     5.246669     20.34626     50.83546        14     1.306     0.938   5.10   0
        75    697.1639    766.8118 300.1548718 +22.8227911     418.3336     72.09814      1.730     5.93     5.311668     20.34626     42.21033         9     1.221     0.810 -21.14   0
        76    343.2740    753.7250 300.0488914 +22.7129941      31476.1     72.18996      1.841     3.78     5.852546     20.34626      2627.85        80     1.566     1.512  27.14   0
        77    734.2850    756.9396 300.1696525 +22.8310729     729.3408     72.22665      1.568     5.37     5.478292     20.34626     73.49236        13     1.213     0.866  50.62   0
        78    357.5858    754.3001 300.0531592 +22.7174490     2092.322     72.02461      1.838     3.62     5.790696     20.34626     154.7717        29     1.297     1.248 -12.17   0
        79    866.4983    749.9727 300.2131501 +22.8686633      2796.86     72.06139      1.896     4.09     5.735352     20.34626     181.5268        35     1.429     1.333  -2.12   0
        80    354.6435    747.8768 300.0543304 +22.7147229     638.3333     72.09814      2.538     5.99     5.840512     20.34626     34.30579        13     1.266     0.973  83.44   1
        81    624.2761    745.9399 300.1389362 +22.7949610     781.8314      72.1716      1.571     4.14      5.46063     20.34626     79.37166        20     1.297     1.148  31.68   0
        82    460.7881    746.0217 300.0879798 +22.7460012     668.7513     72.09814      2.296     6.61     5.347343     20.34626     37.06088        13     1.368     1.158  53.00   0
        83    225.9768    745.3259 300.0151213 +22.6754207     802.6722     72.15324      1.932     4.75     6.036464     20.34626     60.99088        16     1.269     1.102  24.31   0
        84    471.4646    740.3289 300.0931543 +22.7475656      855.998     72.15324      1.870     4.45     5.337991     20.34626     67.72507        18     1.189     1.104  37.29   0
        85     31.0062    741.4215 299.9557629 +22.6158365     448.3264     72.09814      1.802     4.75     5.460058     20.34626     37.67555         7     0.998     0.642 -20.07   0
        86    872.5029    738.0151 300.2189088 +22.8670240     483.6023     72.02461      1.730     3.85     5.764802     20.34626      48.8049        11     1.097     0.879  18.98   0
        87    417.1490    735.7615 300.0777252 +22.7299773     513.9254     72.11652      2.032     6.39     5.398335     20.34626     33.29626        11     1.344     0.856 -11.34   0
        88    625.7839    735.1229 300.1429208 +22.7923050     337.8696     72.11652      1.749     5.45     5.565647     20.34626     35.32018         7     1.346     0.622   2.58   0
        89     59.8133    733.9050 299.9671593 +22.6223191     383.7001       72.043      1.636     4.51     5.729905     20.34626     29.90379         7     1.362     0.425  69.64   0
        90    224.0529    729.8318 300.0195567 +22.6703964     504.2845     72.13488      1.505     5.88     6.028982     20.34626     56.10457        11     1.427     0.684 -49.99   0
        91    546.3981    720.8307 300.1228293 +22.7644171     291.0922     72.07977      1.336     4.48     5.549126     20.34626     41.52411         7     1.055     0.541 -13.90   0
        92    517.2720    718.4083 300.1145433 +22.7549949     515.0609     72.09814      1.731     3.20     5.478185     20.34626     55.94318         7     0.804     0.681  32.02   2
        93    426.0525    718.2435 300.0861888 +22.7276147     337.4683     72.15324      1.707     4.77      5.51753     20.34626     36.38403         7     0.978     0.659  12.39   0
        94    932.8457    715.2496 300.2451335 +22.8785449     4440.518     72.13488      1.926     4.20     5.875947     20.34626     293.3263        43     1.485     1.419  37.08   0
        95    538.1354    716.0948 300.1217939 +22.7605812     1308.043      72.2083      1.715     3.64     5.570022     20.34626     106.2009        25     1.247     1.189  40.68   0
        96    458.4632    715.1772 300.0972772 +22.7364461     413.8515     72.09814      1.412     2.24     5.431823     20.34626     48.27974         5     0.694     0.463  69.02   0
        97    305.3187    714.9683 300.0496707 +22.6904901     556.9329     72.11652      0.660     1.20      5.99332     20.34626     324.0383         6     0.559     0.368 -17.01   0
        98    619.9029    710.6986 300.1490235 +22.7835261     333.6447     72.29997      1.441     4.98     5.706264     20.34626      33.2876         8     1.057     0.664  56.65   0
        99    921.4171    706.7707 300.2443220 +22.8726859     1594.799     72.11652      1.788     4.25     5.933372     20.34626     110.1788        26     1.309     1.209 -45.03   0
       100    284.1421    700.3046 300.0478445 +22.6799325     777.2382     72.18995      1.704     4.97     5.999469     20.34626     79.14483        16     1.303     0.975   3.54   0
       101    747.8356    697.9038 300.1930589 +22.8181655     2512.963     72.11652      1.789     3.65       5.7666     20.34626     191.2121        36     1.638     1.224 -14.19   0
       102    952.6719    696.8376 300.2573026 +22.8791860     1632.344     72.07977      2.001     4.77      5.93905     20.34626     93.18863        32     1.503     1.354  18.71   0
       103    133.2781    684.2546 300.0061292 +22.6300992     586.6417     72.15324      1.847     5.43     6.231648     20.34626     64.43026        11     1.195     0.825  -1.32   0
       104    829.9355    683.7464 300.2232618 +22.8386793     565.8245     72.15324      1.640     4.78      6.01732     20.34626     56.12761        10     1.114     0.691 -12.86   0
       105    866.1161    674.8604 300.2374347 +22.8469567       147519     72.22665      1.814     3.68       6.2317     20.34626     9476.923       160     1.657     1.583 -39.31   0
       106    628.6624    678.0566 300.1623574 +22.7767710     311.5664      72.1716      1.665     6.07     5.893909     20.34626     30.69635         8     1.406     0.737  50.10   0
       107   1013.2471    676.6789 300.2827585 +22.8915198     1277.353     72.11652      1.960     4.42     5.959671     20.34626     77.92175        24     1.304     1.237  -3.57   0
       108    718.5058    675.3275 300.1912484 +22.8028940     776.2058     72.24498      1.602     4.85     5.886078     20.34626     62.68204        13     1.152     0.788  32.94   0
       109    899.4708    667.7169 300.2501615 +22.8548880     361.4683     72.24498      1.583     4.59     6.167844     20.34626     40.54338         8     1.348     0.444 -23.31   0
       110    552.3021    663.5117 300.1432888 +22.7497192      1667.18     72.28165      1.609     3.24     6.020479     20.34626     167.1335        21     1.166     1.056  22.13   0
       111    733.6176    660.9600 300.2006269 +22.8032899     9517.051     72.13488      1.699     3.45     5.897498     20.34626     726.5285        50     1.390     1.360  80.83   0
       112    234.9997    655.7310 300.0470327 +22.6524051     5001.097     72.06139      1.817     3.68     5.960915     20.34626     439.3903        44     1.487     1.377  50.26   0
       113    317.2509    653.9639 300.0732001 +22.6765498     1062.767     72.13488      1.565     3.72     5.965952     20.34626     112.0871        18     1.149     1.038  13.38   0
       114    193.1138    651.7391 300.0352994 +22.6387037     413.5896      72.2083      1.483     2.77     6.063491     20.34626     57.06815         7     0.975     0.507 -72.06   0
       115    525.4733    649.3435 300.1395330 +22.7376119     728.7767     72.15324      1.701     4.25     5.925509     20.34626     59.76651        14     1.148     0.943  63.51   0
       116    517.0035    641.6141 300.1394051 +22.7328540     3380.872     71.96941      1.695     3.35     5.914095     20.34626     292.3169        31     1.288     1.233   5.34   0
       117    507.1213    635.2372 300.1383980 +22.7280616      1597.32     72.09814      1.797     3.78     5.911316     20.34626     125.0548        27     1.372     1.247 -22.70   0
       118    436.2334    635.2239 300.1163256 +22.7068207     398.6455     72.13488      1.626     4.55     5.906274     20.34626     38.45983         8     1.120     0.751 -79.12   0
       119    900.6801    634.0143 300.2614859 +22.8455596     415.1136     72.09814      1.445     4.34      6.13564     20.34626     46.35831         9     1.196     0.568 -24.26   0
       120    170.6994    631.7036 300.0348345 +22.6262328     624.0594     72.31829      1.579     5.13     6.048962     20.34626     56.99495        13     1.209     0.888  -9.06   0
       121    185.3722    629.6699 300.0400586 +22.6300473     579.9557     72.09814      1.810     3.03     6.017892     20.34626      55.7621         9     1.013     0.605 -77.39   0
       122    954.2565    626.6421 300.2805990 +22.8594753     434.2783     72.07977      1.689     5.63     6.027379     20.34626      28.7409        11     1.076     0.829 -22.37   0
       123    210.9334    626.7502 300.0489578 +22.6368709     602.3073     72.09814      1.927     6.11      5.97243     20.34626     48.69146        11     1.407     0.747 -31.78   0
       124    531.0732    625.9300 300.1488816 +22.7325626     418.2671     72.18995      1.434     3.90     6.035527     20.34626     56.90888         7     0.959     0.679  55.18   0
       125    432.0291    624.9827 300.1183425 +22.7026193     1796.559     72.11652      1.634     3.56     5.947326     20.34626     159.7913        25     1.295     1.122  62.39   0
       126   1007.8177    622.8760 300.2985399 +22.8744214     911.9427     72.11652      2.022     5.17     6.006939     20.34626     63.50904        15     1.256     0.938  -7.81   0
       127     85.9462    619.7558 300.0123594 +22.5973953     19963.57     72.13488      1.977     3.85     6.356602     20.34626      1686.62        72     1.638     1.576  26.25   0
       128      7.7444    621.4763 299.9874916 +22.5744419     690.8259     72.15324      2.139     3.36     6.917231     20.34626     58.73016         8     0.971     0.738 -82.87   0
       129    516.8423    620.4840 300.1462172 +22.7267351     1042.961     72.07977      1.855     3.63     6.030233     20.34626     84.19954        18     1.176     0.977  27.37   0
       130    552.5724    619.7566 300.1575840 +22.7372286     338.0808     72.13488      1.637     5.07      6.07725     20.34626     37.56522         6     1.081     0.672 -38.85   0
       131    270.4905    611.9005 300.0723092 +22.6504572     437.8524     72.28165      1.519     5.37     5.955067     20.34626     40.87141         9     1.213     0.671 -12.12   0
       132    801.8659    605.2155 300.2400140 +22.8076998     547.1806     72.09814      1.653     5.26      6.05713     20.34626     49.41727         9     1.182     0.662  68.27   0
       133     32.0202    604.0192 300.0007054 +22.5767106     1515.305     72.11652      2.159     4.70     6.881688     20.34626     100.4576        30     1.465     1.404  12.68   0
       134     98.4069    604.6912 300.0211253 +22.5968068     348.8176     72.02461      1.622     4.08     6.258965     20.34626     33.40454         5     0.974     0.488 -86.44   0
       135    480.3477    601.0799 300.1411516 +22.7102281        430.8     72.13488      1.453     3.53     6.087389     20.34626     55.09876        10     1.025     0.728  -1.90   0
       136    875.1244    599.6607 300.2646696 +22.8280321     961.0809      72.1716      2.365     6.46     6.163994     20.34626     48.80893        19     1.558     1.090   8.28   2
       137    935.2633    606.8336 300.2811049 +22.8480945     1223.981     72.11652      2.111     4.80     6.007361     20.34626     73.41917        22     1.501     1.022 -13.05   0
       138    437.4874    593.4231 300.1302905 +22.6951887      598.624       72.043      1.496     3.13     6.029936     20.34626     69.94255        11     0.932     0.789  16.69   0
       139    585.0680    591.6608 300.1768322 +22.7388881     426.0991     72.15324      1.682     4.02     6.100566     20.34626     48.19265         9     1.044     0.716 -67.20   0
       140    632.9671    590.6810 300.1920767 +22.7529512     511.3741     72.09814      1.833     4.13     6.074679     20.34626     56.12588         9     1.089     0.742 -36.64   0
       141    602.8875    590.0569 300.1829055 +22.7437638     618.2807     72.18995      1.601     3.71     6.101602     20.34626     52.95308        12     1.036     0.804  68.05   0
       142    481.5692    589.0640 300.1454338 +22.7071418     1014.526     72.13488      1.707     4.50     6.096766     20.34626     91.86244        18     1.309     1.030  27.21   0
       143    915.2645    584.9324 300.2819765 +22.8358108     3359.504      72.1716      1.789     3.70      5.99149     20.34626     229.3848        37     1.443     1.336 -62.49   0
       144    447.0264    584.7130 300.1360891 +22.6955441     1815.255     72.09814      1.570     2.87     6.054285     20.34626     184.1397        24     1.241     1.057  27.54   0
       145   1013.1183    583.3414 300.3130337 +22.8646363     607.3198      72.1716      1.707     4.48      5.97271     20.34626     57.66142        12     1.126     0.819 -15.67   0
       146    811.8996    581.6895 300.2507831 +22.8039396     319.9056     72.28165      1.585     3.69     6.060511     20.34626     29.68405         5     1.460     0.269  40.86   0
       147      8.8058    577.8871 300.0019746 +22.5622501     4850.067       72.043      2.012     4.05     7.129236     20.34626     377.9179        42     1.532     1.486  22.11  16
       148    422.0491    579.2338 300.1300907 +22.6864874     174.8972     72.15324      1.560     4.29     6.031099     20.34626       31.712         5     1.045     0.502  34.03   0
       149    267.7801    575.9963 300.0831240 +22.6393344     203.7891     72.07977      1.258     3.80     5.955398     20.34626     24.88172         5     0.821     0.506  32.04   0
       150    310.2603    571.2106 300.0978970 +22.6506895     9326.836     72.07977      1.710     3.26     5.957487     20.34626     814.1385        52     1.410     1.398  69.28   0
       151    432.7771    568.3809 300.1369549 +22.6865834     9107.445     72.11652      1.635     3.16     6.060567     20.34626     880.3181        45     1.374     1.259  58.98   0
       152    679.3498    565.2283 300.2147981 +22.7595243      219.757     72.13488      1.316     4.25     6.042799     20.34626     33.69973         5     0.911     0.565 -39.22   0
       153    844.5915    562.6478 300.2671632 +22.8082502     1856.012     72.13488      1.686     3.37     6.001599     20.34626     170.3887        21     1.165     1.115 -53.70   0
       154    929.1431    559.9923 300.2944056 +22.8327917      12596.7     72.09814      1.757     3.50     5.904253     20.34626     901.2405        57     1.481     1.411 -32.47   0
       155    493.3620    557.9445 300.1592108 +22.7017329     11722.83     72.11652      1.613     3.06     6.116867     20.34626     1109.979        49     1.347     1.317  71.78   0
       156    662.6901    553.8597 300.2132962 +22.7512682     515.0526      72.2083      1.596     4.72     6.060812     20.34626     51.17174        12     1.003     0.884  36.97   0
       157    221.0137    553.2095 300.0759718 +22.6187758     1495.059     72.02461      1.812     3.58     5.955546     20.34626     133.7147        24     1.411     1.151  -6.54   0
       158    467.8854    551.0421 300.1535172 +22.6921187     482.0928     72.07977      1.655     4.99     6.111389     20.34626     34.60797         8     1.014     0.694  62.76   0
       159    767.8011    546.3817 300.2484943 +22.7805872     734.1978       72.043      1.613     3.94     6.065482     20.34626     74.43104        15     1.188     0.886  68.07   0
       160    424.9914    546.0735 300.1417730 +22.6778423     4506.157     72.09814      1.599     3.20     6.087389     20.34626     375.3561        36     1.390     1.216  17.19   0
       161    403.2820    544.4763 300.1355321 +22.6708801     1335.147     72.22665      1.720     3.51     6.059523     20.34626     141.4917        22     1.309     1.030  29.22   0
       162    157.5899    544.0087 300.0592307 +22.5971256     692.2927     72.00622      1.670     5.13     5.964808     20.34626     67.41806        14     1.169     1.035 -39.77   0
       163    844.8174    541.8989 300.2739704 +22.8023513      1655.66     72.02461      1.814     3.60     5.926071     20.34626     123.2427        25     1.286     1.150 -47.63   0
       164    541.6817    533.7540 300.1821158 +22.7092536     206975.4     72.09814      1.617     3.09     6.211886     20.34626     21079.08       199     1.611     1.506 -22.38   0
       165    365.8796    540.3392 300.1252312 +22.6584866     398.4277      72.1716      1.441     3.95     5.987058     20.34626     46.17622         6     1.114     0.419 -35.05   0
       166    725.3654    538.8344 300.2377127 +22.7657137     773.2577     72.18995      1.541     4.20     6.086891     20.34626     80.17809        14     1.112     0.876  37.59   0
       167     91.6252    541.5203 300.0395260 +22.5766392     184.8507     72.09814      1.480     3.54     6.152459     20.34626     33.88612         5     1.105     0.327 -70.25   0
       168    227.7536    533.4754 300.0844749 +22.6151285     3404.337     72.11652      1.711     3.32     5.962909     20.34626     319.0921        35     1.339     1.282  65.88   0
       169    793.8929    529.8646 300.2619936 +22.7836484     614.4699     72.22665      2.143     4.23     6.024612     20.34626     55.54429        11     1.077     1.032  52.20   0
       170    407.8922    529.6341 300.1417858 +22.6679971     358.6664     72.06139      1.820     5.68     6.123475     20.34626     32.17527         6     1.291     0.703  -4.29   0
       171    276.4257    516.0195 300.1052849 +22.6246996     354.4767     72.11652      1.520     5.28     5.959975     20.34626     38.05812         7     1.082     0.729  -0.30   0
       172    432.3450    514.0320 300.1544642 +22.6708392     2711.893     72.13488      1.609     3.00     6.227341     20.34626     256.3922        24     1.145     1.108  28.24   0
       173    843.7430    511.1673 300.2836121 +22.7931921     321.0612     72.13488      1.588     3.48     5.901457     20.34626     52.73588         7     1.213     0.555 -10.51   0
       174    749.4146    503.4362 300.2567025 +22.7627356     389.9602     72.11652      1.395     4.20     6.124769     20.34626     41.35296         6     1.054     0.478 -55.10   0
       175    829.4250    500.4471 300.2826257 +22.7858240     1890.911     72.13488      1.646     2.95     5.906306     20.34626     183.4936        22     1.223     1.038  52.77   0
       176    700.4623    497.9742 300.2432130 +22.7465114     2560.441     72.11652      1.552     3.01     6.173973     20.34626     230.2148        28     1.187     1.166 -24.67   0
       177    943.7877    491.7304 300.3211366 +22.8175396     1108.368     72.13488      2.614     4.55     5.655293     20.34626     65.87104        17     1.206     1.127 -47.14   2
       178    910.0392    495.2052 300.3094773 +22.8084409     367.0793     72.13488      1.471     3.74     5.746501     20.34626     37.51702         5     0.827     0.486  65.43   0
       179    605.2594    494.9957 300.2145065 +22.7171523     430.1935     72.07977      1.336     2.36     6.366114     20.34626     51.90652         5     0.763     0.469 -33.95   0
       180    487.7997    493.7959 300.1783025 +22.6816337     808.7379     71.93259      1.733     3.92     6.345114     20.34626     77.39841        12     1.184     0.713 -37.78   0
       181    957.9473    492.1623 300.3254156 +22.8219004     1233.895     72.13488      1.642     3.53     5.629323     20.34626     100.4276        20     1.216     1.018  63.20   0
       182    829.5869    490.5083 300.2859023 +22.7830142      2278.24     72.06139      1.955     4.83     5.892102     20.34626     149.0459        31     1.695     1.113  64.43   0
       183    867.8156    485.6379 300.2994087 +22.7930540     4462.928     72.11652      1.680     3.10     5.861555     20.34626     397.5084        41     1.358     1.313   6.21   0
       184    582.8262    487.5216 300.2099422 +22.7082869     688.7894     72.11652      2.073     6.50     6.468492     20.34626      64.6198        13     1.438     0.826  76.11   0
       185    421.3279    487.5944 300.1596150 +22.6599430       461.46     72.06139      1.464     4.36     6.338521     20.34626     48.82407         8     1.005     0.787 -82.80   0
       186    368.4998    488.3796 300.1429129 +22.6443444     418.9984       72.043      1.580     3.43     6.046096     20.34626     33.82638         5     1.065     0.320 -21.04   0
       187    959.9305    476.4326 300.3311402 +22.8179688     719.4089     72.09814      1.597     4.06     5.560164     20.34626     80.94545        16     1.199     0.933 -13.92   0
       188     99.7597    475.5955 300.0634528 +22.5601494     996.5778     72.13488      1.707     3.98     6.097311     20.34626     92.38741        16     1.209     0.928  10.67   0
       189    761.3914    470.1708 300.2712346 +22.7567552      316.925     72.11652      1.274     3.52     6.089377     20.34626     33.66683         5     0.777     0.461  75.12   0
       190    700.0750    460.2639 300.2553319 +22.7355532     529.4265     72.15324      1.499     4.25     6.246281     20.34626     49.39916         7     0.752     0.685  30.62   0
       191    641.2831    455.9962 300.2383909 +22.7167265     740.7362       72.043      1.483     3.62     6.343715     20.34626     77.12633        11     0.961     0.799 -29.95   0
       192    956.1656    448.7337 300.3389552 +22.8088738     656.2284     72.11652      1.709     4.10     5.519073     20.34626     60.45885        11     1.177     0.692 -37.80   0
       193    702.0540    448.2761 300.2598394 +22.7326987      860.595     72.15324      1.550     3.09     6.262193     20.34626     89.40575        14     1.045     0.844 -87.26   0
       194    859.2959    444.7299 300.3100279 +22.7787383     898.7887     72.24498      1.448     3.53     5.854205     20.34626     92.18864        14     1.019     0.903  21.00   0
       195    843.6301    440.9008 300.3063835 +22.7729492     679.7302     72.07977      1.621     3.88     5.859994     20.34626      64.7464        15     1.138     0.918 -22.55   0
       196    823.6611    441.1515 300.3000731 +22.7670457     359.3109      72.1716      2.060     4.14     5.870409     20.34626      36.7378         5     1.106     0.443 -32.62   0
       197    587.8571    438.6573 300.2273683 +22.6957470     3192.426     72.18995      1.530     2.72     6.419713     20.34626      378.567        30     1.205     1.179  84.74   0
       198    948.5253    438.0123 300.3400501 +22.8035035     571.8636     72.13488      1.583     4.48     5.535806     20.34626     53.48989        13     1.060     0.958  -4.17   0
       199     64.3037    429.7841 300.0672949 +22.5363687     397.4068     72.02461      1.828     2.67     6.350723     20.34626     40.20701         5     0.736     0.435 -75.42   0
       200    359.6865    426.4905 300.1602538 +22.6239227     263.5084     72.28165      1.203     5.16     6.222104     20.34626     39.26028         9     0.949     0.794  -7.88   0
       201    593.3909    426.0157 300.2331949 +22.6937696      253.175       72.043      1.479     4.80     6.395488     20.34626     26.33835         5     1.001     0.653  -0.61   0
       202    427.4677    425.9133 300.1815439 +22.6440575     476.6045     72.22665      1.731     3.65     6.361581     20.34626     42.65209         7     0.991     0.727 -21.56   0
       203    973.7938    424.3972 300.3523549 +22.8071456     328.1835     71.93259      1.703     3.45      5.35564     20.34626     25.31654         5     0.772     0.447 -18.50   0
       204    999.3687    417.8446 300.3624643 +22.8129107     1372.927      72.1716      1.856     4.31     5.165504     20.34626     117.9812        23     1.498     1.107 -34.63   0
       205    871.2318    417.9941 300.3224277 +22.7746193     464.1344     72.11652      1.485     5.02     5.818207     20.34626     53.99982         8     1.235     0.578 -41.03   0
       206    957.7708    416.6357 300.3498725 +22.8001192     971.5052     72.13488      1.851     4.78     5.443728     20.34626     84.20734        17     1.363     1.042  22.97   0
       207    698.5087    412.8304 300.2702364 +22.7214452     1087.006     72.06139      1.520     2.87     6.302453     20.34626     123.0801        19     1.139     1.022 -36.30   0
       208    494.3635    413.1909 300.2065052 +22.6604335     437.4635     72.11652      1.448     4.39     6.320847     20.34626     54.29294         7     1.225     0.447  63.29   0
       209    202.8977    410.8710 300.1165317 +22.5724670     618.9133     72.24498      1.652     4.09     6.125084     20.34626     65.70453        12     1.214     0.778 -81.79   0
       210    264.6918    406.3211 300.1372333 +22.5896726     3855.957     72.26331      1.683     3.26     6.132423     20.34626     370.9434        33     1.298     1.207  50.29   0
       211    997.9299    405.2532 300.3661009 +22.8088571     4391.236     72.11652      1.749     3.32     5.222727     20.34626     396.7909        38     1.443     1.275 -74.93   0
       212    211.9001    401.0155 300.1225298 +22.5723330     7676.952     72.02461      1.711     3.38     6.117685     20.34626     625.8196        48     1.442     1.343  56.58   0
       213    590.7819    401.1511 300.2404499 +22.6858403     205.1782     72.15324      1.156     3.97     6.345558     20.34626     41.68612         5     0.733     0.706  76.07   0
       214    977.8549    396.1335 300.3627937 +22.8002281     1754.282      72.1716      1.716     3.44     5.398096     20.34626     166.4366        25     1.318     1.140  72.47   0
       215    352.6702    395.4193 300.1681511 +22.6128931     4912.207     72.13488      1.625     3.07     6.165477     20.34626       497.78        37     1.370     1.180  56.31   0
       216    596.9388    392.2461 300.2452577 +22.6851232     18644.54     72.13488      1.531     2.88     6.322134     20.34626     1923.963        60     1.361     1.307 -72.36   0
       217    614.6193    392.1996 300.2507825 +22.6904025     827.8932       72.043      2.013     5.99     6.318243     20.34626     60.12936        15     1.559     0.747 -54.50   0
       218    440.0640    392.7275 300.1962338 +22.6382923     287.8923     72.15324      1.552     5.01     6.329601     20.34626     27.87785         6     1.254     0.566  27.41   0
       219    454.2131    387.8050 300.2022370 +22.6411144     310.3278     71.98782      1.224     3.83     6.315146     20.34626     25.99336         5     1.219     0.344  79.07   0
       220    793.8342    382.6694 300.3097466 +22.7412992     387.5602     72.11652      1.364     3.41     5.888067     20.34626     45.56686         7     0.924     0.683  44.35   0
       221    216.9725    379.4985 300.1310883 +22.5676715     408.8513     72.06139      1.821     4.91     6.113574     20.34626     42.91328         8     1.167     0.585 -33.64   0
       222    930.5195    375.1601 300.3548253 +22.7800336     836.9948     72.07977      1.706     3.44     5.795257     20.34626     67.77338        13     1.005     0.881  42.83   0
       223    467.4617    374.0083 300.2108390 +22.6411159     355.9963     72.06139      1.566     3.17     6.296426     20.34626     42.69412         5     0.775     0.581   0.97   0
       224    151.7060    372.0504 300.1132031 +22.5459785     1862.422     72.18995      1.659     3.62     6.182176     20.34626     175.3044        28     1.301     1.252  70.68   0
       225    537.5830    361.6795 300.2366804 +22.6585662     6572.896     72.11652      1.550     2.70     6.315324     20.34626     740.1786        39     1.296     1.196  77.95   0
       226    951.3531    362.3940 300.3654689 +22.7825923     1108.839     72.09814      1.555     3.40     5.719337     20.34626     106.8408        19     1.135     1.027  27.58   0
       227    252.5076    360.9606 300.1481578 +22.5729907     666.1643     72.11652      1.599     3.84     6.075373     20.34626     83.20989        14     1.290     0.831  13.96   0
       228    797.5190    353.9810 300.3202031 +22.7341497     436.3106     72.09814      1.438     2.15     5.861691     20.34626      46.9888         6     0.736     0.499  87.60   0
       229    110.3410    354.1124 300.1061581 +22.5284325     560.1744     72.18995      1.565     4.30     6.338601     20.34626     46.77347         9     1.036     0.697 -10.53   0
       230    742.0508    350.5428 300.3040206 +22.7165630     1315.539      72.1716      1.815     3.74     5.858476     20.34626     121.6721        20     1.351     0.992 -83.18   0
       231    650.9683    352.0273 300.2751439 +22.6897315     478.4955     72.11652      1.513     4.42     6.238692     20.34626     56.21221         9     0.990     0.715  15.35   0
       232    444.2273    347.8521 300.2120882 +22.6266407     6298.828     72.13488      1.577     3.04     6.297147     20.34626     623.9341        37     1.266     1.216  39.35   0
       233    836.1863    342.6983 300.3359240 +22.7424731     1468.315     72.02461      1.630     3.30     5.862916     20.34626     140.1413        23     1.174     1.161 -41.17   0
       234    933.6564    342.8524 300.3662854 +22.7716758     619.2647      72.1716      1.576     4.21     5.856439     20.34626     68.27335        13     1.061     0.970 -68.75   0
       235    429.4426    336.7638 300.2110809 +22.6190266     383.6187      72.1716      1.413     3.58      6.30609     20.34626     65.62514         8     1.090     0.707  -4.76   0
       236    511.6378    334.6985 300.2373502 +22.6430421     411.8583     72.11652      1.467     3.81     6.299273     20.34626     55.03214         7     0.860     0.692  30.38   0
       237    541.0876    333.0530 300.2470582 +22.6513853     7712.466     72.15324      0.465     1.99     6.312762     20.34626     5857.618         9     0.376     0.329 -81.09   0
       238    809.1390    330.2537 300.3315242 +22.7308008     519.2941      72.1716      1.431     3.87     5.835734     20.34626     57.44376        11     0.978     0.856  70.24   0
       239    331.8312    327.0132 300.1838549 +22.5869944     2536.588     72.09814      1.543     3.01     6.103831     20.34626      248.073        28     1.207     1.149  62.54   0
       240     50.5936    324.3159 300.0972461 +22.5019722     890.0973       72.043      1.703     3.45     6.560394     20.34626     86.98076        15     1.050     0.969 -11.20   0
       241    301.1280    316.3886 300.1777448 +22.5747460     29943.44     72.13488      1.640     3.01     6.132787     20.34626     2882.927        73     1.450     1.377  69.88   0
       242    835.9377    314.3662 300.3450366 +22.7342476     1510.577     72.11652      1.601     2.96     5.834399     20.34626     158.8872        21     1.109     1.063  60.93   0
       243    552.8185    311.4571 300.2577176 +22.6486876     4671.544     72.11652      0.714     1.22     6.297473     20.34626     2193.658         8     0.599     0.369  67.20   0
       244    556.6720    306.9870 300.2603680 +22.6485558     1489.652     72.13488      0.552     0.87     6.286664     20.34626     881.1756         6     0.469     0.354   0.46   0
       245    750.9930    303.2810 300.3221390 +22.7056443     503.2347       72.043      1.468     2.66     5.795349     20.34626     55.76728         8     0.793     0.707   4.69   0
       246    175.6132    302.5292 300.1431880 +22.5331694     472.5285     72.11652      1.800     3.86      6.30894     20.34626     38.72983         5     1.051     0.406  73.89   0
       247    399.9217    301.9595 300.2131774 +22.6001832      400.683     72.09814      1.297     2.55     6.281046     20.34626     60.66528         8     0.793     0.652 -38.71   0
       248    711.7183    296.4427 300.3121109 +22.6919255     1872.463     72.07977      1.591     2.83     5.803659     20.34626     198.4793        26     1.176     1.163  67.91   0
       249    578.3111    298.6295 300.2698208 +22.6526296     224.9519     72.09814      1.111     3.46     6.225509     20.34626     40.84763         5     0.741     0.466 -12.79   0
       250    519.9042    290.7933 300.2541652 +22.6328937     399.3894     72.00622      1.621     5.17     6.317071     20.34626     39.69302         7     1.105     0.683  54.08   0
       251    926.9026    289.0533 300.3816280 +22.7541742     472.6771      72.2083      1.512     4.79     5.835665     20.34626     55.56452        13     1.099     0.953  23.15   0
       252    373.3381    280.7475 300.2117800 +22.5861264     2181.752      72.1716      1.772     3.77     6.266207     20.34626     199.4292        26     1.435     1.061  60.96   0
       253    585.9645    279.9893 300.2782507 +22.6495601     371.6638     72.11652      1.719     3.58     6.161433     20.34626     40.49117         5     0.676     0.545  -0.13   0
       254    812.6985    274.0209 300.3508726 +22.7156876     569.2233       72.043      1.486     3.94     5.859242     20.34626     59.84622        12     1.028     0.836  62.84   0
       255    695.0378    271.4829 300.3150051 +22.6797548      496.742     72.07977      1.733     5.34     5.778085     20.34626     48.41234         9     1.075     0.749 -70.10   0
       256    663.4394    270.8076 300.3053739 +22.6701052     273.6668     72.15324      1.590     4.39     5.816237     20.34626      36.5292         6     0.931     0.589  17.76   0
       257    449.2713    260.4248 300.2420133 +22.6030182     1155.262     72.11652      1.526     3.14     6.313537     20.34626     130.8109        20     1.140     1.041  41.33   0
       258    534.4857    258.0486 300.2693262 +22.6278429     408.8409     72.09814      1.479     4.07     6.320967     20.34626     36.78366         5     0.897     0.527 -45.31   0
       259    832.2995    253.8735 300.3635201 +22.7157540     290.2865     72.24498      1.446     3.64     5.960155     20.34626     38.68213         5     0.751     0.697  36.01   0
       260    694.2129    252.2893 300.3209719 +22.6739868     2343.591     72.06139      1.545     2.77     5.778319     20.34626     236.8397        27     1.187     1.120 -20.02   0
       261    955.4543    246.8692 300.4042186 +22.7505724     3165.696     72.15324      1.723     3.06     6.004546     20.34626     275.5612        34     1.314     1.256  75.06   0
       262   1016.9771    241.4389 300.4251837 +22.7674063     466.8163     72.13488      2.084     5.86     6.074007     20.34626     27.13582         7     1.262     0.765 -26.63  16
       263   1023.6832    234.8391 300.4294173 +22.7675115     552.7515     56.00805      1.156     3.72     6.142032     20.34626     124.8269        10     1.238     0.465  88.72  24
       264    402.4278    236.0471 300.2353309 +22.5819862     629.0558     72.13488      1.680     3.78     6.297384     20.34626     58.26859        12     1.074     0.873   7.95   0
       265     77.1617    229.9106 300.1361179 +22.4828147     1477.261     72.09814      1.881     4.65     6.535424     20.34626     111.2851        33     1.700     1.222 -30.77   0
       266    108.4772    230.1629 300.1457733 +22.4922679     440.9678     72.07977      1.532     3.98     6.453109     20.34626     54.15503        11     1.084     0.917 -23.25   0
       267    971.3767    227.7651 300.4153827 +22.7498349     524.6973     72.13488      1.646     4.72     6.138178     20.34626     45.56972         9     1.009     0.752   5.14   0
       268    161.9908    222.0342 300.1650511 +22.5059612     506.2184     72.09814      1.627     3.70     6.390152     20.34626     42.90104         5     0.664     0.593   0.20   0
       269     16.8755    219.5925 300.1207213 +22.4617901     312.8408       72.043      1.708     4.77     6.794777     20.34626     30.65801         6     1.031     0.626 -69.66   0
       270    837.8083    216.2916 300.3774242 +22.7065872     333.7166     72.02461      1.518     3.64     6.116198     20.34626     43.80764         5     0.876     0.435 -47.56   0
       271    765.8979    214.0032 300.3557372 +22.6844187     589.4865     72.02461      1.481     3.17     5.986179     20.34626     70.18837        11     0.999     0.722   2.99   0
       272    355.8913    213.3730 300.2281940 +22.5615356     439.5819     72.06139      1.551     2.38     6.283731     20.34626     53.62381         7     0.767     0.611  26.64   0
       273    856.3554    207.3181 300.3861195 +22.7095522     336.4767     72.07977      1.453     5.25     6.141846     20.34626      43.1696         8     1.013     0.768  68.32   0
       274    901.7083    206.9942 300.4003748 +22.7230226     209.8898     72.02461      1.318     4.13     6.114697     20.34626     35.34607         5     0.820     0.595   0.74   0
       275    863.9683    202.8284 300.3899501 +22.7105369      2168.23     72.11652      1.641     3.03     6.152322     20.34626     208.6239        28     1.304     1.253  78.85   0
       276    282.4793    199.7038 300.2097760 +22.5356262     2150.189     72.22665      1.678     3.09     6.257627     20.34626     235.2178        27     1.223     1.200  57.26   0
       277    360.2805    194.9090 300.2355460 +22.5575417     1031.926     72.24498      1.633     3.62     6.324933     20.34626     91.72311        18     1.119     1.047 -41.95   0
       278    112.4543    195.7517 300.1581653 +22.4835723     311.6112     72.15324      1.258     3.14     6.476038     20.34626     39.24853         5     0.721     0.470 -72.42   0
       279    762.4487    194.3801 300.3610233 +22.6777407     563.1565     72.13488      1.563     3.97     6.098983     20.34626     58.43389        11     1.007     0.916 -79.79   0
       280    177.0374    187.2411 300.1810100 +22.5004695     685.9598      72.2083      1.534     3.49     6.413682     20.34626     70.00826        10     0.954     0.807  27.89   0
       281    294.7194    186.2220 300.2179554 +22.5354159     270.6286     72.07977      1.506     5.24     6.274718     20.34626     36.21353         5     1.084     0.716  15.95   0
       282    715.0117    184.0022 300.3495960 +22.6605642     1772.588     71.93259      1.576     3.37      6.14803     20.34626     170.4292        25     1.249     1.102  82.54   0
       283    779.9523    183.9933 300.3698492 +22.6799877     631.9272     72.11652      1.526     3.23     6.194621     20.34626     58.40237         9     0.817     0.738   7.53   0
       284    198.7813    180.6173 300.1899210 +22.5050776     519.3423     72.09814      1.552     4.23     6.392585     20.34626     60.22646         9     1.175     0.613  -2.49   0
       285    986.5267    176.8270 300.4366260 +22.7397013      852.707     72.11652      1.621     3.78     6.705491     20.34626     80.38313        17     1.104     1.047 -72.16   0
       286    719.3107    175.7424 300.3536138 +22.6594737     812.7158      72.1716      1.550     2.93     6.214019     20.34626     84.27264        13     0.955     0.873 -28.08   0
       287    639.5806    174.9768 300.3290072 +22.6354004     1188.044     72.11652      1.474     3.29     6.191221     20.34626      128.725        21     1.128     1.084 -52.30   0
       288    460.6792    171.5532 300.2743781 +22.5808796     332.2271     72.13488      1.558     4.88     6.383822     20.34626     31.43002         6     0.981     0.688 -17.92   0
       289    565.5616    166.8207 300.3085842 +22.6109066     900.8994     72.13488      1.427     3.02     6.258415     20.34626     109.7668        16     1.042     0.948  63.09   0
       290    847.4205    165.6734 300.3968323 +22.6948946     925.2688     72.13488      1.767     3.48     6.269943     20.34626     92.73158        17     1.181     0.965  59.53   0
       291    835.2454    166.4853 300.3927711 +22.6914871     1495.192     72.09814      1.618     2.79     6.276223     20.34626     164.7548        21     1.173     1.010  -7.73   0
       292   1008.0630    156.5297 300.4499284 +22.7402964     1786.208     72.15324      1.801     3.75     7.143802     20.34626     151.7759        23     1.297     1.167  84.20   0
       293    963.7333    156.0621 300.4362424 +22.7269084       1150.1     72.15324      1.635     3.55     6.602797     20.34626     103.8496        18     1.234     0.925  52.81   0
       294    197.9674    149.0011 300.1999151 +22.4957474     675.2059     72.07977      1.591     3.64     6.508341     20.34626     63.04734        13     1.096     0.836 -21.71   0
       295     59.7259    143.1833 300.1588085 +22.4526746     2219.605     72.11652      1.880     3.38     6.869836     20.34626     177.4571        31     1.394     1.291   2.95   0
       296    882.8857    140.9056 300.4159251 +22.6983714     836.1801     72.29997      1.586     3.32     6.337739     20.34626     78.15484        14     1.138     0.810   5.05   0
       297      9.4066    140.0267 300.1441891 +22.4366953     578.8561     72.11652      1.536     3.98     7.194178     20.34626     60.13252        11     0.959     0.896  38.17   0
       298    217.1036    136.5890 300.2098909 +22.4979099     5736.426     72.02461      1.726     3.15     6.582462     20.34626      577.218        44     1.435     1.328  70.58   0
       299      1.9536    131.0694 300.1447752 +22.4318894     1020.849     59.53915      1.470     3.58     7.212505     20.34626     95.88853        17     1.264     0.858 -86.26  24
       300    200.7565    127.8523 300.2076367 +22.4905039     558.9233     72.15324      1.482     2.63      6.66286     20.34626      75.9897        10     0.850     0.798  59.33   0
       301   1016.1273    124.5670 300.4628057 +22.7335042     18303.68     72.11652      1.804     3.47     7.112731     20.34626     1541.206        65     1.593     1.432 -79.99  16
       302    861.3491    118.5505 300.4164510 +22.6854965     3545.125     72.15324      1.652     2.85     6.409995     20.34626     386.3183        40     1.400     1.266 -81.41   0
       303    965.0729    117.4193 300.4491851 +22.7161836     2833.223     72.11652      1.752     3.31     6.812243     20.34626     303.7654        33     1.469     1.184  64.97   0
       304    410.5447    113.8208 300.2774768 +22.5492726     549.8307     72.13488      1.321     2.84     6.633773     20.34626     70.30349         9     1.029     0.535 -24.36   0
       305    164.1270    114.4267 300.2005931 +22.4756770     385.0348     72.11652      1.605     4.55     6.780572     20.34626     37.53125         7     1.266     0.465 -25.25   0
       306    524.8220    111.2200 300.3139116 +22.5827233     341.4882     72.11652      1.679     4.31     6.278896     20.34626     30.17056         5     0.844     0.627 -33.43   0
       307    334.7619    105.4562 300.2565943 +22.5241844     712.0107     72.11652      2.553     3.64      6.92338     20.34626     52.42022         9     0.997     0.693 -23.26   0
       308    101.3264    102.5947 300.1848961 +22.4534705     675.5897     72.06139      1.761     4.34     6.860565     20.34626     55.85653        10     1.121     0.626 -51.35   0
       309    462.1553    100.7259 300.2977923 +22.5609524     1749.503     72.09814      1.623     3.16     6.478824     20.34626     174.0326        23     1.237     1.071 -89.12   0
       310    523.7255    100.0307 300.3171960 +22.5791766     474.6291     72.13488      1.700     3.89     6.268898     20.34626     39.87304         5     0.835     0.521  36.02   0
       311    205.9194     96.6115 300.2193662 +22.4830700     414.6193     72.09814      1.461     3.85     6.895577     20.34626     47.41784         6     1.095     0.388 -16.74   0
       312    598.3870     87.2438 300.3446024 +22.5978363     311.1526     72.11652      1.283     3.67     6.329163     20.34626      36.9323         5     0.855     0.580 -38.43   0
       313    895.9549     85.5645 300.4379378 +22.6863481     437.2622     72.15324      1.841     4.42     6.674675     20.34626     46.18587         7     1.107     0.503 -27.04   0
       314   1023.4888     83.4693 300.4784225 +22.7238702     415.2754     57.27102      1.405     4.64     7.010346     20.34626     49.67279         7     1.323     0.461 -81.04  24
       315    742.6861     81.4968 300.3914468 +22.6393454     447.0583     72.29997      1.660     4.97     6.798054     20.34626     37.09799         7     0.982     0.712  46.26   0
       316    236.1088     80.4497 300.2339954 +22.4874625     6030.647     72.13488      1.720     3.25     6.938243     20.34626     569.8192        42     1.445     1.316  80.20   0
       317     87.6404     80.2835 300.1878696 +22.4429601     882.3126     72.07977      2.012     2.80     6.909074     20.34626     74.73212        13     1.010     0.791 -52.79   2
       318    865.7215     78.7355 300.4307174 +22.6753427     222.3387      72.2083      1.380     4.68     6.539514     20.34626     29.50647         7     1.112     0.559 -25.06   0
       319    482.2285     65.9058 300.3153267 +22.5569440     6132.659       72.043      1.617     3.05     6.797902     20.34626     550.8035        46     1.449     1.298  83.29   0
       320    367.8736     65.9197 300.2797123 +22.5227265     615.2346     72.22665      1.536     3.51     7.069825     20.34626     71.52572        12     1.075     0.832  -6.98   0
       321    539.9847     60.7145 300.3350005 +22.5727315     238.6978     72.07977      1.132     3.81     6.704422     20.34626     41.16792         5     0.819     0.508 -54.87   0
       322    734.8936     56.1966 300.3972145 +22.6297334     792.6704     72.02461      1.778     3.66     7.034913     20.34626     71.92218        10     0.947     0.699  87.07   0
       323    676.2042     57.6094 300.3784587 +22.6125870     338.2542       71.951      1.249     2.89      6.95709     20.34626      33.1755         5     0.723     0.454 -18.37   0
       324    826.9894     54.7171 300.4264165 +22.6568474     416.2752     72.07977      1.477     3.85     6.734033     20.34626     53.75583         9     1.015     0.622  53.66   0
       325    175.1428     49.9443 300.2249120 +22.4604408     474.8313     72.18995      1.473     3.65     6.984509     20.34626     45.86196        10     0.924     0.733   5.95   0
       326    533.6304     48.5791 300.3369525 +22.5673392     406.2043     72.11652      1.325     3.72     6.882851     20.34626       52.432         7     0.870     0.657   5.60   0
       327    610.6135     46.0736 300.3617519 +22.5896483     6408.582     72.13488      1.633     3.08     6.898916     20.34626     625.2871        41     1.400     1.255  79.44   0
       328    385.6184     45.1124 300.2919779 +22.5220533     1260.782     72.06139      1.486     2.98     7.151772     20.34626     155.4566        20     1.140     1.027 -55.93   0
       329    651.6565     43.7126 300.3753090 +22.6012457     883.9717      72.1716      1.513     3.11     7.054939     20.34626     97.82652        15     1.037     0.913 -48.68   0
       330    667.6213     39.7142 300.3815809 +22.6048701     458.1772       72.043      1.470     3.25     7.153333     20.34626     62.75597        10     1.011     0.760  30.40   0
       331    937.6812     37.6387 300.4664873 +22.6850236     452.4409     72.07977      1.363     3.21     6.868236     20.34626     68.13486         8     0.991     0.808   0.12   0
       332    134.2598     37.6838 300.2161678 +22.4446760     773.9948     72.22665      1.936     3.67      6.96226     20.34626     81.40951        14     1.182     0.889  -7.14   0
       333    706.0172     35.6337 300.3948728 +22.6151793      352.422     72.09814      1.233     3.76     7.220016     20.34626     51.45938         8     0.995     0.592  22.84   0
       334    654.8535     31.0502 300.3804077 +22.5985581     2808.112     72.15324      1.586     3.01     7.225994     20.34626     265.0757        28     1.256     1.125 -68.40   0
       335    295.2167     31.8950 300.2681191 +22.4911961     375.3115       72.043      1.613     4.97     7.039618     20.34626      42.6614         7     1.170     0.597   9.19   0
       336    669.9262     30.2383 300.3853692 +22.6028325     851.1592     72.06139      1.934     4.13     7.279324     20.34626     68.80177        16     1.185     1.039  43.56   0
       337    741.3474     22.7881 300.4100503 +22.6220477     1525.318     72.11652      1.622     3.06      7.31586     20.34626     146.2562        22     1.239     1.019  42.26   0
       338    819.6605     17.0495 300.4363335 +22.6438124     331.2026      72.1716      1.397     4.29     6.855225     20.34626      32.9975         7     0.780     0.673 -76.94   0
       339    679.1732     16.0153 300.3928593 +22.6015048     684.1988     72.13488      1.452     3.10     7.450131     20.34626     76.62849        10     0.893     0.835 -50.21   0
       340    188.0907   1002.7387 299.9196578 +22.7379219     1924.724      72.2083      4.444    17.69     84.89205     20.34626     50.82735        71     3.526     2.467  62.41  19
       341     57.8174     15.2534 300.1996635 +22.4153402       670.27     72.09814      1.856     5.82     6.829572     20.34626     46.32644        11     1.336     0.713  -2.84   0
       342    284.1862   1011.7926 299.9466066 +22.7693442     702.5908     72.00622      1.946     4.90     13.77824     20.34626     77.02916        17     1.409     1.237 -11.04   0
       343   1020.3486   1010.4553 300.1764694 +22.9895968     407.5506     70.68796      2.075     4.24     3.700604     20.34626     36.78213         6     1.078     0.475  55.45  16
       344    121.2516   1006.1425 299.8977657 +22.7188460     1492.016      72.1716      3.570    13.23     89.34853     20.34626     60.96608        34     2.759     1.766 -13.11   2
