#   1 NUMBER                 Running object number                                     
#   2 X_IMAGE                Object position along x                                    [pixel]
#   3 Y_IMAGE                Object position along y                                    [pixel]
#   4 ALPHA_J2000            Right ascension of barycenter (J2000)                      [deg]
#   5 DELTA_J2000            Declination of barycenter (J2000)                          [deg]
#   6 FLUX_APER              Flux vector within fixed circular aperture(s)              [count]
#   7 FLUXERR_APER           RMS error vector for aperture flux(es)                     [count]
#   8 FLUX_RADIUS            Fraction-of-light radii                                    [pixel]
#   9 FWHM_IMAGE             FWHM assuming a gaussian core                              [pixel]
#  10 BACKGROUND             Background at centroid position                            [count]
#  11 THRESHOLD              Detection threshold above background                       [count]
#  12 FLUX_MAX               Peak flux above background                                 [count]
#  13 ISOAREA_IMAGE          Isophotal area above Analysis threshold                    [pixel**2]
#  14 A_IMAGE                Profile RMS along major axis                               [pixel]
#  15 B_IMAGE                Profile RMS along minor axis                               [pixel]
#  16 THETA_IMAGE            Position angle (CCW/x)                                     [deg]
#  17 FLAGS                  Extraction flags                                          
         1    508.1867     15.8585 300.3326374 +22.5431603     1084.214     72.27951      1.410     3.29     5.388321     20.39744     130.5354        17     1.155     0.933  81.09   8
         2    412.0111     13.9265 300.3033164 +22.5138167     806.1115     72.31634      1.466     3.23     5.642841     20.39744     98.14395        12     0.961     0.925 -23.97   0
         3    751.8307      4.5010 300.4122388 +22.6127985     755.7398     70.35669      1.718     3.56     5.172163     20.39744      89.5032        11     1.060     0.969 -65.69  16
         4    183.3858      3.8342 300.2354474 +22.4424610       3970.4     68.20436      1.667     3.11     5.796751     20.39744     426.5777        34     1.385     1.186  42.82  24
         5     81.3692     15.5839 300.1999200 +22.4152802     635.1534     72.27951      1.789     3.61     5.536114     20.39744     70.05534        10     1.063     0.723  84.56   0
         6    162.5909   1010.7637 299.9020688 +22.7251782     460.9283     72.29793      2.139     7.23     92.93376     20.39744     35.04099         9     1.704     0.859 -65.16   0
         7     98.6810   1011.0849 299.8820968 +22.7060875     4438.199     72.42672     15.465    83.89     86.73429     20.39744     157.9476      1783    16.073    12.465  44.42  27
         8     88.3873    944.3489 299.9006060 +22.6838711     5835.012     72.33475     29.365    10.26      22.1963     20.39744     1310.088      4853    21.952    17.519 -67.38  19
         9    249.8534    974.4661 299.9410134 +22.7409601      8278.14     72.33475     11.609    38.65     34.61277     20.39744     180.0762      1035    12.695     5.664  66.77  19
        10    185.4723    992.4841 299.9151301 +22.7268057     2178.437     72.40833      6.968    15.80     74.25298     20.39744     62.91756        58     3.818     1.819 -80.76   3
        11      4.7839    979.0235 299.8633473 +22.6687130     1899.503     71.12831     17.242    26.98    -16.75634     20.39744      47.4873       137     5.507     3.670  63.77  27
        12      4.9825   1015.4684 299.8515530 +22.6792154     3470.349     71.59473     12.548    50.12    -31.24517     20.39744     80.15225       527     9.834     7.088 -59.71  27
        13    183.9702   1007.4426 299.9097967 +22.7306427     399.3209     72.33475      1.592     4.68     87.31534     20.39744     32.02357         5     1.022     0.609 -67.71   1
        14    558.8466    991.7092 300.0315766 +22.8385945     2435.313     72.27951      1.994     4.67     3.482376     20.39744      160.207        32     1.440     1.364  82.99   0
        15    645.3904    987.2037 300.0600023 +22.8632525     8742.945       72.132      2.043     4.85     3.601836     20.39744     447.5787        50     1.599     1.483  48.79   3
        16    651.0308    984.7342 300.0625632 +22.8642350      9351.35     72.29793      1.985     4.62     3.618545     20.39744     576.2263        48     1.562     1.434  46.78   3
        17    745.3395    987.7441 300.0909751 +22.8933721     626.9031     72.37155      1.805     5.80     4.102506     20.39744     47.98256        16     1.288     1.041  14.12   0
        18    179.7661    977.3306 299.9182854 +22.7207494     1757.383     72.29793      4.282    10.22     62.05575     20.39744     65.31943        24     2.051     1.421  20.00   3
        19    177.5987    973.7296 299.9187829 +22.7190667     1467.603     72.22423      5.094    10.40     59.79713     20.39744     47.70798        23     2.039     1.479  71.96   3
        20    231.2372    984.6486 299.9319109 +22.7382932     5527.953     72.31634      8.470    27.99     57.39823     20.39744       116.19       400     6.540     4.827 -73.99  19
        21   1006.8647    970.4293 300.1781761 +22.9667754     201.9818     72.31634      1.483     4.56     4.614201     20.39744     30.16144         5     1.050     0.627 -62.40   0
        22    938.1637    970.6861 300.1566562 +22.9462652     661.3365     72.27951      1.865     7.34     3.713753     20.39744     46.74076        17     1.349     1.117  19.59   0
        23      5.0758    993.6288 299.8586869 +22.6729857     2897.057      71.7619      9.654    20.08    -22.79335     20.39744     56.74652       119     3.831     2.925  -5.72  27
        24    161.7525    958.8069 299.9187100 +22.7100336     1064.548     72.31634      9.605    13.35     49.81728     20.39744     38.43908        24     2.856     1.735   9.06   3
        25    156.6728    955.2721 299.9182804 +22.7074958     1780.396     72.35315     10.385    14.57     45.94597     20.39744     48.34178        34     5.022     1.175 -29.95   3
        26    663.8904    954.1787 300.0765105 +22.8593222     6932.417     72.22423      1.942     4.38     3.790417     20.39744     398.0226        47     1.606     1.381  31.95   0
        27    148.1867   1008.8929 299.8981991 +22.7203187     671.7689     72.22423      2.251     8.46     90.10107     20.39744     34.22362        14     1.528     1.309  83.15   3
        28    255.1147    948.1882 299.9511976 +22.7350045     624.9742     72.24266      1.836     6.35     18.00038     20.39744     50.16399        14     1.364     0.954  39.42   0
        29    816.0175    946.5687 300.1264052 +22.9027376     494.1292     72.27951      2.253     4.55     3.791684     20.39744     32.03988         6     0.994     0.590  64.10   2
        30    144.1508   1010.7468 299.8963413 +22.7196387     886.8978     72.33475      2.183     5.42     91.38389     20.39744     41.08489         8     1.205     0.687  45.16   3
        31    572.1642    944.9092 300.0509493 +22.8291608     1510.225     72.27951      1.905     4.83     3.676055     20.39744     110.9016        24     1.330     1.293  48.33   0
        32    143.4134   1006.4584 299.8975072 +22.7181883     1218.121     72.27951      2.925    11.61     87.00504     20.39744     59.05053        34     3.300     1.138 -33.80  18
        33    466.0186    941.1353 300.0191225 +22.7962474      1039.46     72.26109      1.934     4.74     3.775139     20.39744     77.77367        22     1.289     1.228  20.74   0
        34    396.6877    939.2438 299.9981560 +22.7749105     6513.118     72.29793      1.865     4.20      3.98142     20.39744     479.3671        42     1.453     1.397  81.40   0
        35    748.7480    941.1740 300.1071877 +22.8810272     356.2881     72.31634      1.610     3.92     4.075947     20.39744     32.06805         6     1.227     0.358 -27.51   0
        36    211.6861   1004.2869 299.9194419 +22.7380559     1981.667     72.42672      4.104    23.04     81.55962     20.39744     56.34951        95     5.206     2.833  13.33  19
        37    131.8728    925.0997 299.9203838 +22.6914041     1366.609     72.46348      7.997     9.10     18.00572     20.39744     39.34208        22     2.512     0.921  72.01   3
        38    243.9827   1000.8113 299.9306169 +22.7467514     2674.136     72.26109      5.157    20.52      56.5849     20.39744     84.58068       115     4.515     2.590   0.78  19
        39    944.0000    919.0065 300.1752886 +22.9331738     1350.721     72.09508      1.782     5.16     3.952755     20.39744     112.7053        15     1.749     0.752 -68.94   3
        40    942.0000    917.9882 300.1749959 +22.9322822     1437.333     72.09508      1.625     4.80     3.936438     20.39744     122.6486        18     1.425     0.797 -87.78   3
        41    429.4427    926.3368 300.0125494 +22.7810327     373.2034     72.29793      1.760     6.42     3.900418     20.39744     46.41995         9     1.234     0.939  -3.08   0
        42    731.9121    907.0808 300.1130291 +22.8661947     847.1671     72.42672      2.131     7.38     4.075428     20.39744     53.01685        20     1.673     1.287  74.79   0
        43    766.5592    901.3364 300.1256977 +22.8749299     1017.873     72.27951      1.685     4.28     3.998554     20.39744     87.25922        19     1.206     1.092  47.88   0
        44    543.6595    901.9703 300.0560371 +22.8082934     430.8527     72.31634      1.820     5.40     3.666631     20.39744     47.59569         7     1.234     0.668 -11.16   0
        45    128.2922    897.6161 299.9282085 +22.6824509     1233.973     72.22423      9.185     9.79      12.4745     20.39744     35.12953        19     1.880     1.422 -41.23   1
        46    788.9385    894.9137 300.1347636 +22.8797929     11361.81     72.38995      1.865     4.27     3.935704     20.39744      739.244        50     1.479     1.416  61.71   0
        47    192.7198   1005.6620 299.9130966 +22.7327582     159.1648     72.40833      1.493     3.52     85.45986     20.39744     42.15723         5     1.021     0.641 -60.50   1
        48    979.8033    895.2262 300.1941944 +22.9370703     373.2951     72.26109      2.151     5.30     4.291979     20.39744     33.51188         8     1.371     0.578  10.44   0
        49    834.4832    894.9058 300.1489675 +22.8934390     390.0254     72.48184      1.673     4.91      3.88787     20.39744     44.12835         6     1.056     0.647 -35.57   0
        50    138.9697    891.0336 299.9336684 +22.6837678     678.3326     72.31634      5.342     5.32     12.32217     20.39744     28.95247         5     1.480     0.539  11.36   0
        51    100.1728    886.6015 299.9230491 +22.6708550     1193.571     72.24266      7.249     6.63     8.197245     20.39744     60.33643        24     1.624     1.389  19.54   0
        52    137.4930    885.1360 299.9351270 +22.6816339     2112.992     72.40833      0.738     3.65     10.90893     20.39744     661.6291        12     0.687     0.558 -44.93   0
        53    183.8322    998.1360 299.9127814 +22.7279336     2765.109     72.29793      5.488    21.83     79.55598     20.39744     74.86837       127     5.158     2.566  24.84  19
        54    840.8076    882.0532 300.1551197 +22.8916437     414.3347     72.29793      1.917     5.34      3.90376     20.39744     31.67983         8     1.394     0.577  59.95   0
        55    493.9904    883.0331 300.0467283 +22.7879667     525.6474     72.27951      1.883     4.36     3.860085     20.39744     43.07793        10     1.273     0.893  11.34   0
        56    212.2214    986.0427 299.9255436 +22.7329866     4183.593     72.33475      8.169    23.45      65.3307     20.39744     84.39333       330     5.632     5.006  89.70   3
        57    797.6272    876.9761 300.1433062 +22.8772467     1562.252     72.27951      1.896     4.77     3.910582     20.39744     91.54005        26     1.372     1.263  77.38   0
        58    979.9568    876.6335 300.2002891 +22.9317761     568.9898     72.35315      2.100     5.12     4.300636     20.39744     45.60572         8     1.088     0.990  67.12   0
        59    649.6903    874.0701 300.0981408 +22.8320743     547.8677     72.46348      2.197     5.38     3.921061     20.39744     42.51578         8     1.244     0.657  -7.32   0
        60    835.9633    870.5405 300.1573530 +22.8868864      861.051     72.31634      2.218     7.45      3.91799     20.39744     62.65666        18     1.348     1.152  14.31   0
        61    883.7755    862.2314 300.1749665 +22.8988260     601.5285     72.29793      1.815     5.20      3.94748     20.39744     51.47759        12     1.184     0.801  18.71   0
        62    735.5615    860.8478 300.1292020 +22.8540165     714.2223     72.31634      1.694     3.46      4.02646     20.39744     78.32761        13     1.132     0.787  57.58   0
        63    746.0000    858.1963 300.1333181 +22.8563836     578.4351     72.05814      1.889     4.19      4.00595     20.39744      53.7586        10     1.415     0.597 -80.32   2
        64    447.8534    856.9301 300.0408518 +22.7666427     4228.577     72.29793      1.704     3.76     3.973172     20.39744     366.8229        32     1.338     1.242  43.28   0
        65    226.6128    845.3597 299.9757719 +22.6969673     389.8175     72.29793      1.649     5.39     5.239711     20.39744     32.41636         7     1.154     0.710  54.76   0
        66    173.3139    842.3931 299.9601618 +22.6801267     852.0679     72.22423      2.336     4.68     6.128237     20.39744     63.84246        14     1.266     0.985  17.76   0
        67    150.0939    839.6036 299.9538491 +22.6723602     1669.017      72.2058      2.048     5.03      6.17002     20.39744     128.6084        30     1.607     1.295  24.30   0
        68    777.3652    836.2360 300.1502366 +22.8594778     256.7855     72.37155      1.210     3.40     3.932431     20.39744      30.9992         5     1.202     0.278 -34.81   0
        69   1022.0117    828.9590 300.2289161 +22.9306779      1916.08     64.80097      1.851     4.48     4.743848     20.39744     143.9241        28     1.388     1.310 -87.32  24
        70     25.5189    829.3420 299.9184645 +22.6320374     301.3918     72.35315      1.703     5.86     4.671596     20.39744     34.51971         9     1.096     0.881  24.67   0
        71    976.3959    827.5357 300.2151436 +22.9166066     2170.907     72.27951      1.871     4.75     4.410899     20.39744     152.8687        30     1.429     1.275  35.68   0
        72    681.9167    827.7412 300.1232472 +22.8284350     528.2617     72.40833      2.405     6.20     3.887887     20.39744     41.93475         9     1.459     0.741 -54.79   0
        73    759.7892    821.3796 300.1495876 +22.8499454     707.5186     72.27951      1.588     3.39     3.934345     20.39744     65.03735        14     1.005     0.943  49.82   0
        74    183.3818    821.2960 299.9701511 +22.6770974       438.46      72.2058      1.600     3.39     5.362679     20.39744     42.20066         5     0.778     0.428  69.33   0
        75    627.9395    815.1008 300.1105376 +22.8086284     4976.248     72.38995      1.655     3.48      3.91744     20.39744     406.6296        38     1.334     1.315 -55.61   0
        76    430.0848    812.2314 300.0498529 +22.7484899     510.6014     72.29793      1.377     5.04     4.239214     20.39744     65.92547         9     1.035     0.693 -28.17   0
        77    178.2775    808.5760 299.9726989 +22.6719185     1312.556     72.31634      1.828     3.66     5.050008     20.39744     150.4746        24     1.339     1.149  37.28   0
        78    648.4041    807.8230 300.1192799 +22.8126730      612.473     72.26109      1.550     3.73      3.89099     20.39744     61.67634        14     1.095     0.865  32.66   0
        79    197.7050    806.2414 299.9794990 +22.6770770     397.5521     72.31634      1.536     5.56      4.88231     20.39744     42.19587         8     1.142     0.762 -26.09   0
        80   1021.0048    795.4464 300.2394978 +22.9207483     1166.953     68.78748      1.903     4.85     4.824883     20.39744     85.74356        24     1.388     1.230  31.96  24
        81    804.0565    794.9608 300.1719780 +22.8556233      4152.82     72.29793      1.693     3.71      3.91245     20.39744     329.3217        31     1.309     1.234  60.22   0
        82    212.2888    789.1022 299.9896056 +22.6765364     410.0362     72.48184      1.552     3.55     4.706347     20.39744     45.56202         9     0.927     0.670 -19.17   0
        83    520.8120    786.8549 300.0863507 +22.7684091     692.5535     72.31634      1.653     5.28     4.036003     20.39744     70.30184        14     1.140     1.001 -27.38   0
        84    167.1746    785.0770 299.9768850 +22.6618488     990.5448     72.31634      1.793     4.34     4.797972     20.39744     87.94405        21     1.290     1.165  69.47   0
        85    583.2129    780.6030 300.1078184 +22.7853199     596.5817       72.132      1.919     6.43     4.035892     20.39744      38.1123        11     1.636     0.710  69.35   2
        86    316.9712    777.3070 300.0260029 +22.7045504     54093.14     72.24266      1.696     3.48     4.499812     20.39744     5444.009        95     1.498     1.424  38.42   0
        87    987.8892    775.9080 300.2355148 +22.9052174     865.4419     72.46347      1.856     5.10     4.612267     20.39744     58.01551        17     1.265     1.165  29.95   0
        88    574.9478    776.4807 300.1065838 +22.7816593     1661.413     72.31634      1.547     3.49         4.06     20.39744     159.0751        19     1.106     1.072 -65.14   0
        89    245.7745    775.4095 300.0044709 +22.6826531     503.3904     72.29793      1.613     3.54     4.615842     20.39744       51.442         9     0.947     0.831 -56.94   0
        90    603.9045    772.5922 300.1168682 +22.7892222     1031.692     72.18736      1.696     3.58     4.074466     20.39744     83.77774        18     1.141     1.042 -24.01   0
        91      3.4583    772.0483 299.9302329 +22.6089928     686.2949     66.84389      1.886     4.22     4.668259     20.39744     95.43703        13     1.492     0.913 -51.38  24
        92    614.7789    770.8865 300.1208104 +22.7919918     603.9928     72.22423      1.593     4.89     4.066319     20.39744     56.02499        13     1.116     0.932  11.39   0
        93    934.4460    768.2293 300.2213356 +22.8870052     370.2685     72.33475      1.453     4.61     4.421275     20.39744     31.17924         6     1.032     0.584  26.79   0
        94    720.2655    767.2442 300.1548661 +22.8225582     316.8506     72.27951      1.318     3.57     3.926936     20.39744      43.3019         6     1.069     0.655   0.21   0
        95    757.8778    757.7695 300.1696703 +22.8311073     845.2116     72.27951      1.700     4.11     3.942052     20.39744     66.11505        18     1.269     0.941  19.06   0
        96    366.7388    754.5474 300.0488867 +22.7129447     31799.17     72.35315      1.654     3.51     4.337385     20.39744     3031.138        72     1.424     1.347  47.45   0
        97    380.9649    755.0439 300.0531528 +22.7173528     1975.398     72.35315      1.676     3.56     4.346027     20.39744     193.9172        24     1.340     1.047  39.63   0
        98    889.8372    750.7017 300.2131170 +22.8686089     2885.412     72.29793      1.736     3.92     4.337006     20.39744     213.2324        30     1.273     1.261  86.73   0
        99    377.7339    749.1780 300.0540536 +22.7147008      769.606     72.27951      2.339     4.35     4.334967     20.39744     57.24606        11     1.081     0.766   1.34   0
       100    647.8586    746.5047 300.1390420 +22.7949059     899.3923     72.37155      1.583     3.78     4.033082     20.39744     92.15049        17     1.272     0.898  46.32   0
       101    484.2741    746.2854 300.0881596 +22.7458124      415.039     72.42672      1.445     4.88     4.243709     20.39744     40.26048         9     1.033     0.714  70.17   0
       102    249.5457    746.2781 300.0151119 +22.6754280     884.4208     72.33475      1.691     2.91     4.510747     20.39744     111.4732        15     1.099     0.962  30.76   0
       103    494.8942    741.5730 300.0929979 +22.7476435     1108.973     72.22423      1.728     3.68     4.253174     20.39744     92.38194        20     1.208     1.040  14.60   0
       104     54.4340    741.7753 299.9559118 +22.6156086     484.3978     72.31634      1.685     3.18     4.686383     20.39744     60.93765         8     0.986     0.649  54.75   0
       105    896.3802    738.5715 300.2191006 +22.8670842      475.829     72.29793      1.610     5.65     4.441833     20.39744     44.03604        11     1.000     0.901 -79.05   0
       106    643.5433    737.9819 300.1404674 +22.7911658     385.7041     72.27951      3.136     4.81     4.076377     20.39744     25.28428         5     1.029     0.637  -0.72   0
       107    397.3326    737.7360 300.0638722 +22.7172939     187.1673     72.35315      1.154     2.31     4.342524     20.39744     42.15476         5     0.691     0.460 -78.55   0
       108    649.3298    734.8975 300.1432729 +22.7920143     466.2861     72.42672      1.838     4.70     4.063105     20.39744     59.59922         6     1.714     0.410  56.52   0
       109    440.3884    736.2285 300.0777646 +22.7297699     439.0617     72.29793      1.571     5.20     4.338569     20.39744     49.87441        10     1.142     0.767  28.71   0
       110     82.4070    735.8082 299.9665451 +22.6222899     518.9067     72.15046      1.718     4.51     4.682904     20.39744     59.57542        13     1.356     0.667   2.71   0
       111    874.0964    732.8542 300.2140081 +22.8587673     438.5042     72.37155      1.753     6.12     4.342424     20.39744      40.6677        11     1.323     0.898   8.92   0
       112    247.0664    731.1240 300.0192656 +22.6703373     556.5287     72.38995      1.757     3.55     4.473728     20.39744     64.41339        10     0.983     0.919  18.79   0
       113    569.9362    721.4056 300.1229231 +22.7643475     450.8474     72.27951      1.458     4.36     4.292256     20.39744     58.58992         9     0.910     0.742   7.49   0
       114    540.1285    719.6595 300.1142063 +22.7549124     578.2541     72.33475      1.398     3.01     4.301894     20.39744      64.2576         9     0.837     0.721  61.32   0
       115    449.3419    719.0207 300.0861442 +22.7275155     325.5167     72.29793      1.272     3.29     4.358105     20.39744     40.39687         5     0.787     0.559   2.54   0
       116    956.4305    716.0798 300.2451448 +22.8786071     4721.815     72.29793      1.743     3.67     4.577568     20.39744     379.3201        37     1.339     1.334 -27.15   0
       117    561.5341    716.9245 300.1217622 +22.7605429     1270.367     72.37155      1.478     3.21     4.305184     20.39744      139.999        19     1.160     0.986  47.83   0
       118    481.6587    716.7278 300.0969510 +22.7365450     397.8123     72.33475      1.551     3.79     4.331485     20.39744     42.87456         7     0.961     0.651  -5.02   0
       119    353.1636    717.5920 300.0566720 +22.6982705      219.009     72.29793      1.406     3.48     4.287243     20.39744     36.18936         5     0.748     0.467 -15.16   0
       120    643.4548    711.8489 300.1489327 +22.7836360     372.8563     72.33475      1.863     4.75     4.176973     20.39744     41.41493         7     1.103     0.580  50.03   0
       121    944.8195    707.4388 300.2443303 +22.8726473     1716.208     72.33475      1.760     3.92     4.586389     20.39744     132.2232        26     1.326     1.162   9.51   0
       122    307.6473    701.1962 300.0478368 +22.6799183     883.6011     72.27951      1.567     3.41     4.335861     20.39744     95.90358        17     1.111     0.982  38.98   0
       123    771.0515    698.7369 300.1929628 +22.8181005     2637.401     72.35315      1.613     3.23     4.144039     20.39744     225.7191        27     1.213     1.158  20.14   0
       124    975.9045    697.5945 300.2572287 +22.8791273     1794.877     72.18736      1.779     4.08     4.449199     20.39744     134.4944        21     1.235     1.076 -11.20   0
       125    989.5355    688.1335 300.2645567 +22.8804903     269.3599     72.35315      1.365     3.46     4.331985     20.39744     32.23159         5     1.209     0.287  35.44   0
       126    156.4668    684.8904 300.0061132 +22.6299025     766.4677     72.40833      1.775     4.34     4.742817     20.39744     73.59201        15     1.240     1.018 -77.74   0
       127    853.6156    684.6426 300.2232880 +22.8387833     654.3287     72.31634      1.977     5.11     4.381182     20.39744     53.64447        10     1.129     0.862  31.76   0
       128    889.6020    675.6325 300.2374400 +22.8469727     149658.9     72.26109      1.657     3.49     4.513965     20.39744     13414.44       155     1.493     1.468  86.39   0
       129    652.0430    679.1071 300.1622482 +22.7768080     525.2747     72.31634      1.742     3.25     4.277786     20.39744     45.58291         7     0.868     0.542  49.59   0
       130    742.0609    675.9572 300.1913272 +22.8028731      744.509     72.29793      1.390     3.57     4.244796     20.39744     73.03053        13     1.104     0.775  63.72   0
       131    922.5928    668.6152 300.2500117 +22.8548363     457.8311      72.2058      1.501     4.24     4.649773     20.39744     51.37395        12     1.070     0.972  48.69   0
       132    575.8277    664.4188 300.1432755 +22.7497525     1607.158     72.29793      1.510     3.14     4.444803     20.39744     171.3043        20     1.175     1.003  53.65   0
       133    757.0720    661.6990 300.2006394 +22.8032746     9687.223      72.4451      1.514     3.13     4.283574     20.39744      954.296        44     1.256     1.226  60.38   0
       134    258.4669    656.5563 300.0470404 +22.6523632     5038.064     72.27951      1.644     3.15     4.351788     20.39744     583.4191        38     1.359     1.225  47.43   0
       135    340.6921    654.5811 300.0732644 +22.6764499     1354.496     72.22423      1.705     3.16     4.296319     20.39744     148.0913        19     1.156     1.082  49.35   0
       136    216.5875    652.6224 300.0352922 +22.6386763       546.02     72.27951      1.674     3.47     4.434325     20.39744     60.58783         7     0.933     0.639 -45.19   0
       137    548.7574    650.3366 300.1394188 +22.7375972     830.4923     72.29793      1.436     3.42      4.48666     20.39744     95.33853        13     0.995     0.889  58.91   0
       138    540.5374    642.4545 300.1394192 +22.7328708     3261.049     72.35315      1.450     2.68     4.506122     20.39744     423.0784        25     1.111     1.060  31.35   0
       139    530.6488    635.9407 300.1384556 +22.7280373     1559.922     72.35315      1.586     4.34     4.529337     20.39744     165.0686        25     1.497     1.026  64.69   0
       140    459.5300    635.8082 300.1163527 +22.7066849     220.9288     72.27951      1.272     4.72     4.542959     20.39744     30.81162         6     0.956     0.660 -10.69   0
       141    924.4376    634.6753 300.2616144 +22.8456364     413.4961     72.24266      1.511     2.79     4.929597     20.39744     52.50227         5     0.935     0.329  22.36   0
       142    194.0287    632.0862 300.0349476 +22.6260197     795.1073     72.29793      1.704     4.21     4.444881     20.39744     67.93717        19     1.230     1.131 -20.61   0
       143    208.2749    630.4875 300.0398974 +22.6298331     602.7748     72.42672      1.527     3.55      4.40958     20.39744      90.5946        14     1.132     1.009  89.81   0
       144     94.8159    630.0461 300.0047637 +22.5956800     481.0791     72.31634      2.156     6.31     4.559676     20.39744     35.40696        10     1.377     0.813 -80.60   0
       145    977.5497    627.4542 300.2805321 +22.8594639      522.119     72.33475      1.723     4.12      4.40398     20.39744     59.35832        12     1.149     0.907  54.72   0
       146    265.0468    627.4830 300.0585317 +22.6459940     513.9935     72.27951      1.768     3.89     4.324358     20.39744     48.63083         9     0.989     0.792 -75.84   0
       147    234.0486    627.4932 300.0488862 +22.6367024     587.7678     72.33475      1.634     3.22     4.360576     20.39744     54.86947         8     0.822     0.697 -41.65   0
       148    554.8577    626.6702 300.1490072 +22.7326302      494.995     72.31634      1.559     2.90     4.535463     20.39744     61.11077         7     0.856     0.582  75.20   0
       149    455.5373    625.8972 300.1183292 +22.7026431     1737.555     72.38995      1.446     2.94     4.559643     20.39744     214.8746        22     1.160     0.991  31.07   0
       150    488.9288    625.3102 300.1289168 +22.7124823     240.5146     72.46348      1.342     4.37     4.615414     20.39744     42.24438         6     0.819     0.664  70.09   0
       151    109.4476    620.6541 300.0123628 +22.5973744     20075.28     72.33475      1.764     3.34     4.501244     20.39744     2220.372        64     1.517     1.363  37.25   0
       152     30.7955    622.6711 299.9872615 +22.5743618     614.7513     72.24266      1.510     2.35     4.774096     20.39744      99.2672        11     0.903     0.776 -15.59   0
       153    540.4628    621.1799 300.1463072 +22.7267402     1149.822     72.27951      1.583     3.86     4.550011     20.39744     118.5501        18     1.180     1.032 -40.99   0
       154    575.8040    620.4227 300.1575612 +22.7371128     387.3589     72.26109      1.389     4.05     4.564199     20.39744     39.72108         8     0.811     0.797  35.52   0
       155    293.8587    612.8239 300.0722567 +22.6504258     242.2864     72.29793      1.000     3.66     4.296319     20.39744      33.0603         5     1.154     0.333  -9.62   0
       156    623.6198    608.5782 300.1763051 +22.7480383     236.6492     72.29793      1.478     6.35      4.59221     20.39744     35.81483         9     1.383     0.818   0.79   0
       157    958.5803    607.6411 300.2810494 +22.8480904     1004.752     72.33475      1.608     3.78     4.707181     20.39744     96.89442        16     1.097     1.007 -87.04   0
       158    825.4210    605.7773 300.2401177 +22.8076818     522.8756     72.29793      1.443     3.38     4.603765     20.39744     56.45495        12     0.953     0.876 -22.06   0
       159    121.6805    605.5963 300.0210565 +22.5967237     336.4441      72.2058      1.445     4.73     4.428949     20.39744     43.84674         8     0.994     0.639   7.32   0
       160     55.3581    604.4536 300.0008120 +22.5765044     1562.542     72.29793      2.102     5.18     4.671575     20.39744     109.8752        28     1.568     1.272  75.07   0
       161    503.9740    601.9975 300.1411743 +22.7102981     393.5181     72.24266      1.325     3.81     4.701465     20.39744     46.09215         9     0.921     0.746  81.86   0
       162    898.7418    600.3376 300.2647531 +22.8280751     736.8729     72.35315      1.531     3.99     4.979847     20.39744     71.99046        14     1.096     0.883  50.93   0
       163    296.6198    601.1403 300.0769106 +22.6479007     346.5881     72.24266      1.436     3.14     4.297114     20.39744      47.8201         7     0.909     0.729  34.07   0
       164    642.9375    598.7354 300.1855213 +22.7509990     379.0226     72.33475      1.504     4.32     4.612274     20.39744      39.7124         6     0.882     0.602 -87.72   0
       165    460.6204    594.2906 300.1301783 +22.6950931     789.8771     72.24266      1.582     2.94      4.72266     20.39744     98.20805        11     1.015     0.794 -16.48   0
       166    608.9737    592.6514 300.1769152 +22.7390763     422.0543     72.31634      1.269     2.89     4.761358     20.39744     64.83918        10     0.990     0.663 -59.97   0
       167    656.1381    591.3886 300.1920210 +22.7528436     463.8259     72.24266      1.388     2.49     4.616927     20.39744     72.04086         6     0.691     0.636 -62.32   0
       168    626.2714    590.9432 300.1828594 +22.7437681     527.6085     72.31634      1.247     2.56     4.719994     20.39744     88.92371        10     0.919     0.672   2.14   0
       169    505.0948    589.9067 300.1454505 +22.7071625     978.7557     72.46347      1.519     3.33     4.799933     20.39744     125.4665        17     1.278     0.863   9.31   0
       170    938.6910    585.6583 300.2819843 +22.8358179     3273.787     72.37155      1.595     3.22     4.734126     20.39744     339.1338        30     1.239     1.181  62.24   0
       171    470.3871    585.3399 300.1361263 +22.6954503     1915.628     72.26109      1.491     2.83     4.809837     20.39744     208.1608        22     1.135     1.012  61.53   0
       172    835.7358    582.9801 300.2507394 +22.8042206     373.4287     72.27951      1.691     4.32     4.565798     20.39744     29.72264         6     1.130     0.470  19.94   0
       173     32.2052    578.8240 300.0019402 +22.5622087     5173.982     72.27951      1.806     3.49     4.788861     20.39744     541.8604        46     1.504     1.446  67.08   0
       174    445.9229    580.3143 300.1301417 +22.6866759      198.408     72.40833      1.052     4.88     4.780134     20.39744     60.72817         7     1.329     0.569  55.98   0
       175    499.2442    575.9234 300.1481702 +22.7013944     310.2449     72.27951      1.474     4.24     4.911634     20.39744     38.87859         6     1.136     0.451  60.28   0
       176    977.8533    575.5040 300.2975021 +22.8446239     325.6975     72.37155      1.722     4.21     4.341315     20.39744     31.26025         5     0.887     0.570  44.78   0
       177    333.7323    572.0095 300.0979193 +22.6506655     9214.477     72.29793      1.500     3.12     4.317019     20.39744     988.6261        45     1.335     1.207  41.48   0
       178    456.2013    569.1612 300.1369640 +22.6865542     9044.494     72.31634      1.405     2.81     4.884059     20.39744     1032.798        37     1.206     1.095  39.90   0
       179    702.3635    565.7595 300.2147511 +22.7593289     298.9577     72.37155      1.393     4.61     4.606743     20.39744     37.72915         6     1.010     0.690 -78.10   0
       180    867.9395    563.2148 300.2672028 +22.8081843       2066.9     72.26109      1.667     3.33     4.522017     20.39744     191.8296        25     1.326     1.095  72.71   0
       181    952.6158    560.7625 300.2944151 +22.8328316     12531.84     72.29793      1.601     3.29     4.388311     20.39744     1207.118        49     1.307     1.294  71.56   0
       182    516.7924    558.7798 300.1592026 +22.7017301      11726.9     72.26109      1.425     2.66     5.084084     20.39744     1558.354        45     1.224     1.155  74.11   0
       183    686.3228    554.6780 300.2133506 +22.7513410     564.2392     72.40833      1.297     2.69     4.681182     20.39744     76.10853        10     0.843     0.806  33.60   0
       184    244.0460    554.1800 300.0758065 +22.6186625      1547.06     72.35315      1.637     3.31     4.303591     20.39744     146.9516        23     1.183     1.147  11.77   0
       185    402.0358    553.5500 300.1251716 +22.6658393     313.7065     72.31634      1.352     3.80     4.781594     20.39744     38.99268         6     0.844     0.492  -6.31   0
       186    491.2715    552.0490 300.1534410 +22.6921502     384.2289     72.27951      1.390     4.07      5.07728     20.39744     47.98722         8     1.036     0.637 -57.07   0
       187    791.3900    547.2958 300.2485006 +22.7806876      787.468     72.22423      1.468     3.45     4.371961     20.39744     77.26886        14     1.119     0.837   5.80   0
       188    448.4531    546.9512 300.1417643 +22.6778556     4382.793     72.33475      1.414     2.72     5.025999     20.39744     570.4008        30     1.194     1.046  36.90   0
       189    426.6188    545.3487 300.1354873 +22.6708522     1238.228     72.27951      1.450     3.13     5.006582     20.39744     134.6656        17     1.091     0.975  45.91   0
       190    181.1210    544.6010 300.0593465 +22.5970479     815.4447     72.18736      1.599     3.44     4.344529     20.39744     85.79151        18     1.219     0.944  -5.74   0
       191    868.2570    542.6501 300.2739805 +22.8023696     1661.469     72.35315      1.593     3.27     4.319941     20.39744     154.5167        23     1.209     1.076 -28.29   0
       192    565.0924    534.5297 300.1821211 +22.7092377     206951.1     72.42672      1.389     2.58     5.285413     20.39744     26083.81       182     1.428     1.368  -9.35   0
       193    388.7085    540.6372 300.1252165 +22.6581381     381.7608     72.26109      1.474     3.52     4.723831     20.39744     47.19284         9     0.952     0.689 -34.49   0
       194    748.7938    539.6288 300.2377101 +22.7657283     836.6442     72.29793      1.487     3.17     4.567352     20.39744     90.97358        13     1.064     0.802  78.76   0
       195    842.0718    538.2331 300.2672481 +22.7932599     276.1956     72.29793      1.402     3.14      4.31725     20.39744     42.59996         5     0.809     0.472  56.18   0
       196    251.1319    534.2995 300.0844662 +22.6150813     3593.403     72.38995      1.536     3.01     4.323298     20.39744     432.6256        28     1.296     1.082  58.90   0
       197    334.0085    533.8270 300.1104044 +22.6397886     329.6286     72.29793      1.869     4.64      4.41089     20.39744     28.59797         5     0.958     0.637  33.21   0
       198    817.0050    530.8920 300.2618148 +22.7836446     596.2473      72.2058      1.463     4.02     4.305754     20.39744      67.8878        10     0.957     0.829 -22.77   0
       199    835.5134    529.6246 300.2679982 +22.7888224     256.5211     72.24266      1.312     3.89     4.307312     20.39744      34.0316         6     0.897     0.483  -2.37   0
       200    596.9617    521.3379 300.1963325 +22.7149963     299.0211     72.29793      1.287     5.05      5.23604     20.39744     36.80415         7     1.077     0.669  -6.88   0
       201    455.7255    514.7632 300.1544804 +22.6707928     2821.632     72.24266      1.490     2.52     5.103106     20.39744     385.4009        26     1.214     0.995  57.02   2
       202    299.9865    517.1920 300.1052196 +22.6248159     373.9158     72.18736      1.350     4.32     4.440117     20.39744     57.96474         7     0.885     0.601  26.15   0
       203    867.2733    511.6224 300.2837493 +22.7931581      357.592     72.33475      1.287     3.13     4.294387     20.39744     51.23782         5     0.711     0.475 -10.69   0
       204    773.1425    503.7498 300.2569516 +22.7627110      472.498     72.35315      1.410     2.70     4.420609     20.39744     58.48163         7     0.860     0.675 -34.92   0
       205    852.7744    501.0979 300.2826445 +22.7857925     1805.332     72.26109      1.483     2.93     4.280576     20.39744     176.4537        23     1.183     1.033  40.10   0
       206    723.9196    498.7867 300.2432180 +22.7465445     2639.279     72.27951      1.408     2.76     4.656514     20.39744     352.2239        25     1.174     0.990  48.89   0
       207    968.2544    496.3981 300.3201962 +22.8190117     500.9335     72.22423      1.393     2.87     4.503243     20.39744      61.2032         8     0.874     0.634  -8.73   0
       208    933.2057    496.0984 300.3093576 +22.8084343     321.5748     72.18736      1.496     3.75     4.276427     20.39744     38.86655         5     0.941     0.430  41.94   0
       209    628.4192    495.0685 300.2146628 +22.7168737     551.5923     72.29793      1.493     4.38     5.108723     20.39744     64.28473        11     1.266     0.763  43.30   0
       210    511.0077    494.6498 300.1782248 +22.6815809     757.0022     72.29793      1.380     3.49     5.319892     20.39744     106.6066        11     1.040     0.729  56.05   0
       211    981.3104    492.9027 300.3254053 +22.8219147     1308.831     72.48184      1.660     3.14      4.60812     20.39744     121.3392        19     1.104     1.006   8.95   0
       212    966.7908    492.1660 300.3211136 +22.8173570      757.587     72.29793      1.495     3.55     4.516865     20.39744     77.15306        11     1.061     0.813  27.14   0
       213    853.0856    491.2372 300.2859432 +22.7830517     2240.575     72.27951      1.693     3.49     4.270449     20.39744     240.9652        29     1.497     1.103  73.35   0
       214    606.2302    489.3339 300.2096113 +22.7085800     655.6242     72.29793      1.324     3.22     5.263863     20.39744     78.70697         7     0.741     0.662  20.90   2
       215    606.0302    485.2438 300.2108769 +22.7073452     445.8311     72.33475      1.583     3.83     5.270083     20.39744     45.37637         6     1.171     0.360 -59.57   2
       216    392.6100    489.3654 300.1430782 +22.6445874     299.7887     72.26109      1.057     3.18      4.92701     20.39744     43.50165         6     0.868     0.481  -0.83   0
       217    891.2065    486.2986 300.2994370 +22.7930448     4472.071     72.18736      1.497     2.78     4.263679     20.39744     515.0339        30     1.201     1.128  48.42   0
       218    444.6975    488.1132 300.1596994 +22.6598360     329.7872     72.46348      1.204     2.50     5.103346     20.39744     68.94444         7     0.861     0.534  -7.67   0
       219    628.7573    482.9635 300.2186982 +22.7134977     160.6012     72.37155      1.271     4.25      5.11675     20.39744     29.28802         7     0.751     0.685 -82.66   0
       220    551.7579    482.2702 300.1949356 +22.6902336     322.6671     72.26109      1.202     3.91     5.431609     20.39744     41.32022         6     0.763     0.573 -44.73   0
       221    982.8831    476.8354 300.3311128 +22.8177663     796.5241     72.26109      1.576     3.86     4.689345     20.39744     79.03249        14     1.082     0.948  34.65   0
       222    123.2597    476.0392 300.0636152 +22.5600259     1146.315     72.29793      1.620     4.31     4.369454     20.39744     117.9464        18     1.277     1.074  45.09   0
       223    922.5733    474.6198 300.3130140 +22.7990775     180.8021     72.29793      1.228     3.88      4.25139     20.39744     32.21497         5     1.017     0.424  14.78   0
       224    389.6909    470.1862 300.1483959 +22.6382059     175.6668     72.24266      1.348     5.31     4.935577     20.39744     29.73969         6     1.209     0.658  51.37   0
       225    784.2200    470.5745 300.2711764 +22.7564948     293.4361     72.29793      1.422     4.05     4.337015     20.39744     44.56953         7     0.983     0.476   8.83   0
       226    979.7010    465.9308 300.3336600 +22.8136789     320.5324     72.38995      1.472     5.32     4.617554     20.39744     39.51052         9     1.009     0.847 -60.36   0
       227    723.1338    460.7048 300.2553367 +22.7353672     449.8831     72.42672      1.357     3.32     4.703178     20.39744     69.18842         7     0.978     0.706  18.83   0
       228    612.5151    458.3682 300.2216222 +22.7015673     398.9057     72.27951      1.739     2.75     5.152331     20.39744     47.76731         6     0.866     0.689  -8.93   0
       229    664.6685    456.7578 300.2383959 +22.7167246      769.938     72.27951      1.361     2.74     4.896265     20.39744     108.6793        13     0.980     0.813  32.18   0
       230    979.2321    449.3921 300.3388828 +22.8087836     608.6885     72.29793      1.524     3.54     4.538499     20.39744     79.95802        10     1.015     0.810  49.20   0
       231    725.2654    448.9887 300.2598044 +22.7326389     755.8893     72.26109      1.331     2.89     4.721966     20.39744     104.3074        13     1.026     0.800  57.26   0
       232    882.6946    445.5491 300.3100111 +22.7787837     1041.991     72.37155      1.417     2.60     4.245904     20.39744     128.9073        14     1.021     0.798  55.69   0
       233    847.5839    442.4845 300.3000547 +22.7673923     457.2518     72.26109      1.801     3.42     4.238101     20.39744     52.69319        10     0.997     0.721 -17.75   0
       234    866.9716    441.4919 300.3064238 +22.7729108     668.8642     72.26109      1.422     3.16     4.242004     20.39744     85.10501        11     0.966     0.778 -32.10   0
       235    611.2279    439.4474 300.2273631 +22.6957462     3177.952     72.31634      1.348     2.53     5.087508     20.39744     421.0918        23     1.096     0.971  64.24   0
       236    971.6688    438.4825 300.3400642 +22.8033834      465.563     72.40833      1.283     3.44     4.457755     20.39744     54.65356         9     0.936     0.822  28.12   0
       237    616.8245    427.5928 300.2329546 +22.6940167     226.0097     72.29793      1.148     3.40      5.03368     20.39744     35.89618         5     0.738     0.453  18.97   0
       238    451.2286    426.3973 300.1817665 +22.6440698       395.67     72.24266      1.269     3.24      5.10163     20.39744     49.00628         8     0.908     0.638  17.16   0
       239   1022.4666    418.7646 300.3623179 +22.8129157     1218.371     62.67029      1.489     3.52     4.554377     20.39744      126.222        18     1.169     0.964  62.53  24
       240    894.4680    418.2392 300.3225485 +22.7744572     647.2532     72.26109      1.544     3.44     4.235314     20.39744     82.15548        14     1.142     0.934  70.14   0
       241    981.0040    417.5108 300.3497847 +22.8001474     988.6545      72.2058      1.472     3.05     4.413974     20.39744      111.832        16     1.087     0.931  28.34   0
       242    721.8354    413.4978 300.2702553 +22.7214132     997.3805     72.29793      1.247     2.51      4.80128     20.39744     147.6953        15     0.958     0.899  27.63   0
       243    517.3197    414.1201 300.2063314 +22.6603426     382.6098     72.42672      1.293     2.75      5.26995     20.39744     50.84792         7     0.718     0.658  67.55   0
       244    226.0084    411.7299 300.1164401 +22.5723696     484.9872     72.27951      1.187     1.93     4.849069     20.39744     96.99329         7     0.701     0.569   4.04   0
       245    288.1112    407.1884 300.1372330 +22.5896780     3658.117     72.24266      1.381     2.83     4.845321     20.39744     403.0376        30     1.172     1.091  72.74   0
       246   1021.2527    405.9282 300.3661054 +22.8088612     4379.228     67.91093      1.570     3.38     4.605664     20.39744     415.7448        36     1.295     1.263  78.08  24
       247    235.2823    401.9436 300.1225007 +22.5723398     7683.312     72.35315      1.477     2.80      4.88372     20.39744     988.8956        34     1.252     1.117  41.56   0
       248   1001.2967    397.0242 300.3627669 +22.8003293     1790.626      72.2058      1.523     3.86     4.585957     20.39744     179.5967        28     1.378     1.115  47.88   0
       249    376.1043    396.2443 300.1681668 +22.6129027     4890.856     72.31634      1.386     2.67     4.848551     20.39744      549.535        30     1.151     1.091  81.79   0
       250    620.3556    393.0579 300.2452634 +22.6851520     18736.87     72.33475      1.355     2.64     4.984047     20.39744     2141.083        49     1.227     1.101  61.81   0
       251    638.0380    393.2230 300.2507194 +22.6904947     884.3459     72.31634      1.960     5.91     4.977456     20.39744     82.97537        20     1.769     0.828 -29.94   0
       252    467.5392    394.0561 300.1973412 +22.6396675     384.8304     72.37155      1.815     4.13     5.047566     20.39744      33.6639         5     0.754     0.646 -11.72   0
       253    247.1884    391.6189 300.1295547 +22.5729441     268.5272     72.26109      1.207     2.70      4.90251     20.39744     37.66808         5     0.742     0.427 -22.37   0
       254    863.8425    389.6265 300.3222821 +22.7570650     223.9953     72.31634      1.271     3.43     4.204862     20.39744     31.17636         5     0.761     0.447  17.50   0
       255    817.2832    383.9307 300.3096099 +22.7414908     50.53975     72.40833      1.294     3.19      4.20017     20.39744     69.53919         5     0.748     0.660  35.53   0
       256    240.3975    379.7930 300.1312799 +22.5675138     422.2624     72.11354      1.571     3.20     4.950482     20.39744     64.08987         5     0.880     0.477  32.87   0
       257    953.7004    375.8335 300.3547913 +22.7799928     712.1295     72.27951      1.491     3.54      4.48952     20.39744     82.75977        13     1.074     0.820  42.59   0
       258    490.9352    375.4142 300.2106760 +22.6413212     371.8385     72.26109      1.392     3.70     4.967265     20.39744     39.72601         6     0.799     0.492   1.12   0
       259    664.1773    373.8297 300.2651585 +22.6927495      158.752     72.29793      1.263     4.13      4.96637     20.39744      35.7001         6     0.764     0.638  77.23   0
       260    174.9844    372.9811 300.1131457 +22.5459535     1972.113     72.27951      1.489     3.12     4.991992     20.39744     206.7745        25     1.206     1.103   6.98   0
       261    561.0201    362.4273 300.2367182 +22.6585817     6712.129     72.29793      1.342     2.48     4.966967     20.39744     961.1987        35     1.244     1.035  73.05   0
       262    974.6943    362.8714 300.3655487 +22.7825478     1285.463     72.40833      1.524     3.25      4.64765     20.39744      135.791        19     1.118     1.019  63.99   0
       263    275.7183    361.9664 300.1480521 +22.5729804     772.7302     72.26109      1.660     2.89     4.888205     20.39744     89.32367         9     0.957     0.692 -20.33   0
       264    133.4746    354.9398 300.1060922 +22.5283330     412.7927     72.35315      1.387     4.22     5.154047     20.39744     55.14993         9     0.957     0.681  19.86   0
       265    821.1852    354.2276 300.3204657 +22.7341204     404.8932     72.31634      1.292     4.27     4.176713     20.39744     56.85463         8     1.059     0.550  36.12   0
       266    674.7623    352.7735 300.2752899 +22.6898679     554.6981     72.31634      1.641     3.87     4.960221     20.39744     85.00706        10     1.215     0.717  62.01   0
       267    765.1797    351.5817 300.3038610 +22.7165951      1136.01     72.29793      1.414     2.67     4.544074     20.39744     147.4706        14     0.956     0.877  76.76   0
       268    467.6496    348.6912 300.2120964 +22.6266700     6109.734     72.31634      1.405     2.46     4.785464     20.39744     896.6138        31     1.184     1.042  69.46   0
       269    957.0955    343.4885 300.3663467 +22.7717078     423.1907     72.48184      1.351     3.50      4.67054     20.39744     75.56406        12     0.979     0.937  78.85   0
       270    859.6711    343.3014 300.3360140 +22.7424984     1429.338      72.4451      1.358     2.42     4.242496     20.39744     191.8021        18     1.042     0.947  64.31   0
       271    452.4753    337.5386 300.2109902 +22.6189211     447.2982     72.35315      1.353     3.08     4.772715     20.39744     54.60402         8     0.830     0.736 -24.37   0
       272    535.0200    335.5696 300.2373341 +22.6430787     422.4741     72.29793      1.254     2.25     4.863215     20.39744     71.88458         6     0.749     0.494   3.90   0
       273    832.3242    330.9438 300.3314945 +22.7307608     595.7765     72.33475      1.378     3.53     4.348019     20.39744     71.11983        12     0.994     0.891  55.95   0
       274    355.1803    327.7276 300.1838867 +22.5869571     2595.586     72.31634      1.423     2.81     4.802017     20.39744     336.1537        26     1.203     1.013  67.93   0
       275     73.5657    325.1487 300.0971331 +22.5018247     985.3116     72.31634      1.602     3.52     5.258325     20.39744     116.6793        19     1.237     1.113  42.07   0
       276    302.2881    321.5568 300.1694295 +22.5693383    -233.2619     72.29793      0.993     3.46     4.814309     20.39744     35.65022         5     0.796     0.435 -21.10   0
       277    324.5360    317.2455 300.1777509 +22.5747659     30181.12     72.31634      1.428     2.60     4.802424     20.39744     3925.616        63     1.339     1.164  61.62   0
       278    859.2801    314.9960 300.3450759 +22.7342432     1412.602      72.2058      1.401     2.97     4.430462     20.39744     150.4605        18     1.065     0.964  -6.12   0
       279    785.1877    314.2101 300.3222249 +22.7118415     3235.077     72.18736      0.630     0.87     4.604873     20.39744      1847.64         8     0.506     0.443  28.58   0
       280    814.6959    312.7026 300.3319153 +22.7202403     344.1249     72.48184      1.613     3.00     4.517126     20.39744     53.86833         6     0.975     0.717 -46.70   0
       281     20.8263    304.9350 300.0872988 +22.4802138     4956.019     72.27951      1.683     3.42     5.469221     20.39744     480.9867        36     1.384     1.270  52.55   0
       282    198.8281    303.6670 300.1430488 +22.5332004     544.4891     72.27951      1.369     4.04     5.138908     20.39744     75.93464        12     1.239     0.738  66.81   0
       283    774.4227    304.2234 300.3221083 +22.7057484     609.0388     72.26109      1.417     3.26     4.708363     20.39744     73.62685        11     1.052     0.686  -5.69   0
       284    423.2692    302.3562 300.2133114 +22.6000666     580.6948     72.26109      1.528     3.84     4.697323     20.39744     63.55598        12     1.102     0.800 -64.29   0
       285    735.0619    297.2152 300.3121106 +22.6919518     1931.789     72.24266      1.363     2.56     4.830812     20.39744     261.7762        22     1.064     0.977  87.46   0
       286    543.3277    292.0100 300.2540534 +22.6330510     395.4857     72.29793      1.285     2.01     4.795232     20.39744     56.29357         7     0.680     0.631  82.89   0
       287    950.1539    290.4637 300.3813844 +22.7543819     692.6925     72.33475      1.418     4.06      5.04491     20.39744     78.38787         9     0.947     0.750 -44.46   0
       288    396.7351    281.6932 300.2117542 +22.5861832     2217.063     72.40833      1.569     3.63     4.695959     20.39744     226.6361        23     1.301     0.965  61.02   0
       289    608.8835    280.6914 300.2781471 +22.6494279     266.2326      72.4451      1.338     3.72     4.969918     20.39744      42.8457         5     1.058     0.458   3.40   0
       290    836.0912    274.8255 300.3508753 +22.7157534     552.0627     72.24266      1.261     2.90     4.677388     20.39744     88.74842        11     1.006     0.747  65.93   0
       291    735.3242    272.8120 300.3201086 +22.6850153     296.8734     72.31634      1.224     4.36       4.8302     20.39744     32.13841         7     0.864     0.627  63.09   0
       292    718.3207    272.7964 300.3148132 +22.6799211     248.2039      72.2058      1.151     2.94     4.865619     20.39744     45.60123         6     0.723     0.616  10.09   0
       293    472.6478    261.0267 300.2420916 +22.6029824     1217.082     72.31634      1.418     2.99     4.753365     20.39744     139.6696        20     1.201     0.951  56.76   0
       294    280.0562    261.2626 300.1820704 +22.5453622     383.9684     72.35315      1.470     4.51     4.858642     20.39744     45.90141         9     1.166     0.779  51.55   0
       295     45.3462    261.9339 300.1088667 +22.4752214     313.3341     72.33475      1.570     4.73     5.486117     20.39744     35.97016         7     0.925     0.687  28.43   0
       296    324.7054    259.5758 300.1965102 +22.5582537      272.697      72.2058      1.473     4.83     4.776662     20.39744     31.78559         6     0.949     0.696  71.34   0
       297    856.3585    254.9544 300.3636420 +22.7161046     256.7296     72.35315      1.102     2.56      4.66883     20.39744     57.45895         6     0.800     0.575 -49.07   0
       298    717.5583    252.9709 300.3210062 +22.6739938     2231.576     72.31634      1.390     2.67     4.862854     20.39744     260.2149        22     1.093     1.001  53.71   0
       299    978.8804    247.4364 300.4043057 +22.7506010     3125.238     72.24266      1.516     2.78     5.086844     20.39744      386.095        29     1.249     1.155 -71.08   0
       300    425.9907    236.8216 300.2354152 +22.5820551     649.2026     72.29793      1.244     2.50     4.678419     20.39744     106.3173        10     0.862     0.750 -31.59   0
       301    131.2154    230.9416 300.1456111 +22.4920588     637.8213     72.27951      1.583     4.09     5.368558     20.39744     88.63813        16     1.215     1.093 -11.21   0
       302    100.6128    231.0159 300.1360727 +22.4829094     1345.331     72.24266      1.666     3.47     5.467371     20.39744     158.4671        20     1.361     0.889 -14.68   0
       303    994.4384    227.9433 300.4154834 +22.7496480     468.3686     72.29793      1.558     4.20     5.104557     20.39744     45.66622         8     0.902     0.670  28.92   0
       304    838.4291    224.9213 300.3677908 +22.7021030     440.0636     72.29793      1.455     4.02     4.718438     20.39744     46.17316         6     0.752     0.627  43.53   0
       305    184.6389    223.1937 300.1647361 +22.5058420      470.505     72.33475      1.456     4.67     5.349276     20.39744     59.81862        10     1.132     0.754 -30.69   0
       306    979.6219    220.5436 300.4132593 +22.7430872     254.1346     72.31634      1.272     2.81     5.089612     20.39744     57.93714         5     0.908     0.504  48.03   0
       307     40.2730    220.0111 300.1208853 +22.4616667      228.705     72.31634      1.322     3.21     5.531587     20.39744     45.52676         6     0.992     0.488   9.43   0
       308    861.0539    217.0727 300.3773927 +22.7066158     329.4603     72.27951      1.296     2.91     4.731581     20.39744     53.33147         8     0.843     0.631 -43.86   0
       309    789.2078    214.4855 300.3558256 +22.6843730     635.0919     72.22423      1.283     2.92     4.756653     20.39744     112.2235        14     1.258     0.870 -85.52   0
       310    379.3141    213.5517 300.2284315 +22.5613903     425.1427     72.27951      1.598     5.74     4.854754     20.39744     53.12928         9     1.543     0.602  48.77   0
       311    396.0933    211.5040 300.2343184 +22.5658274     4067.211     72.48184      0.678     2.45     4.845785     20.39744     1762.278         7     0.515     0.349  86.07   0
       312    887.3366    203.5228 300.3899853 +22.7105827     1995.464     72.37155      1.484     2.64      4.86152     20.39744     273.9099        21     1.148     0.994  75.58   0
       313    305.8635    200.6075 300.2097703 +22.5356719     2214.068     72.27951      1.458     2.69     5.076585     20.39744      298.003        23     1.171     1.004  71.82   0
       314    383.7623    195.7424 300.2355910 +22.5576061     987.0566     72.29793      1.459     2.90     5.056041     20.39744     127.1609        14     1.049     0.910  83.76   0
       315    135.9272    196.3641 300.1582884 +22.4835424      335.127     72.26109      1.440     2.46     5.425242     20.39744     48.99659         5     0.711     0.448 -18.54   0
       316    785.8859    195.3357 300.3609998 +22.6778724     573.3987     72.38995      1.309     2.73     4.793958     20.39744     75.63776         8     0.881     0.603   3.95   0
       317    893.1978    192.2439 300.3954712 +22.7090923     467.3258     72.27951      1.608     4.71     4.912476     20.39744     56.09452         8     1.300     0.719 -41.62   0
       318    200.6252    188.0815 300.1810933 +22.5005484     689.6425     72.27951      1.253     2.48     5.467545     20.39744     109.6694        12     0.959     0.748  -3.32   0
       319    738.4406    184.8548 300.3496060 +22.6606604     1684.625     72.26109      1.403     2.58     4.896677     20.39744     210.1663        18     1.052     0.923  71.89   0
       320    803.3642    184.7908 300.3698693 +22.6800703     715.2194     72.29793      1.477     2.48      4.78415     20.39744     90.67925        10     0.886     0.703  34.65   0
       321    222.0432    181.0216 300.1900440 +22.5049373     679.9002     72.35315      1.535     3.62     5.522438     20.39744     66.72889        12     0.984     0.910 -19.18   0
       322   1009.9091    177.5574 300.4366515 +22.7397803     939.2921     72.29793      1.559     2.92     5.099068     20.39744     120.3969        17     1.184     0.930  82.01   0
       323    512.0347    177.7591 300.2813600 +22.5908493     362.1054     72.35315      1.483     4.03     5.200693     20.39744      43.6046         6     1.068     0.434  28.71   0
       324    742.3716    176.2949 300.3536070 +22.6593755     912.5455      72.2058      1.617     3.75     4.906286     20.39744     111.6408        15     1.191     0.815  65.06   0
       325    662.9941    175.7436 300.3290439 +22.6354605     1156.778     72.27951      1.314     2.31     5.368757     20.39744     186.1279        15     0.963     0.859  80.24   0
       326    484.3630    172.3586 300.2744934 +22.5810121     413.6399     72.38995      1.169     3.46     5.241934     20.39744     45.49933         6     0.826     0.543 -36.75   0
       327    858.5143    167.0988 300.3928057 +22.6914834     1435.291     72.46348      1.483     3.18      4.81372     20.39744     176.6015        19     1.131     0.956  74.26   0
       328    589.2697    167.4143 300.3087723 +22.6109982     1067.505     72.31634      1.429     2.44     5.430703     20.39744     138.3356        17     1.046     0.935  28.53   0
       329    870.6516    166.2424 300.3968692 +22.6948684     873.0133     72.31634      1.536     3.73     4.846082     20.39744     97.70595        18     1.202     1.043  87.48   0
       330    987.2955    156.8443 300.4363098 +22.7270574     931.9403     72.31634      1.307     4.12     5.122608     20.39744      138.775        16     1.200     0.848   5.71   0
       331     11.0465    153.4640 300.1333782 +22.4338035     426.5965     72.33475      1.509     3.80     5.520561     20.39744     50.09084         7     1.031     0.560 -27.14   0
       332    221.1169    149.5156 300.1999702 +22.4956108     837.3684     72.42672      1.578     3.69     5.585911     20.39744     86.97639        12     1.135     0.736   9.29   0
       333     83.1201    143.9709 300.1588569 +22.4526753     2305.791     72.31634      1.652     3.21     5.535719     20.39744     225.9218        29     1.308     1.252  82.47   0
       334    906.1965    141.5693 300.4159569 +22.6984048     839.8824     72.26109      1.727     3.42     5.112188     20.39744     86.93006        15     1.117     0.908  72.34   0
       335     33.1222    141.0249 300.1442712 +22.4368477     464.6304     72.29793      1.389     3.30     5.510833     20.39744     54.81239         9     0.910     0.728  22.23   0
       336    240.5157    137.4675 300.2099101 +22.4979610     5825.169     72.40833      1.540     2.66     5.621201     20.39744     792.0951        36     1.312     1.124  56.14   0
       337     24.6509    132.0567 300.1445454 +22.4317343     1454.011     72.35315      1.793     3.23     5.494396     20.39744     147.3068        25     1.355     1.240  83.49   0
       338    223.9734    128.4471 300.2076884 +22.4904149     746.7991     72.33475      1.526     3.01     5.642111     20.39744     80.49307        10     0.884     0.777 -13.69   0
       339    884.6879    119.2868 300.4164708 +22.6855609     3643.368     72.46348      1.460     2.57     5.141941     20.39744     484.9408        29     1.236     1.075  71.20   0
       340    988.4265    118.1187 300.4492176 +22.7162536      2888.24     72.27951      1.564     3.20     5.264689     20.39744      338.339        28     1.257     1.176  76.20   0
       341    434.3315    114.4353 300.2776929 +22.5493861     570.9978     72.29793      1.232     2.86     5.509307     20.39744     85.15754        11     0.909     0.825 -41.66   0
       342    187.1341    114.9824 300.2005948 +22.4755122     382.4579     72.27951      1.382     3.96     5.678455     20.39744     50.48697         8     1.125     0.533 -30.44   0
       343    358.0922    106.3168 300.2565921 +22.5242249     781.9478     72.48184      2.132     2.67     5.593226     20.39744     69.82603         9     0.791     0.773  41.54   0
       344    124.4113    103.1832 300.1849148 +22.4533335     720.8094     72.24266      1.590     3.21     5.634963     20.39744     74.74461        11     1.041     0.735  -4.18   0
       345    485.4423    101.4825 300.2978059 +22.5609654     1664.372     72.26109      1.480     2.80     5.465278     20.39744     234.7896        21     1.275     0.932  59.38   0
       346    413.3214    102.4665 300.2750315 +22.5396558     462.9233     72.40833      1.195     3.46      5.57856     20.39744     65.91481         7     1.016     0.497  -2.97   0
       347    547.0434    100.8333 300.3172020 +22.5792191     292.8333     72.35315      1.247     4.00     5.364172     20.39744     51.27568         6     0.910     0.586  57.71   0
       348    228.9302     97.6199 300.2192223 +22.4830444     339.9964     72.29793      1.091     2.34     5.713281     20.39744     54.31755         7     0.712     0.639 -14.26   0
       349    774.0451     91.4956 300.3909728 +22.6444668     323.2179     72.31634      0.910     2.29     5.153739     20.39744     56.20052         6     0.742     0.499   3.27   0
       350    723.1502     83.6895 300.3776356 +22.6269940     188.6102     72.29793      1.856     4.26     5.173169     20.39744      35.2951         5     1.031     0.502 -36.38   0
       351    259.5015     81.3519 300.2340050 +22.4875272     5873.904     72.33475      1.553     2.79     5.732224     20.39744      724.425        36     1.297     1.167  79.28   0
       352    766.1367     82.2834 300.3914929 +22.6394512      338.713     72.38995      1.116     2.31     5.157128     20.39744     55.54797         6     0.709     0.572  51.57   0
       353    110.5366     81.0330 300.1877799 +22.4428155     777.8453     72.29793      1.706     3.30     5.607533     20.39744     92.26202        12     1.165     0.680 -13.62   0
       354    888.4722     79.1490 300.4306617 +22.6751461     343.2096     72.29793      1.583     4.48     5.292149     20.39744        41.09         7     0.901     0.633  18.84   0
       355    231.4491     75.4805 300.2271811 +22.4774388     376.2554     72.33475      1.273     3.67     5.738442     20.39744     41.26157         6     0.918     0.422 -71.19   0
       356    274.8802     72.8861 300.2415332 +22.4897006     512.4488     72.46348      1.532     3.00     5.740515     20.39744     60.20834         8     0.885     0.678  -2.37   0
       357     20.8828     71.9233 300.1628639 +22.4133391     443.8657     72.38995      1.742     5.61     5.439669     20.39744     44.82471         8     1.007     0.879   5.88   0
       358    505.6438     66.8107 300.3153345 +22.5570467     6124.219     72.29793      1.425     2.66     5.419589     20.39744     816.6954        34     1.215     1.088  72.63   0
       359    391.0886     66.8769 300.2796451 +22.5227714     538.3626      72.4451      1.241     2.70     5.613892     20.39744     83.78997         9     0.881     0.658  28.64   0
       360    562.5377     61.8482 300.3346638 +22.5726494     272.1147     72.33475      1.130     2.76     5.332838     20.39744     43.98941         6     0.760     0.498 -88.19   0
       361    699.7343     58.3520 300.3785484 +22.6127009     435.9501     72.31634      1.664     3.41     5.179954     20.39744     43.56705         5     0.733     0.460 -13.16   0
       362    758.2312     56.8806 300.3972610 +22.6297797     829.5318     72.29793      1.439     2.44     5.163571     20.39744     107.3642        11     0.911     0.720  36.94   0
       363    850.7992     55.5169 300.4265695 +22.6570789     401.1447     72.18736      1.341     2.96     5.297525     20.39744     72.54259         9     0.927     0.645  73.41   0
       364    198.4475     50.5842 300.2249841 +22.4604025     498.7517     72.33475      1.225     3.44      5.76941     20.39744     67.67332         9     1.028     0.683  23.78   0
       365    634.0176     46.9490 300.3617627 +22.5897574     6400.512     72.29793      1.449     3.11     5.268287     20.39744     746.8961        35     1.289     1.100  72.72   0
       366    557.5564     49.0502 300.3372595 +22.5674791     453.1397     72.33475      1.386     3.63     5.307656     20.39744     62.54763         8     0.996     0.648 -56.21   0
       367    408.9067     45.8041 300.2920207 +22.5220497     1579.911     72.18736      1.422     2.72     5.624855     20.39744     226.7076        22     1.200     0.971  56.66   0
       368    675.2439     44.5609 300.3753844 +22.6014069     842.5394     72.38995      1.229     2.38     5.174133     20.39744     138.3588        13     0.923     0.809 -79.08   0
       369    744.8602     42.0981 300.3978829 +22.6215276     485.7213     72.37155      1.517     4.23     5.157207     20.39744       46.227         9     1.019     0.705  24.17   0
       370    691.2697     40.7283 300.3816213 +22.6050999      629.675     72.37155      1.490     2.37     5.162042     20.39744     77.53918         7     0.794     0.554  49.58   0
       371    157.9127     38.3737 300.2163347 +22.4447541     606.0244     72.26109      1.366     3.08     5.770537     20.39744     70.79482        10     1.009     0.634 -40.03   0
       372      5.2145     38.9423 300.1686819 +22.3991739     251.0429     72.00269      1.436     2.97      5.41395     20.39744     39.26727         5     0.805     0.473 -34.51  16
       373    961.4393     38.3231 300.4666590 +22.6852220     554.9805     72.27951      1.541     3.74     5.341584     20.39744     69.95823         7     1.140     0.590 -45.24   0
       374    729.8372     36.0678 300.3951536 +22.6152986     452.9351     72.27951      1.236     3.54     5.150883     20.39744     70.91193         7     0.950     0.631 -65.03   0
       375    678.2191     31.8094 300.3804438 +22.5986300      2697.94     72.27951      1.429     2.85      5.14831     20.39744     342.5887        28     1.178     1.080  80.56   0
       376    693.1384     30.6675 300.3854639 +22.6027655     818.6889     72.35315      1.595     3.58     5.147377     20.39744     99.89384        16     1.272     0.936  52.49   0
       377    319.3170     32.1895 300.2685478 +22.4913137     370.4756     72.26109      1.320     3.59     5.712512     20.39744     54.05096         7     0.952     0.622 -78.53   0
       378    764.6316     23.5705 300.4100510 +22.6221133     1482.153     72.29793      1.463     2.63     5.182726     20.39744     208.8954        19     1.120     0.955  52.81   0
       379    924.5732     22.1357 300.4604012 +22.6695394       219.18     72.27951      1.300     3.43     5.346468     20.39744     35.23543         5     1.196     0.284  34.78   0
       380    702.7614     16.7081 300.3929867 +22.6016298     725.1794     72.29793      1.353     2.45     5.132713     20.39744     110.2083        11     0.870     0.785 -50.16   0
       381    261.5548   1015.5220 299.9312964 +22.7562417     1930.316     72.27951      4.830    17.30     42.98965     20.39744     55.05646        67     3.688     2.255 -64.92  18
       382    744.5127   1014.5442 300.0819974 +22.9008158     393.5864     72.35315      1.847     6.43     4.107602     20.39744     35.52984         7     1.422     0.817  15.70  16
       383    794.5251     13.0785 300.4227718 +22.6280375     531.2032     72.40833      1.827     3.77     5.227718     20.39744     47.32455         9     1.017     0.734 -23.99   0
       384    308.1497   1012.3401 299.9468263 +22.7693109     1337.882     72.35315      3.454     5.36     6.673117     20.39744     82.91399        21     1.616     0.916  68.89   2
       385    305.2750   1013.2916 299.9456224 +22.7687211     847.5668     72.46348      2.458     5.42     6.863934     20.39744     61.48962         9     1.460     0.606  84.58   3
