#   1 NUMBER                 Running object number                                     
#   2 X_IMAGE                Object position along x                                    [pixel]
#   3 Y_IMAGE                Object position along y                                    [pixel]
#   4 ALPHA_J2000            Right ascension of barycenter (J2000)                      [deg]
#   5 DELTA_J2000            Declination of barycenter (J2000)                          [deg]
#   6 FLUX_APER              Flux vector within fixed circular aperture(s)              [count]
#   7 FLUXERR_APER           RMS error vector for aperture flux(es)                     [count]
#   8 FLUX_RADIUS            Fraction-of-light radii                                    [pixel]
#   9 FWHM_IMAGE             FWHM assuming a gaussian core                              [pixel]
#  10 BACKGROUND             Background at centroid position                            [count]
#  11 THRESHOLD              Detection threshold above background                       [count]
#  12 FLUX_MAX               Peak flux above background                                 [count]
#  13 ISOAREA_IMAGE          Isophotal area above Analysis threshold                    [pixel**2]
#  14 A_IMAGE                Profile RMS along major axis                               [pixel]
#  15 B_IMAGE                Profile RMS along minor axis                               [pixel]
#  16 THETA_IMAGE            Position angle (CCW/x)                                     [deg]
#  17 FLAGS                  Extraction flags                                          
         1    771.0178      9.9343 300.4119739 +22.6128867      527.897      72.3442      1.180     2.09     5.459822      20.4157      104.578         9     0.776     0.682   7.53   0
         2    202.7010      8.6936 300.2354467 +22.4424202     3880.602     72.54671      1.643     3.04       5.9204      20.4157     454.3643        43     1.466     1.312  23.80  16
         3    763.9836      1.7665 300.4124279 +22.6084324     744.4337      58.7064      1.143     2.12     5.422556      20.4157     134.6832        10     0.838     0.679  18.19  24
         4    318.8452      1.5039 300.2738988 +22.4751337     913.0981     57.30378      1.112     2.80      5.09832      20.4157     158.5034        11     1.017     0.612  -7.94  24
         5    163.1447   1012.5891 299.8972158 +22.7187036     1316.769     72.36263      2.873    10.67     96.87048      20.4157     58.12375        28     1.987     1.596 -39.72  18
         6    279.8795   1019.7670 299.9311731 +22.7557954     2771.323     72.10413      7.166    37.71     31.95741      20.4157     77.43671       230     8.359     4.723  48.45  27
         7    231.5587    991.8417 299.9252332 +22.7332875     4471.869     72.45473      8.886    31.30     61.66961      20.4157     94.16742       359     7.242     4.224 -84.93  19
         8    270.1439    979.3938 299.9412805 +22.7412965     9178.012      72.3442     12.157    40.83      27.5018      20.4157     181.3696      1043    13.379     5.683  69.27  19
         9      3.4615    993.8579 299.8536943 +22.6653998      2308.18     66.92364     13.921    28.55    -23.49138      20.4157     59.78476       161     5.965     3.792  38.78  27
        10    107.8028    921.9607 299.9094962 +22.6761110     4080.241     72.39949     18.594    50.69     11.36452      20.4157     85.77048       850    10.963     6.729 -32.26   3
        11    834.9692    952.2026 300.1259881 +22.9028753     318.3014     72.32576      1.724     6.49     3.911625      20.4157     35.17776         7     1.440     0.820 -46.46   0
        12    563.0134    952.5934 300.0411309 +22.8214590     300.3727     72.25196      1.380     4.12     3.731688      20.4157     38.71793         5     1.082     0.449  63.35   0
        13    274.9995    952.4464 299.9515562 +22.7350254     545.9617     72.36263      1.996     5.55      15.7569      20.4157     42.00739         9     1.468     0.591  57.31   0
        14    591.7769    949.7166 300.0510235 +22.8292585      1615.44     72.32576      1.816     4.03     3.726272      20.4157     103.9992        24     1.246     1.211 -11.39   0
        15    107.7655    953.3515 299.8992750 +22.6850995     4984.683     72.39949     22.508    90.42     33.82971      20.4157     1265.809      2636    15.567    14.571   7.09  19
        16    683.1682    959.0435 300.0764554 +22.8593368     6933.828     72.41791      1.870     4.29     3.896957      20.4157     444.4172        47     1.521     1.406  -1.65   0
        17    485.4378    946.2982 300.0190280 +22.7963884     1063.697     72.36263      1.809     4.35     3.687502      20.4157     85.75561        20     1.325     1.058   2.72   0
        18    416.0928    944.1342 299.9981504 +22.7749688     6573.864     72.50993      1.828     4.02     4.042537      20.4157     537.1325        44     1.467     1.354  13.75   0
        19    387.1782   1003.5098 299.9698381 +22.7833273     523.1225     72.28887      1.750     3.81     4.299868      20.4157     53.58419         7     0.892     0.592  77.08   0
        20      4.2199   1019.7940 299.8454922 +22.6730605     3317.268     69.37012      8.510    32.36    -32.97659      20.4157     67.85348       225     8.293     3.505 -15.41  27
        21    208.6881   1012.2829 299.9114725 +22.7322849     554.6939     72.47314      1.360     6.68     86.67732      20.4157     63.78484         9     1.402     0.892  60.74   3
        22    448.4922    931.0800 300.0124789 +22.7809413     577.2506     72.47314      1.848     5.33      3.91568      20.4157     51.49883        10     1.297     0.617 -31.62   0
        23     13.0373    977.6112 299.8619537 +22.6636183     1646.586      72.3442     10.763    30.26    -9.285394      20.4157     60.45622        83     6.496     3.914 -17.40  27
        24    962.4254    923.0856 300.1752047 +22.9327059     2177.494     72.32576      1.940     4.71     3.989756      20.4157     118.1369        32     1.469     1.360  44.34   0
        25    204.2654    997.1813 299.9150107 +22.7266278     1981.738     72.32576      5.440    10.11     75.43197      20.4157     64.36506        36     2.032     1.631  50.27   3
        26    578.2889    996.6207 300.0315643 +22.8386740     2322.715     72.28887      1.867     4.11     3.722095      20.4157     162.6871        33     1.487     1.272  12.76   0
        27    612.9923    919.8807 300.0673353 +22.8270564     356.2903     72.28887      1.824     3.87     3.806206      20.4157      30.9477         5     0.840     0.511  63.36   0
        28    664.7485    991.8282 300.0600514 +22.8632244     8465.629     72.38107      1.908     4.40     3.727099      20.4157     538.6612        47     1.546     1.407  48.66   3
        29    751.0918    911.7550 300.1130013 +22.8661223     645.7018      72.3442      1.852     5.23      4.03754      20.4157     52.41849        13     1.098     1.053  42.14   0
        30    121.2313   1014.0063 299.8837284 +22.7065293     2834.602     72.36263     13.018    70.62     91.37801      20.4157     118.3228      1160    17.974     7.700  41.65  27
        31    670.4007    989.6582 300.0625181 +22.8642962     9366.074     72.32576      1.923     4.49     3.737073      20.4157     504.2997        48     1.545     1.441  10.34   3
        32    786.2924    906.1799 300.1257851 +22.8750717     1097.193     72.28887      1.760     4.72      4.02042      20.4157     75.10261        20     1.229     1.145 -13.04   0
        33    563.8766    907.1202 300.0561904 +22.8086676     359.2459     72.47314      1.680     4.48     3.893819      20.4157     41.80874         5     0.803     0.710  72.28   0
        34    765.4217    992.3029 300.0912645 +22.8935425     734.3187     72.28887      2.117     7.90     3.772663      20.4157     48.52669        16     1.576     1.108   3.33   0
        35    239.4518    902.5023 299.9567461 +22.7100360     854.3269     72.43633      3.335     3.99     10.61765      20.4157     32.25558         5     0.957     0.475 -46.02   2
        36    203.4440   1003.4763 299.9127074 +22.7281861     2759.928      72.3442      5.292    20.02     80.54092      20.4157     63.41333       121     4.470     2.490  13.12  19
        37    808.3365    899.7547 300.1347459 +22.8798332      11519.7     72.38107      1.781     4.09     4.010695      20.4157     804.8118        50     1.445     1.369  -5.49   0
        38    251.4509    990.3942 299.9318892 +22.7388418     6445.322      72.3442     13.905    55.22     45.85146      20.4157      109.711       871    12.055     7.552 -65.25  19
        39    998.2499    900.2433 300.1938097 +22.9368767     419.8693     72.39949      1.929     4.33     4.077949      20.4157      29.7944         5     0.734     0.726  16.37   0
        40    853.8522    899.3717 300.1490596 +22.8933629     560.4336     72.38107      1.786     4.98     3.995522      20.4157     48.66694        13     1.172     1.020   9.69   0
        41    197.1817    976.4963 299.9195377 +22.7185710     1125.438     72.27042      4.567    14.58     59.67481      20.4157     47.72208        22     3.626     1.629  48.26   2
        42    119.5296    890.8818 299.9232472 +22.6707193     975.8736     72.47314      5.252     6.55     10.22887      20.4157     55.59825        14     1.548     1.071  26.20   0
        43    860.3455    887.3157 300.1550050 +22.8918462     575.7007     72.43633      2.013     6.13     4.000433      20.4157     44.05769         9     1.159     0.911 -53.36   0
        44    513.0178    887.4946 300.0467385 +22.7877852     438.5279     72.28887      1.695     4.74     3.958115      20.4157     44.58244         5     1.244     0.511  51.19   0
        45    957.5683    975.8953 300.1565100 +22.9464186     636.9568     72.30732      1.796     6.01     3.774472      20.4157     47.34141        13     1.445     0.703  -5.85   0
        46    816.8185    881.9040 300.1431954 +22.8772488      1437.49     72.27042      1.747     4.23     4.010432      20.4157     99.46019        24     1.370     1.123  28.53   0
        47    110.1655    882.1051 299.9231911 +22.6653926     566.0051     72.36263      2.911     6.55     7.707178      20.4157     34.13835        10     1.265     0.951  75.29   0
        48    999.5540    881.1904 300.2004132 +22.9317938     406.5956     72.38107      1.953     6.94      4.14317      20.4157     37.06738         8     1.483     0.912  34.62   0
        49    668.6328    878.4766 300.0981320 +22.8318514      382.076     72.36263      1.813     7.32     4.159242      20.4157     34.68755        13     1.379     1.087  29.84   0
        50    854.9526    875.4446 300.1571843 +22.8868209     957.6671     72.38107      2.204     5.49     4.007821      20.4157     53.06506        17     1.170     1.088  45.81   0
        51    963.9005    872.5176 300.1921117 +22.9186217      386.055     72.52833      1.737     5.70     4.087697      20.4157     33.42459         7     1.240     0.739 -30.36   0
        52    903.1369    866.6470 300.1750696 +22.8987312     601.2592     72.38107      1.693     5.19     4.011836      20.4157      51.0333        13     1.193     0.892  73.42   0
        53    754.4844    865.7300 300.1290268 +22.8539238     696.4437     72.47314      1.862     4.28     4.036073      20.4157     60.45858        16     1.130     1.003  52.49   0
        54    467.2735    861.8069 300.0408526 +22.7666963     4247.479     72.30732      1.668     3.60     4.012695      20.4157     419.4236        37     1.361     1.259  16.68   0
        55     13.9526    862.8182 299.8995698 +22.6309877     416.3324     72.39949      1.548     5.10     4.853941      20.4157     47.09113         8     1.469     0.501  48.19   0
        56    765.4731    863.4653 300.1331878 +22.8565667     1319.745     72.39949      0.983     1.63      4.04056      20.4157     680.3128        14     1.075     0.652 -43.08   0
        57    198.5872    983.0513 299.9178423 +22.7208723       1590.5     72.39949      3.812    11.09     64.99637      20.4157     51.21675        27     2.579     1.329  32.99   2
        58    246.1253    850.1032 299.9758597 +22.6970089     312.4213     72.50993      1.495     4.00      5.69415      20.4157     37.86395         6     0.804     0.666  89.35   0
        59    110.2071    848.7974 299.9340339 +22.6558542     246.0222     72.17808      1.278     3.41     5.600478      20.4157     41.81201         5     0.981     0.342  48.96   0
        60    192.5414    847.3214 299.9601045 +22.6801353     764.4441     72.39949      1.797     5.89      6.73837      20.4157      68.7617        17     1.315     1.043  75.20   0
        61    169.6639    844.3594 299.9539559 +22.6724218     1568.547     72.32576      1.842     4.27     7.133336      20.4157     136.5694        27     1.427     1.248   0.57   0
        62    175.5077    960.7236 299.9179309 +22.7075441      1319.53     72.50993      3.746    11.38     51.62592      20.4157     45.38968        33     2.624     1.376  11.44   2
        63     45.2923    834.4997 299.9185122 +22.6322743      407.728     72.52833      1.611     4.37     4.743856      20.4157     43.85977         6     0.931     0.585 -61.03   0
        64    995.7669    832.2585 300.2151439 +22.9166009     2154.006     72.38107      1.977     4.46     4.226854      20.4157     138.6317        28     1.436     1.212  -9.17   0
        65    701.7258    832.1136 300.1235178 +22.8284590     333.5278     72.49154      1.576     4.49     4.373365      20.4157     45.79622         9     1.056     0.932 -53.54   0
        66    779.1364    825.9481 300.1496453 +22.8498872     617.5604     72.41791      1.674     5.84     4.141429      20.4157     49.53752        14     1.197     1.016 -10.97   0
        67    202.4048    826.1679 299.9700480 +22.6770272     335.6643      72.3442      1.259     1.94        5.639      20.4157     53.71161         5     0.661     0.471  72.64   0
        68    647.4030    819.9663 300.1105438 +22.8086895     4745.463     72.36263      1.548     3.36     4.445216      20.4157     464.7354        31     1.226     1.171 -20.22   0
        69    137.1766    820.5683 299.9515927 +22.6558512     425.1794     72.36263      1.694     4.57     5.504491      20.4157      46.6505         8     1.005     0.799  -4.84   0
        70    449.4373    816.7704 300.0499441 +22.7484232     608.9665     72.38107      1.615     4.39     4.105754      20.4157     63.09886        15     1.141     0.950  13.22   0
        71    197.2769    813.5603 299.9725525 +22.6718725     1327.612      72.3442      1.783     4.32     5.178469      20.4157     117.8825        25     1.344     1.255  10.96   0
        72    667.8705    812.7131 300.1192778 +22.8127416      764.761     72.47314      1.570     3.42     4.519979      20.4157     78.22593        14     1.087     0.855 -57.87   0
        73    216.5532    810.5074 299.9795377 +22.6767796     452.3417     72.38107      1.735     4.87     4.913651      20.4157     44.28564        10     1.223     0.985  49.54   0
        74    823.4501    799.8135 300.1719549 +22.8556590     4394.373     72.39949      1.692     3.67     4.165841      20.4157      338.468        34     1.328     1.208  19.67   0
        75    232.2496    793.9429 299.9898026 +22.6767364     307.8228     72.41791      1.471     5.72     4.554601      20.4157      35.1925         8     1.347     0.685  37.77   0
        76    540.4194    792.3557 300.0862027 +22.7686935     802.1422     72.38107      1.799     3.28     4.445799      20.4157      72.2775        13     1.068     0.824  60.33   0
        77    186.6032    790.1924 299.9768303 +22.6619676     928.0156     72.17808      1.704     5.11     4.604644      20.4157     90.15668        17     1.240     1.089 -33.23   0
        78    602.0321    785.4318 300.1076393 +22.7851749     622.2744     72.39949      1.487     3.54     4.471815      20.4157     62.67709        11     0.972     0.892 -24.99   0
        79    336.3947    782.1788 300.0260159 +22.7045978     53639.32      72.3442      1.627     3.20     4.386407      20.4157     5447.988        86     1.434     1.345  26.14   0
        80    594.3088    781.2746 300.1065854 +22.7816663     1670.247     72.50993      1.533     3.26     4.471517      20.4157      172.639        22     1.224     0.997  32.41   0
        81   1007.3812    780.5176 300.2355893 +22.9052120     894.7659     72.32576      1.854     6.91      4.47217      20.4157     60.39639        19     1.571     0.873 -33.32   0
        82    264.8095    780.3895 300.0043327 +22.6826146     634.4011     72.25196      1.817     4.26     4.516141      20.4157     57.04379        13     1.151     0.950   8.76   0
        83    623.0995    777.4376 300.1167994 +22.7891942     939.7167     72.38107      1.581     4.10     4.501321      20.4157     91.91242        18     1.383     0.873 -36.34   0
        84    634.1509    775.8885 300.1207451 +22.7920617     583.0044     72.36263      1.548     6.10      4.52429      20.4157     53.79151        13     1.226     0.854 -38.69   0
        85     22.6016    776.9024 299.9301855 +22.6089496     792.5514     72.27042      1.840     5.01     4.399915      20.4157     66.33503        14     1.484     0.877   5.08   0
        86    953.4327    773.7451 300.2209615 +22.8871082     328.8954     72.38107      1.957     3.48     4.504397      20.4157     27.12119         5     0.775     0.451 -70.96   0
        87    739.5822    772.1960 300.1547928 +22.8225972     537.2517     72.28887      1.591     3.90     4.569476      20.4157      55.0585        10     0.982     0.700   7.71   0
        88    777.1987    762.3715 300.1697095 +22.8310466     878.6317     72.32576      1.537     4.08      4.38848      20.4157     82.23041        15     1.213     0.874  42.52   0
        89    386.1425    759.4242 300.0488888 +22.7129862     31729.62     72.36263      1.556     3.01     4.315423      20.4157     3463.425        69     1.363     1.302  20.98   0
        90    400.2401    759.9812 300.0530942 +22.7173732     2108.751     72.38107      1.683     3.26     4.296118      20.4157     234.4359        28     1.316     1.200   8.38   0
        91    909.3248    755.5389 300.2131230 +22.8686656     2887.452     72.41791      1.669     3.69     4.646055      20.4157     239.4391        30     1.306     1.191   7.66   0
        92    938.7807    753.9496 300.2228262 +22.8770317      302.834      72.3442      1.416     3.79     4.663235      20.4157     28.15037         5     0.834     0.495  34.23   0
        93    397.3641    753.8701 300.0541856 +22.7147569     671.3317     72.36263      1.851     3.75     4.316219      20.4157     67.65409         9     0.980     0.707  39.20   0
        94    268.4462    751.0912 300.0149861 +22.6752994     924.0714      72.3442      1.725     3.85     4.450489      20.4157      104.252        15     1.182     0.973 -67.12   0
        95    667.1924    751.5496 300.1389489 +22.7949752     849.9853     72.36263      1.523     3.84     4.593198      20.4157      84.5685        16     1.204     0.888  25.48   0
        96    503.4145    751.5192 300.0879558 +22.7458773     484.1758      72.3442      1.603     4.67     4.406705      20.4157     59.44344        11     1.112     0.974  19.75   0
        97     73.5040    746.7675 299.9557937 +22.6155811     598.9824     72.32576      1.673     4.96     4.510622      20.4157     54.12592        11     1.203     0.915 -43.72   0
        98    514.2335    746.2302 300.0930429 +22.7476023     823.7421     72.38107      1.445     3.44     4.438411      20.4157     84.67178        15     1.027     0.980 -87.04   0
        99    915.5316    743.6694 300.2189167 +22.8671143     571.5876     72.41791      1.617     4.54     4.732728      20.4157      43.9247        11     0.990     0.793  17.38   0
       100    416.1036    742.4732 300.0637208 +22.7171047     361.5423     72.49154      1.565     4.28     4.344009      20.4157     46.48013         5     0.777     0.672  66.98   0
       101    372.5251    741.8944 300.0503493 +22.7038720     466.0944     72.50993      1.949     4.81     4.355462      20.4157     33.88431         7     1.135     0.578 -49.27   0
       102    668.4202    741.0189 300.1427540 +22.7923189     443.6499     72.36263      1.826     5.32     4.595286      20.4157     33.14574         9     1.061     0.753 -21.44   0
       103    460.0174    741.2271 300.0777924 +22.7299129     407.4611     72.38107      1.453     5.25     4.403334      20.4157     48.36819        10     1.160     0.671   4.48   0
       104    102.0107    740.1011 299.9668182 +22.6222218     508.6964     72.27042      1.933     5.73       4.5432      20.4157     49.82945        10     1.018     0.910 -63.52   0
       105    893.0866    738.2947 300.2136641 +22.8588471     405.4869     72.54671      1.400     4.30     4.772678      20.4157     38.83122         7     0.904     0.584 -26.00   0
       106    266.3459    735.8359 300.0192908 +22.6702923      465.343     72.38107      1.431     2.72     4.424662      20.4157     66.91364         9     0.890     0.687  21.75   0
       107    589.3714    726.1734 300.1229570 +22.7643656     356.9897      72.3442      1.553     5.01      4.49108      20.4157     42.96674         8     0.968     0.745  -6.75   0
       108    559.4553    724.3909 300.1142204 +22.7548873     591.4747     72.36263      1.554     3.26     4.487746      20.4157     69.37746        11     0.986     0.806 -71.42   0
       109    975.7469    720.8234 300.2451236 +22.8785836     4588.352     72.38107      1.685     3.62     4.911399      20.4157     331.6512        40     1.364     1.276  22.49   0
       110    581.2465    721.7299 300.1218708 +22.7606546      1213.62      72.3442      1.332     2.68      4.49611      20.4157      174.641        16     1.083     0.867  44.15   0
       111    500.9198    721.2028 300.0970319 +22.7364263     266.8548     72.27042      1.399     4.59     4.462732      20.4157     36.87465         8     0.870     0.687  40.68   0
       112    663.0366    716.3752 300.1490860 +22.7836283     372.7404     72.38107      1.615     4.24     4.591698      20.4157     30.77341         7     0.756     0.679  -1.05   0
       113    964.1799    712.3284 300.2442762 +22.8726783     1682.123     72.39949      1.633     3.47     4.915934      20.4157     155.3203        21     1.199     1.092  14.99   0
       114    326.9208    706.0834 300.0477995 +22.6799199      894.222     72.49154      1.458     3.60     4.350552      20.4157     103.7272        13     1.087     0.834   4.53   0
       115    790.6591    703.4939 300.1930406 +22.8181662     2576.129     72.43633      1.635     3.26      4.55117      20.4157     238.2205        30     1.565     1.013   9.24   0
       116    215.5753    703.4641 300.0140233 +22.6457771     325.9158      72.3442      1.218     3.90     4.504283      20.4157     43.11716         6     0.891     0.494  88.28   0
       117    995.3991    702.4304 300.2572319 +22.8791825     1592.041     72.32576      1.679     3.76     4.983395      20.4157     123.0889        22     1.193     1.151  21.56   0
       118     12.8084    693.5153 299.9542410 +22.5820977      907.257     72.30732      1.969     4.50     4.577818      20.4157     75.57568        18     1.339     1.019  -6.46   0
       119    175.9152    690.0014 300.0060678 +22.6300193      572.101     72.27042      1.467     4.63     4.658295      20.4157     69.74424        14     1.194     1.016 -50.38   0
       120    872.7952    689.6444 300.2231475 +22.8387906     600.0765     72.36263      1.625     4.66     4.926912      20.4157      53.0527        11     1.178     0.702  25.08   0
       121    908.9755    680.4428 300.2374198 +22.8469825     149449.6     72.41791      1.567     3.07     4.960691      20.4157     14052.82       154     1.483     1.423  11.09   0
       122    671.2853    684.5009 300.1620135 +22.7769456     324.1669     72.52833      1.496     3.33     4.604944      20.4157     60.75239         5     0.823     0.391 -25.51   0
       123    761.3459    680.6332 300.1913330 +22.8028173      637.421     72.38107      1.375     3.10     4.605114      20.4157      91.0313        13     1.019     0.860 -52.17   0
       124    942.1974    673.7488 300.2499563 +22.8550079     369.9707     72.36263      1.414     4.39     4.992444      20.4157     44.05399         7     0.887     0.620  23.95   0
       125    595.2179    669.1689 300.1433013 +22.7497483     1547.121      72.3442      1.328     2.72     4.618662      20.4157     176.4436        18     0.999     0.936   8.24   0
       126    776.4105    666.5729 300.2005967 +22.8032909     9539.947     72.36263      1.468     2.79     4.645815      20.4157     1049.914        43     1.229     1.179  -5.67   0
       127    277.8842    661.4611 300.0470457 +22.6524099     5046.305     72.49154      1.524     3.02     4.370827      20.4157     540.1045        34     1.271     1.130  35.85   0
       128    359.9148    659.5571 300.0731805 +22.6764589     1298.461     72.32576      1.492     3.01     4.359886      20.4157     142.5849        18     1.105     0.915   3.80   0
       129    235.4448    657.1757 300.0352405 +22.6384538     471.1617     72.38107      1.704     5.49      4.44664      20.4157     54.36422         9     1.304     0.651  52.86   0
       130    568.3176    655.1433 300.1394811 +22.7376591     750.6204     72.41791      1.490     3.20     4.743533      20.4157     85.87518        17     1.072     0.986  68.77   0
       131    559.9199    647.2427 300.1394329 +22.7328736     3277.421      72.3442      1.388     2.88     4.839667      20.4157     354.9882        25     1.125     1.031  29.52   0
       132    550.1213    641.0476 300.1383944 +22.7281581     1488.006     72.36263      1.454     2.86      4.93264      20.4157     155.5495        19     1.084     0.947  25.37   0
       133    479.1972    641.0954 300.1162984 +22.7069156     302.5379     72.27042      1.555     4.30     4.588943      20.4157        33.16         5     0.758     0.695 -87.42   0
       134    943.7945    639.0818 300.2617182 +22.8455226     363.5354     72.28887      1.279     4.15     5.043048      20.4157     55.00626         8     0.960     0.627 -10.63   0
       135    213.5414    637.0349 300.0349729 +22.6261058      702.273     72.36263      1.527     3.24     4.558881      20.4157     81.36226        14     1.012     0.955 -72.76   0
       136    227.7719    635.5231 300.0398886 +22.6299393     715.8474     72.36263      1.536     3.63     4.508017      20.4157     72.23156        12     1.030     0.869  -2.73   0
       137    996.9276    632.3306 300.2804862 +22.8594912     536.0674     72.43633      1.502     5.85     5.156434      20.4157     50.51176        11     1.316     0.733  37.59   0
       138    253.2830    632.3572 300.0488498 +22.6366806     570.9919     72.32576      1.491     4.54     4.466452      20.4157     67.79877        12     1.228     0.704  49.69   0
       139    574.0726    631.4522 300.1489698 +22.7325800     318.1856     72.36263      1.289     3.37     4.959414      20.4157     49.31023         7     0.903     0.726  41.56   0
       140    474.9372    630.7998 300.1183169 +22.7026827     1867.975     72.30732      1.423     2.83     4.622916      20.4157     221.9955        23     1.177     1.062 -18.97   0
       141    284.4586    632.1000 300.0586286 +22.6459546     505.1743     72.45473      1.638     4.50     4.403095      20.4157     44.85653        10     1.086     0.681  -9.62   0
       142    128.8394    625.5634 300.0123690 +22.5974119     20167.76     72.43633      1.636     3.29     4.787118      20.4157     2132.715        60     1.407     1.321  17.05   0
       143     50.1234    627.3029 299.9873433 +22.5743003      681.826     72.50993      1.799     4.12     4.720013      20.4157     64.94539        11     1.141     0.883  41.87   0
       144    559.8789    626.0917 300.1462913 +22.7267872      947.655     72.50993      1.352     3.12     5.068931      20.4157     126.2245        12     0.976     0.794 -52.00   0
       145    595.2198    625.0613 300.1576316 +22.7370813      382.654     72.32576      1.475     5.09     4.917813      20.4157     38.19235        10     1.079     0.684 -79.57   0
       146    477.3846    623.5883 300.1214214 +22.7013455     337.6375     72.30732      1.478     4.24      4.65821      20.4157     52.18615         5     1.063     0.483 -86.27   0
       147    643.3306    614.0970 300.1761783 +22.7483474     170.8904     72.49154      0.860     2.30     4.822887      20.4157     47.70618         5     0.727     0.427  70.50   0
       148    977.9301    612.3951 300.2810360 +22.8480727      993.135     72.32576      1.504     4.36     5.162184      20.4157     105.8331        17     1.239     0.935  -4.68   0
       149    844.6946    610.5380 300.2400874 +22.8076426     573.8067     72.45473      1.532     4.19      4.97569      20.4157     50.91003        12     1.106     0.796  47.08   0
       150     74.7996    609.7022 300.0007273 +22.5766528     1487.708      72.2335      1.994     5.75     4.755707      20.4157     120.1715        26     1.630     1.207 -80.96   0
       151    141.1043    610.2623 300.0211510 +22.5967000     384.8768     72.45473      1.523     4.31     4.787118      20.4157     36.72786         7     0.757     0.700  25.68   0
       152    523.5223    606.8546 300.1412201 +22.7103676      416.115     72.39949      1.218     2.67     5.152703      20.4157     63.36708         9     0.848     0.802  61.67   0
       153    918.1119    605.3594 300.2646632 +22.8281397     885.8325      72.3442      1.987     6.42      5.02932      20.4157     78.45116        14     1.459     0.793  25.83   2
       154    315.9888    606.0742 300.0768894 +22.6479377     403.7657     72.38107      1.460     2.34     4.450679      20.4157     52.15777         6     0.731     0.653  -9.68   0
       155    382.3975    604.1830 300.0981636 +22.6673028     212.1885     72.27042      1.136     3.46      4.51101      20.4157     25.56486         5     0.771     0.448  71.67   0
       156    479.9242    598.9808 300.1302050 +22.6950407     841.6314     72.36263      1.528     3.05      4.76404      20.4157     90.70447        12     1.056     0.698  11.27   0
       157    628.2026    597.4791 300.1768640 +22.7390414     461.5402     72.27042      1.155     2.42     4.958161      20.4157     81.82578         8     0.859     0.631  14.62   0
       158    675.3757    596.1254 300.1919989 +22.7527852     519.4226     72.39949      1.554     3.38     4.809696      20.4157     55.21584         7     0.841     0.608  18.23   0
       159    645.4250    595.6512 300.1828224 +22.7436762     649.3287     72.38107      1.362     3.03     4.907522      20.4157     80.34762        11     0.983     0.737  41.09   0
       160    524.2085    594.8001 300.1453491 +22.7071114     817.1217     72.17808      1.316     2.76     5.169972      20.4157     115.9106        14     1.022     0.817  26.95   0
       161    957.9351    590.5037 300.2819098 +22.8357933      3221.33     72.47314      1.500     2.95     5.087544      20.4157     323.5253        25     1.150     1.101  32.67   0
       162    489.7168    590.2257 300.1360970 +22.6954613     1747.683      72.3442      1.304     2.61     4.874904      20.4157     224.4891        19     1.063     0.909  50.45   0
       163    854.8889    587.5517 300.2507325 +22.8040895     387.1336      72.3442      1.639     5.12     4.940954      20.4157     33.56127         9     1.240     0.598 -27.69   0
       164     51.6236    583.6511 300.0019870 +22.5622274     5191.866     72.38107      1.711     3.60     4.716966      20.4157     526.4092        39     1.366     1.315  11.35   0
       165    465.0566    585.4299 300.1299785 +22.6866937     183.0826     72.38107      1.170     3.63     4.775844      20.4157     40.02544         6     0.835     0.690  18.55   0
       166    997.0215    580.6223 300.2973128 +22.8446545     399.4832     72.36263      1.391     4.57     5.143568      20.4157     52.36154         7     1.013     0.585 -48.14   0
       167    518.9099    581.0002 300.1481816 +22.7015604     320.9837      72.2335      1.357     3.22     5.147439      20.4157     50.04726         7     0.871     0.528 -39.07   0
       168    353.1038    576.9240 300.0979029 +22.6506959     9181.261     72.50993      1.423     2.81     4.679832      20.4157      1091.82        41     1.211     1.164  29.80   0
       169    475.5584    574.0330 300.1369489 +22.6865682     9115.653     72.41791      1.384     2.59     4.836143      20.4157     1239.886        39     1.190     1.097  29.43   0
       170    241.1528    571.6673 300.0647897 +22.6156250     337.4963      72.3442      1.897     4.20     4.861274      20.4157     47.65355         5     1.066     0.472 -37.99   0
       171    971.9790    565.5687 300.2943897 +22.8328297     12575.94     72.36263      1.526     2.93     5.066104      20.4157     1332.422        47     1.287     1.249  51.32   0
       172    887.3137    568.1313 300.2671507 +22.8082173     1985.759     72.45473      1.461     2.76     4.938577      20.4157     201.3973        23     1.139     1.059 -81.63   0
       173    536.1186    563.6439 300.1591764 +22.7017322     11445.68      72.3442      1.358     2.56     5.308995      20.4157     1436.976        38     1.180     1.069  45.76   0
       174    263.5403    558.7485 300.0759469 +22.6186289     1419.007     72.41791      1.588     2.92     4.940358      20.4157     162.3438        21     1.241     1.004  67.07   0
       175    705.5161    559.2825 300.2133559 +22.7512290     576.5181     72.49154      1.439     4.33     4.890519      20.4157     69.98672        11     1.151     0.714  17.06   0
       176    422.0524    558.0719 300.1254792 +22.6659493     423.2876     72.36263      1.538     2.79     4.825267      20.4157     59.62541         7     0.937     0.605 -32.19   0
       177    510.6829    556.6553 300.1535268 +22.6921033     516.9666     72.41791      1.353     3.91      5.12596      20.4157     68.35246        10     1.225     0.581  -5.06   0
       178    467.8895    551.7953 300.1417836 +22.6778839     4529.139     72.27042      1.346     2.54     4.901314      20.4157     640.1978        29     1.116     1.037  54.56   0
       179    810.7303    551.8792 300.2485515 +22.7806134     665.0336     72.47314      1.269     2.86     4.876725      20.4157      89.6608        12     0.891     0.853 -80.61   0
       180    446.1192    550.2744 300.1355015 +22.6709230     1324.285     72.47314      1.338     2.81     4.888924      20.4157     153.6053        15     1.027     0.900 -65.86   0
       181    200.3595    549.6296 300.0592623 +22.5970688     636.1124     72.38107      1.386     2.94     5.053847      20.4157     101.6543        13     1.031     0.835  68.16   0
       182    887.6995    547.4603 300.2739845 +22.8023912     1652.872     72.45473      1.507     3.11     4.908385      20.4157     166.7988        21     1.174     0.985 -36.46   0
       183    408.6662    545.9346 300.1252549 +22.6584522     364.3574     72.41791      1.247     4.32     4.890306      20.4157     51.67406         7     1.229     0.433  63.26   0
       184    584.4807    539.3749 300.1821173 +22.7092515     203210.3      72.3442      1.352     2.40     5.389239      20.4157     26937.28       186     1.439     1.322   5.14   0
       185    768.1012    544.4326 300.2376821 +22.7657069     820.9072      72.3442      1.278     2.92     4.861631      20.4157     106.4782        13     0.995     0.776  34.18   0
       186    861.4538    543.1632 300.2671960 +22.7932974     195.1043     72.38107      1.178     3.60     4.850571      20.4157     35.51732         5     1.032     0.361  -4.56   0
       187    270.5534    539.2925 300.0844458 +22.6151465     3586.615     72.38107      1.420     2.57     5.057612      20.4157     447.8559        30     1.195     1.101  49.19   0
       188    836.4539    535.6755 300.2618330 +22.7836594     450.6844     72.39949      1.408     4.11     4.811292      20.4157     66.05654         7     1.142     0.444  48.48   0
       189    855.1241    533.5725 300.2683370 +22.7886455      349.906      72.3442      1.284     3.19     4.789352      20.4157     43.98145         6     0.789     0.493   3.48   0
       190    615.9020    526.1152 300.1962092 +22.7148557     307.3052     72.52833      1.407     2.99     5.377489      20.4157     47.98254         6     0.749     0.562 -51.35   0
       191    474.9830    519.8899 300.1543520 +22.6708466     2710.212     72.28887      1.437     2.77     4.906996      20.4157      333.672        32     1.561     1.038 -87.05   0
       192    319.2185    522.2575 300.1051136 +22.6248441     446.2538      72.3442      1.481     3.33     4.990193      20.4157     57.46224         9     0.876     0.854  42.36   0
       193    924.8408    519.7070 300.2945802 +22.8055330       213.65     72.38107      1.282     4.47      4.72804      20.4157     35.46149         6     1.013     0.561  63.38   0
       194    887.1925    516.4686 300.2838906 +22.7933307      264.158      72.3442      1.277     4.47     4.665371      20.4157     47.37884         8     0.830     0.806 -68.73   0
       195    705.8159    515.4268 300.2276909 +22.7387174     216.5865     72.38107      1.219     3.45     4.987019      20.4157      40.5091         5     0.750     0.457 -18.49   0
       196    792.4508    508.4123 300.2569684 +22.7626470     464.7684     72.41791      1.390     2.83      4.73227      20.4157     56.17413         9     0.932     0.633  10.40   0
       197    872.0460    506.0656 300.2825454 +22.7858053     1735.648     72.36263      1.352     2.85     4.579618      20.4157     203.8854        20     1.043     0.997  44.59   0
       198      2.4347    504.1965 300.0125049 +22.5246781     781.3423      62.2354      1.580     3.75     4.413966      20.4157     76.14154        18     1.202     1.000 -87.31  24
       199    743.3254    503.5529 300.2432350 +22.7465391     2614.706     72.36263      1.342     2.41     4.847753      20.4157     334.0187        20     1.043     0.982   3.85   0
       200    988.3284    501.3974 300.3203295 +22.8192739      532.101     72.30732      1.994     3.04     5.095834      20.4157     54.68999         5     0.760     0.658 -24.76   2
       201    986.3165    497.0316 300.3211194 +22.8174163     786.0814     72.36263      1.643     3.34     5.080656      20.4157     84.91063        12     1.011     0.848  54.95   2
       202    953.0585    500.5133 300.3096140 +22.8084621     388.6041     72.45473      1.356     3.50     4.768515      20.4157     46.47969         6     0.794     0.493   7.72   0
       203    648.1581    500.1690 300.2146814 +22.7170635     501.1971     72.39949      1.424     3.45      5.27159      20.4157     56.75433         9     0.817     0.746  40.83   0
       204   1000.6771    497.6507 300.3253986 +22.8218928      1174.95     72.36263      1.455     2.70     5.228525      20.4157     148.4238        18     1.038     1.011  74.05   0
       205    872.3335    496.0246 300.2858953 +22.7830050     2246.846      72.3442      1.641     3.38     4.503298      20.4157     225.6448        29     1.530     1.085  82.91   0
       206    625.7545    494.0497 300.2096895 +22.7085945     731.8682     72.38107      1.949     2.96     5.377933      20.4157     86.53915         9     0.889     0.745  57.74   2
       207    464.1787    493.0635 300.1596990 +22.6599043     457.2594     72.32576      1.399     3.68     4.858514      20.4157     55.99063         8     0.915     0.703  72.06   0
       208    411.5272    494.3126 300.1429067 +22.6444857     237.5794     72.50993      1.372     3.20     4.780094      20.4157     45.21777         6     0.873     0.461  -3.79   0
       209    910.6119    491.1207 300.2994245 +22.7930550     4388.073      72.3442      1.439     2.81     4.451762      20.4157     430.4963        31     1.172     1.120  -8.79   0
       210    551.9073    490.8453 300.1877312 +22.6855519      220.588     72.38107      0.954     2.53     5.266841      20.4157     43.04909         6     0.732     0.556  40.47   0
       211    530.3969    499.6594 300.1781719 +22.6816394     710.5464     72.32576      1.219     2.91     5.181766      20.4157     100.0469        11     0.936     0.786  26.71   0
       212    570.9990    487.1770 300.1948673 +22.6902175     392.7813     72.28887      1.455     3.33     5.324368      20.4157     51.47584         8     0.829     0.686  28.78   0
       213    142.4812    481.3194 300.0634486 +22.5601091     1044.629     72.50993      1.648     3.41     4.784101      20.4157     132.4871        19     1.204     1.070  33.99   0
       214   1002.3413    481.8155 300.3310593 +22.8178374     738.4852      72.3442      1.383     2.49     5.300731      20.4157     94.40123        12     0.915     0.784 -15.46   0
       215    803.3837    475.4739 300.2710709 +22.7564534     392.3503     72.36263      1.257     3.47     4.568528      20.4157      47.4451         5     0.743     0.469  17.36   0
       216    190.1740    473.5382 300.0808004 +22.5721743     284.5112     72.36263      1.364     2.61     4.922436      20.4157     43.65276         5     0.716     0.469 -18.14   0
       217    134.9635    471.6124 300.0642630 +22.5550690     388.0149      72.3442      1.455     5.42     4.833961      20.4157     51.01367         9     1.030     0.804 -34.19   0
       218    998.7481    470.6815 300.3335531 +22.8135603      282.422     72.39949      1.381     4.58     5.240091      20.4157     45.28577         7     0.979     0.616 -49.60   0
       219    742.8543    465.5189 300.2554365 +22.7354672     482.6733     72.39949      1.383     3.14     4.733239      20.4157     62.74582        10     1.007     0.758  83.75   0
       220    351.8639    464.1664 300.1341288 +22.6179486     263.9713     72.36263      1.161     3.53     4.964118      20.4157     32.09835         5     1.383     0.260  11.34   0
       221    631.7667    463.4414 300.2214993 +22.7016008     296.5289     72.41791      1.150     3.22     5.295198      20.4157     41.51976         5     0.734     0.444 -22.33   0
       222    683.9111    461.4893 300.2383776 +22.7166573     714.5319     72.52833      1.204     2.46     5.039376      20.4157     117.2091        10     0.841     0.722  20.72   0
       223    662.5574    459.8017 300.2322727 +22.7097770     164.5783     72.36263      0.874     3.54     5.144946      20.4157     37.75933         5     0.939     0.385  -6.92   0
       224    998.5212    454.1449 300.3388509 +22.8087369     539.3461     72.39949      1.191     3.23     5.197281      20.4157     74.61917         9     0.928     0.770 -40.96   0
       225    744.6962    453.8254 300.2598066 +22.7326579     869.3398     72.28887      1.306     2.58     4.643178      20.4157     127.4212        13     0.913     0.815  44.70   0
       226    902.0830    449.9337 300.3101362 +22.7786603     947.6528     72.47314      1.351     3.01     4.357296      20.4157     130.9314        15     0.989     0.943  25.24   0
       227    886.2421    446.4749 300.3063190 +22.7729238     661.8834      72.3442      1.351     2.62     4.361367      20.4157     73.90248        10     0.820     0.784 -15.94   0
       228     90.8896    446.0428 300.0588651 +22.5345156      184.701     72.38107      1.065     3.77     4.980522      20.4157     32.95018         5     0.798     0.512  31.06   0
       229    630.5397    444.2396 300.2273504 +22.6957157     3147.741     72.36263      1.257     2.40     5.215171      20.4157     431.2847        20     1.064     0.922  73.81   0
       230    990.9902    443.4458 300.3399746 +22.8034061     457.4078     72.38107      1.308     3.80     5.075583      20.4157     53.90609         8     1.074     0.497  -1.02   0
       231    737.1991    438.2199 300.2625360 +22.7259276     190.1661     72.28887      1.222     3.93     4.548059      20.4157     26.00321         5     0.963     0.459  45.48   0
       232    106.8439    435.5774 300.0672200 +22.5362953      253.888     72.41791      1.326     2.50      5.04661      20.4157      41.2953         5     0.718     0.443  22.80   0
       233    636.0692    432.3161 300.2329432 +22.6939455     299.3428     72.47314      1.400     2.95      5.13623      20.4157     46.38387         6     0.799     0.619  34.84   0
       234    402.2275    432.1521 300.1601912 +22.6238466     198.5628     72.38107      1.213     3.71     4.886984      20.4157     43.31517         5     0.877     0.452  42.63   0
       235    470.4340    431.2909 300.1816988 +22.6440351     360.5363      72.3442      1.094     2.25     4.870243      20.4157     53.29897         5     0.677     0.465  69.54   0
       236   1000.2371    422.3653 300.3497024 +22.8001111     909.0674     72.43633      1.480     3.61      5.12769      20.4157     113.4682        16     1.195     0.955  43.98   0
       237    913.4728    423.1617 300.3223788 +22.7743719     548.6058     72.32576      1.442     4.08     4.348207      20.4157     60.47693        10     1.085     0.667  14.50   0
       238    741.2834    418.2712 300.2702839 +22.7214167     1048.881     72.49154      1.240     2.60     4.397293      20.4157     139.9803        15     0.924     0.879  37.66   0
       239    536.9791    419.0709 300.2063821 +22.6604598     392.4776     72.36263      1.237     2.04     4.838164      20.4157     73.35832         6     0.743     0.587  -1.97   0
       240    245.0726    416.2849 300.1164536 +22.5721936      626.712     72.47314      1.322     3.41     5.080821      20.4157      81.5543        10     0.986     0.690  62.83   0
       241    307.5196    412.1058 300.1372318 +22.5897091     3655.136     72.49154      1.366     2.56     5.034617      20.4157     490.1419        30     1.173     1.072  51.40   0
       242    254.6467    406.8012 300.1225088 +22.5723400     7641.396     72.36263      1.447     2.74     5.071142      20.4157      1054.18        36     1.232     1.115  45.97   0
       243   1020.6973    401.7783 300.3627684 +22.8003129     1884.786     69.79183      1.532     2.95     5.320695      20.4157     213.8947        24     1.176     1.086 -64.70  16
       244    395.5396    401.0935 300.1681903 +22.6129219     4836.609     72.45473      1.340     2.53     4.919072      20.4157     643.9105        28     1.131     1.015  48.03   0
       245    639.6407    397.8484 300.2452428 +22.6851100     18530.86     72.41791      1.318     2.38     4.965072      20.4157     2778.948        53     1.237     1.109  27.64   0
       246    486.9680    399.5462 300.1971486 +22.6398690     401.4955     72.38107      1.320     2.65     4.866118      20.4157     51.50077         8     0.819     0.650  88.67   0
       247    657.3513    397.8305 300.2507658 +22.6904086     794.1066     72.39949      1.830     5.52     4.899145      20.4157     71.56926        14     1.691     0.653 -39.18   0
       248    883.7375    394.3460 300.3224583 +22.7571857     339.2094     72.41791      1.229     2.33     4.465207      20.4157     48.13554         5     0.707     0.449 -16.78   0
       249    836.4855    388.3951 300.3096560 +22.7413303     307.2286     72.28887      1.093     3.18     4.396714      20.4157     47.66001         6     0.847     0.487  -3.29   0
       250    259.9910    384.9466 300.1312630 +22.5676662     299.0246     72.36263      1.439     2.51     5.066271      20.4157     51.00791         5     0.636     0.561  -0.30   0
       251    973.4006    380.4088 300.3549476 +22.7800131     821.5653     72.17809      1.603     3.98     5.006542      20.4157     102.0082        14     1.199     0.886 -53.48   0
       252    510.8895    380.0710 300.2109160 +22.6414395     412.4361     72.52833      1.398     3.77     4.835445      20.4157     47.88772         7     0.932     0.593  76.88   0
       253    682.8578    379.0311 300.2648134 +22.6926434     276.0936     72.38107      1.436     3.79     4.745461      20.4157     35.89493         5     0.807     0.511  33.37   0
       254    194.3524    377.8752 300.1131473 +22.5459631     2036.254     72.36263      1.465     2.69     5.146987      20.4157     292.8112        23     1.179     1.039  36.71   0
       255    580.3550    367.3031 300.2366896 +22.6585768     6696.012     72.38107      1.270     2.29     4.831791      20.4157     828.2696        33     1.135     1.014  65.04   0
       256    993.9537    367.8936 300.3654212 +22.7825640     1279.279     72.38107      1.406     2.73     5.156335      20.4157     145.0086        18     1.079     0.918  -3.34   0
       257    295.1574    366.7900 300.1480921 +22.5729907      743.273     72.36263      1.382     2.89     5.026747      20.4157     88.08501        14     1.015     0.901 -87.58   0
       258    153.0469    360.0943 300.1060759 +22.5284773     572.8453     72.38107      1.350     2.67     5.239354      20.4157     79.11017        10     0.859     0.748 -68.63   0
       259    840.5893    359.2693 300.3203874 +22.7341843     362.1418      72.3442      1.383     3.14     4.461745      20.4157     42.77855         6     0.696     0.648  -0.68   0
       260      1.2381    357.6595 300.0596918 +22.4822684     704.5195     55.81818      1.060     2.32     5.337245      20.4157     149.6837         8     1.007     0.417 -84.57  24
       261    784.5609    356.4148 300.3038471 +22.7165917     1296.191     72.38107      1.473     2.68      4.39181      20.4157     139.7277        20     1.218     0.939  63.69   0
       262    694.2606    357.5461 300.2753382 +22.6898821      620.476     72.41791      1.350     2.63     4.654149      20.4157     86.28426        10     0.857     0.769 -47.78   0
       263    486.9637    353.5292 300.2120801 +22.6266468     6249.959     72.36263      1.331     2.45     4.862974      20.4157     891.5491        29     1.121     1.011  58.51   0
       264    976.4382    348.3088 300.3663121 +22.7716894     693.2246      72.3442      1.532     3.43     5.137094      20.4157     81.87639        11     1.071     0.779 -36.99   0
       265    879.1877    348.1022 300.3360465 +22.7425261      1340.77     72.25196      1.376     2.63     4.652656      20.4157     178.2996        20     1.117     0.933  16.84   0
       266    471.8381    342.2821 300.2110208 +22.6188846     522.0174     72.32576      1.297     2.84     4.878394      20.4157     73.84011         9     0.919     0.696 -25.54   0
       267    554.3034    340.3349 300.2373274 +22.6430247     553.4464     72.47314      1.359     2.83     4.779223      20.4157     60.23341         8     0.912     0.574 -73.07   0
       268    832.7175    339.2362 300.3244337 +22.7260677     273.1592      72.3442      1.529     4.14     4.536225      20.4157     38.50767         7     1.107     0.443 -57.68   0
       269    534.6594    338.3335 300.2318600 +22.6365663     281.8642     72.39949      1.236     2.97     4.795171      20.4157     42.44181         5     0.736     0.455 -12.30   0
       270    851.8359    335.5741 300.3315828 +22.7307370     659.4619     72.38107      1.513     3.00     4.583483      20.4157     86.73995        13     1.074     0.821  18.99   0
       271    374.5769    332.7422 300.1838465 +22.5870075     2483.573     72.36263      1.325     2.31     4.902634      20.4157     392.5184        24     1.097     1.053   0.37   0
       272     93.0446    330.1305 300.0971481 +22.5018891     1035.181     72.32576      1.467     3.05     5.367544      20.4157     122.1357        17     1.054     0.978  19.61   0
       273    722.0042    327.7619 300.2936474 +22.6896265     291.4438     72.39949      1.273     3.76     4.579423      20.4157     32.49035         5     0.819     0.495  49.79   0
       274    343.8890    322.1575 300.1777326 +22.5747729     29967.03     72.36263      1.369     2.54     4.883459      20.4157     3701.172        67     1.311     1.184  44.35   0
       275    878.6213    319.7449 300.3450708 +22.7342016     1337.867     72.38107      1.384     2.77     4.749611      20.4157     179.0877        17     1.001     0.957  55.68   0
       276    833.8220    317.8122 300.3317292 +22.7202377     439.6332      72.3442      1.475     2.97     4.654599      20.4157     51.92258         6     0.854     0.616  -9.47   0
       277     40.2092    309.9070 300.0872908 +22.4802451     4897.298     72.28887      1.604     3.13     5.426009      20.4157     605.3345        36     1.347     1.242  50.53   0
       278    837.1449    309.4185 300.3354884 +22.7188186     246.9342      72.3442      1.171     3.40      4.70753      20.4157     34.68008         5     0.741     0.453  19.54   0
       279    794.0234    308.8456 300.3222311 +22.7057470     561.2933     72.38107      1.300     3.48     4.665697      20.4157      63.9344         9     0.907     0.700  -9.08   0
       280    442.5800    307.4537 300.2132133 +22.6001137     516.8775      72.3442      1.205     2.89     4.983609      20.4157     72.57103        10     0.849     0.804 -61.27   0
       281    218.4297    308.7137 300.1430726 +22.5333193     393.9189     72.36263      1.187     3.06     5.133683      20.4157     52.44776         5     0.711     0.469 -72.64   0
       282    754.4531    302.0318 300.3121077 +22.6919431     1900.656     72.38107      1.324     2.46     4.663779      20.4157     249.8202        20     1.031     0.983  -1.26   0
       283    562.8343    296.7009 300.2541402 +22.6330396     326.2262      72.3442      1.325     2.31     4.792181      20.4157      54.1774         7     0.794     0.578 -28.84   0
       284    969.4648    295.1972 300.3813689 +22.7543256     553.4318     72.36263      1.301     3.00     5.016975      20.4157     78.68374        12     1.030     0.835 -30.44   0
       285    416.1036    286.5225 300.2117630 +22.5861691     2146.171     72.49154      1.467     2.87     5.139461      20.4157     282.9326        23     1.251     0.923  62.22   0
       286    628.5338    285.2620 300.2783133 +22.6494245     322.8912     72.39949      1.289     3.97     4.782023      20.4157     57.63766         6     1.111     0.610 -63.57   0
       287    855.4031    279.8707 300.3507669 +22.7157855      663.382     72.30732      1.302     2.50     4.827175      20.4157     81.13129        10     0.954     0.602  23.86   0
       288    737.6474    277.2896 300.3148964 +22.6797984     431.2397     72.32576      1.318     2.75     4.726724      20.4157     52.70162        10     0.887     0.736  45.19   0
       289    491.9884    265.9621 300.2420523 +22.6029893     1222.185     72.36263      1.286     2.56     5.035294      20.4157     188.5618        16     1.111     0.785  48.82   0
       290    299.2731    266.5128 300.1819036 +22.5454218     270.7805     72.50993      1.149     4.11      5.00294      20.4157     44.10101         5     0.989     0.488  -7.28   0
       291     64.4870    265.6998 300.1091734 +22.4748311     326.5535     72.52833      1.491     3.44     5.493868      20.4157     39.35905         5     1.036     0.330  67.51   0
       292   1003.3674    262.3446 300.4026033 +22.7550177     315.6817     72.38107      1.208     3.24     4.984879      20.4157     49.48372         5     0.738     0.450  72.89   0
       293    736.9197    257.8600 300.3209720 +22.6739939     2224.267     72.41791      1.344     2.36     4.752392      20.4157     333.1515        23     1.137     0.950 -59.99   0
       294    998.1274    252.2928 300.4042288 +22.7505581     3243.009     72.49154      1.484     2.72     4.956501      20.4157      398.329        28     1.150     1.141  36.33   0
       295    445.1441    241.6840 300.2353447 +22.5819832     553.8018     72.45473      1.213     2.18     5.343276      20.4157     101.0019         7     0.772     0.572  18.12   0
       296    120.0596    235.4660 300.1362492 +22.4828054     1474.148     72.39949      1.821     3.93     5.546615      20.4157     143.6735        25     1.424     1.180 -35.94   0
       297    150.7465    235.7464 300.1456968 +22.4920820     620.7498     72.39949      1.649     3.32     5.487372      20.4157     72.28691        13     1.163     0.729 -14.75   0
       298   1013.7972    232.7203 300.4154663 +22.7496144     501.2145     72.27042      1.414     2.89     4.913218      20.4157     72.90795        12     0.908     0.893   5.56   0
       299    857.8176    229.5306 300.3678479 +22.7020294     365.9358     72.38107      1.556     3.39      4.83206      20.4157      42.1366         7     0.851     0.601  85.39   0
       300    204.1832    227.8879 300.1648582 +22.5058371     452.9353     72.28887      1.361     2.41     5.376761      20.4157     69.42582         7     0.811     0.547 -38.24   0
       301    999.2623    225.7029 300.4132071 +22.7432473     213.9775     72.45473      1.106     3.41     4.893408      20.4157     50.50419         5     0.761     0.443 -10.57   0
       302     59.3549    224.9702 300.1207874 +22.4615985     352.4206     72.39949      1.450     4.17     5.526648      20.4157     29.92609         6     0.799     0.746 -72.82   0
       303    880.0244    221.8336 300.3772689 +22.7064603     331.0159     72.38107      1.124     2.53     4.851025      20.4157     63.11958         6     0.845     0.452  27.79   0
       304    808.5690    219.3772 300.3557861 +22.6843715     671.2106     72.36263      1.167     2.97     4.832963      20.4157     85.96858        10     1.045     0.638  75.16   0
       305    398.8012    218.9968 300.2282793 +22.5615841      413.405     72.14111      1.397     3.82     5.425236      20.4157     43.66602         5     0.821     0.509 -32.46   0
       306     83.4572    212.4253 300.1323451 +22.4652198     303.7929     72.36263      1.969     4.70     5.549596      20.4157     33.55767         5     1.005     0.741 -88.58   0
       307    906.6307    208.3862 300.3899274 +22.7105527      2055.95     72.36263      1.319     2.36     4.891461      20.4157     294.9438        23     1.104     1.021 -78.25   0
       308    325.1163    205.5768 300.2097046 +22.5356576     2161.753     72.32576      1.371     2.48     5.318235      20.4157     286.1315        23     1.087     1.011  50.60   0
       309    403.1036    200.5989 300.2355842 +22.5575859     1020.973     72.27042      1.427     3.10     5.436767      20.4157     130.5323        15     1.077     0.912  85.72   0
       310    155.0634    201.1261 300.1582651 +22.4834327     258.5586     72.39949      1.332     3.81      5.54477      20.4157     35.85268         6     0.759     0.573  44.55   0
       311    804.9908    200.2354 300.3608782 +22.6777953     693.7829     72.36263      1.530     3.75     4.834697      20.4157     67.50257         9     0.824     0.732  26.42   0
       312    912.4344    197.4083 300.3952975 +22.7091309     361.2602     72.36263      1.157     3.11     4.907345      20.4157     47.63608         6     0.892     0.426  18.28   0
       313    219.9901    192.7366 300.1811715 +22.5004762     876.6199     72.30732      1.473     2.84     5.372092      20.4157     111.2818        13     0.942     0.891  24.40   0
       314    757.8876    189.7985 300.3495800 +22.6606974     1648.872     72.28887      1.312     2.12     4.957402      20.4157     276.6723        16     0.921     0.884 -55.51   0
       315    822.7377    189.4333 300.3699137 +22.6799989     536.1664     72.36263      1.087     2.23       4.8546      20.4157     89.31428         7     0.760     0.582  32.35   0
       316    241.5630    186.1824 300.1900050 +22.5050564      544.759     72.36263      1.196     3.25      5.34684      20.4157     73.97953         9     0.981     0.701 -53.79   0
       317    484.1688    185.3643 300.2657559 +22.5774836     236.3326     72.38107      1.440     5.14     5.456154      20.4157     29.01209         6     1.133     0.660 -86.54   0
       318    761.6667    181.2635 300.3535254 +22.6593736     746.0881     72.41791      1.245     3.02     4.980198      20.4157     98.51175        10     0.876     0.834  22.15   0
       319    531.1798    182.1937 300.2814204 +22.5906483     271.8451      72.3442      1.240     3.65     5.261676      20.4157     44.14084         6     0.774     0.540  35.64   0
       320    682.3346    180.4259 300.3290746 +22.6353895     1334.741      72.3442      1.371     2.30     5.162302      20.4157     179.9635        16     1.017     0.868 -72.35   0
       321    503.3909    176.9243 300.2744767 +22.5808133     381.1276      72.3442      1.258     2.37     5.395495      20.4157      57.2804         6     0.713     0.598  29.33   0
       322    889.6129    171.6576 300.3965301 +22.6948949     781.3295     72.32576      1.578     3.66     4.932377      20.4157     92.92485        13     1.124     0.903 -85.98   0
       323    877.7975    172.1512 300.3926854 +22.6915019     1295.744     72.36263      1.242     2.37     4.930494      20.4157     186.8888        16     0.979     0.843 -13.70   0
       324    608.5000    172.1707 300.3087497 +22.6109148     912.7692     72.27042      1.252     2.85     4.940107      20.4157     116.8932        17     1.057     0.912  52.87   0
       325   1006.5551    161.4093 300.4363316 +22.7269284     1223.423     72.38107      1.596     2.92     4.878402      20.4157     137.9957        20     1.241     1.039 -25.68   0
       326     30.4313    158.2486 300.1334336 +22.4337714      476.334     72.39949      1.238     2.07     5.239913      20.4157     61.98241         5     0.662     0.477  73.16   0
       327    240.5050    154.4628 300.1999599 +22.4956269     679.0841     72.45473      1.270     2.99     5.390512      20.4157      90.0704        13     1.015     0.797  24.73   0
       328    123.0704    153.2748 300.1638344 +22.4601029     283.9362     72.43633      1.333     3.71     5.544569      20.4157      32.3826         5     0.820     0.482  55.36   0
       329    102.3607    148.9668 300.1587942 +22.4526603     2287.286     72.39949      1.543     3.22     5.505001      20.4157     261.7216        28     1.344     1.101  47.82   0
       330    925.7054    146.1742 300.4160492 +22.6983606     745.0887     72.30732      1.344     3.31     5.043251      20.4157     94.82473        12     1.028     0.838  29.12   0
       331     52.3172    146.2130 300.1441354 +22.4368738     559.8648      72.3442      1.588     2.82     5.324069      20.4157     56.13739         9     0.858     0.706  -3.97   0
       332    259.8210    142.3847 300.2098826 +22.4979430     5717.405      72.3442      1.444     2.75     5.394073      20.4157      721.259        38     1.308     1.125  53.58   0
       333     44.0313    136.8739 300.1445882 +22.4317088     1354.195     72.38107      1.580     3.21     5.294785      20.4157     155.1682        18     1.165     1.098  -0.26   0
       334    243.5809    133.0403 300.2078611 +22.4903936       597.71     72.38107      1.375     3.65     5.445845      20.4157     76.27837        11     1.076     0.765 -80.21   0
       335    802.5828    130.8742 300.3826167 +22.6571236     2209.287     72.36263      0.702     0.99      5.11504      20.4157     876.4938         8     0.544     0.468   6.86   0
       336   1007.6532    122.9008 300.4491591 +22.7161747       2780.6     72.45473      1.506     2.88     5.314239      20.4157     294.9542        27     1.228     1.092  81.07   0
       337    903.9965    124.1616 300.4164147 +22.6855329     3597.696     72.39949      1.427     2.71     5.158323      20.4157     460.1694        28     1.153     1.106 -61.30   0
       338    453.3962    119.2503 300.2776108 +22.5492659      539.399     72.36263      1.278     3.13     5.481437      20.4157     69.27458        13     0.996     0.867 -40.07   0
       339    206.0259    119.8040 300.2004735 +22.4753412     434.2817     72.32576      1.437     5.15     5.575377      20.4157     42.04195        10     0.919     0.816  75.72   0
       340    567.7877    117.5345 300.3137826 +22.5830188     275.0569     72.30732      1.216     2.89     5.343307      20.4157     44.92617         5     0.722     0.462  19.79   0
       341    377.4498    110.9826 300.2566547 +22.5241487     857.7122     72.38107      2.435     3.18     5.416835      20.4157     69.60489        11     0.891     0.857 -21.53   0
       342    913.0908    109.7522 300.4239222 +22.6841071     273.1148     72.36263      1.249     4.01     5.251359      20.4157     34.73283         6     1.455     0.317  29.24   0
       343    143.6576    108.0075 300.1849072 +22.4532684     755.1357      72.3442      1.606     3.90     5.654438      20.4157     84.31539        14     1.146     1.018 -48.09   0
       344    504.7531    106.5625 300.2977112 +22.5609944     1592.818     72.39949      1.267     2.21     5.465427      20.4157     253.7158        16     0.964     0.876  35.08   0
       345    432.8556    107.3239 300.2750833 +22.5396875     430.5449     72.39949      1.366     2.42     5.478527      20.4157      61.7547         7     0.801     0.572  31.38   0
       346     41.8050    106.7343 300.1536657 +22.4223860     241.2217     72.36263      1.451     5.17     5.290951      20.4157     36.68668         7     1.075     0.703 -36.78   0
       347    566.6776    105.6774 300.3172803 +22.5792773     338.1282     72.47314      1.366     4.36       5.3725      20.4157     51.61242         8     1.066     0.661  -8.70   0
       348    248.1310    101.7247 300.2194268 +22.4827589     444.2647     72.43633      1.462     5.42     5.518932      20.4157     64.35359        10     1.238     0.744  73.87   0
       349    793.2278     96.1898 300.3909438 +22.6443469     310.4656     72.36263      1.179     3.49     5.414572      20.4157     53.28965         6     0.782     0.528  45.38   0
       350    278.8074     86.2570 300.2339808 +22.4875022     6057.524      72.3442      1.515     2.85       5.4498      20.4157      711.103        40     1.328     1.183  50.88   0
       351    785.1158     87.3333 300.3912857 +22.6393721     382.6394     72.47314      1.164     2.55     5.406251      20.4157     53.57026         5     0.867     0.351 -46.41   0
       352    129.6672     85.7212 300.1877815 +22.4426751     667.5491     72.47314      1.508     3.97     5.668295      20.4157     70.03021        11     1.024     0.873  46.00   0
       353    907.9031     84.3889 300.4305255 +22.6752571     333.1626     72.25196      1.407     3.42     5.359844      20.4157     35.13174         5     0.754     0.449 -18.20   0
       354    250.5812     80.2846 300.2271376 +22.4773322     340.7119     72.28887      1.375     3.08     5.575476      20.4157      45.5035         5     0.972     0.324  20.03   0
       355     40.6306     76.7729 300.1630111 +22.4134290     363.0238     72.36263      1.432     4.43     5.379237      20.4157     40.10643         8     1.065     0.641 -56.20   0
       356    524.9445     71.6978 300.3152981 +22.5570149     6287.354     72.45473      1.379     2.50     5.428995      20.4157     918.5428        34     1.219     1.028  65.54   0
       357    410.3842     71.6557 300.2796500 +22.5227065     638.1682      72.3442      1.339     2.70     5.200185      20.4157     80.64511         9     0.838     0.751  34.84   0
       358    581.3578     66.4256 300.3345743 +22.5723846     367.8522     72.39949      1.576     3.33     5.380142      20.4157     47.86345         5     0.753     0.426  23.81   0
       359    718.9058     63.1149 300.3784989 +22.6125950     309.9049     72.54671      1.067     2.74     5.286454      20.4157     51.66488         6     0.711     0.582 -51.34   0
       360    777.5591     61.4621 300.3973152 +22.6296684     970.0504      72.3442      1.682     3.24       5.4235      20.4157     108.6671        14     1.018     0.919  67.73   0
       361    869.9006     60.5450 300.4264020 +22.6570287     388.0667     72.45473      1.260     3.18     5.320511      20.4157     76.34663         7     1.045     0.489   5.83   0
       362    217.4079     55.3388 300.2249057 +22.4602285     506.4686      72.3442      1.322     4.36     5.771498      20.4157     62.58156         9     1.135     0.646  53.37   0
       363    576.1649     54.2269 300.3369104 +22.5673224     427.0547     72.38107      1.223     3.55     5.388412      20.4157     57.96333         7     0.747     0.656  30.26   0
       364    653.2946     51.7939 300.3617241 +22.5897056     6406.901     72.25196      1.406     2.62     5.395871      20.4157      846.267        36     1.231     1.077  74.99   0
       365    428.2808     50.7825 300.2919843 +22.5220644     1480.794     72.36263      1.354     2.70     5.052178      20.4157     192.0295        16     1.064     0.844  78.07   0
       366    694.5891     49.3274 300.3753897 +22.6013530     825.0186     72.38107      1.211     2.53     5.354921      20.4157     106.6339        12     0.880     0.816  19.70   0
       367    710.3619     45.5112 300.3815413 +22.6049747     672.8176      72.3442      1.511     2.88       5.3135      20.4157     69.46289        10     0.852     0.783  62.65   0
       368    177.0541     43.2969 300.2162607 +22.4446817     702.1147     72.45473      1.421     4.03     5.822296      20.4157     85.11649        13     1.199     0.864  53.90   0
       369     24.3422     43.8226 300.1686279 +22.3990846     297.1581     72.36263      1.102     2.88     5.455012      20.4157     55.90321         5     0.797     0.486 -39.28   0
       370    980.4669     42.9558 300.4665892 +22.6850352      574.669      72.3442      1.477     3.33     5.967702      20.4157     72.11178         9     0.953     0.692 -47.42   0
       371   1019.6126     42.5806 300.4789247 +22.6966329     171.0956     72.27042      1.194     4.24     6.286901      20.4157     38.00195         6     0.955     0.699  17.25  16
       372    748.7761     40.7643 300.3950513 +22.6151026     492.0987     72.38107      1.296     3.44     5.301456      20.4157     67.49901        11     1.052     0.731  48.45   0
       373    697.5618     36.6410 300.3804271 +22.5985932     2832.825     72.45473      1.407     2.53     5.349235      20.4157     413.0839        25     1.124     1.029  73.00   0
       374    712.6672     35.5773 300.3854789 +22.6028068      994.698      72.3442      1.851     4.53     5.306451      20.4157     79.85424        20     1.436     0.990  54.85   0
       375    338.4554     37.5112 300.2683329 +22.4913552     530.9449     72.39949      1.324     3.41     4.997638      20.4157     61.26025         6     0.868     0.447 -17.51   0
       376    784.0087     28.3738 300.4100484 +22.6220783     1605.905     72.36263      1.429     2.45     5.511571      20.4157      215.248        20     1.072     0.956  42.16   0
       377    861.8691     22.9304 300.4360871 +22.6438024     206.0117     72.41791      1.131     3.93     5.389362      20.4157     36.02335         6     0.751     0.589  37.68   0
       378    722.1109     21.5102 300.3929802 +22.6015856     691.1163     72.52833      1.283     3.01     5.281854      20.4157     101.6992        12     0.967     0.828  85.70   0
       379    527.5878     20.7800 300.3326214 +22.5431651     972.9529     72.32576      1.373     2.46     5.399256      20.4157     150.1524        14     1.000     0.800  49.75   0
       380    100.3769     20.8399 300.1997021 +22.4152616     560.8769     72.39949      1.522     4.70     5.878521      20.4157     62.47619         8     1.029     0.609 -34.91   0
       381    431.5166     18.9768 300.3032977 +22.5138893     827.2134     72.32576      1.388     2.38     4.798566      20.4157     108.8997        12     0.873     0.800   5.86   0
       382    813.3276     17.8094 300.4226116 +22.6278092     413.3716      72.3442      1.213     2.73      5.58919      20.4157     62.33977         8     0.897     0.600  10.41   0
       383    763.6227   1019.9431 300.0817103 +22.9009376     349.4423     71.82613      1.543     5.62     3.657776      20.4157     35.48492         6     1.099     0.809 -12.03  16
       384    326.8409   1017.5781 299.9464908 +22.7692592     1023.065     72.39949      1.859     5.01     11.98986      20.4157     89.07586        23     1.434     1.209  14.26  16
       385      3.0636   1008.9350 299.8486659 +22.6696013     2811.221     65.22807     10.588    27.11    -29.74449      20.4157     67.58643       170     5.057     4.035 -20.32  27
