#   1 NUMBER                 Running object number                                     
#   2 X_IMAGE                Object position along x                                    [pixel]
#   3 Y_IMAGE                Object position along y                                    [pixel]
#   4 ALPHA_J2000            Right ascension of barycenter (J2000)                      [deg]
#   5 DELTA_J2000            Declination of barycenter (J2000)                          [deg]
#   6 FLUX_APER              Flux vector within fixed circular aperture(s)              [count]
#   7 FLUXERR_APER           RMS error vector for aperture flux(es)                     [count]
#   8 FLUX_RADIUS            Fraction-of-light radii                                    [pixel]
#   9 FWHM_IMAGE             FWHM assuming a gaussian core                              [pixel]
#  10 BACKGROUND             Background at centroid position                            [count]
#  11 THRESHOLD              Detection threshold above background                       [count]
#  12 FLUX_MAX               Peak flux above background                                 [count]
#  13 ISOAREA_IMAGE          Isophotal area above Analysis threshold                    [pixel**2]
#  14 A_IMAGE                Profile RMS along major axis                               [pixel]
#  15 B_IMAGE                Profile RMS along minor axis                               [pixel]
#  16 THETA_IMAGE            Position angle (CCW/x)                                     [deg]
#  17 FLAGS                  Extraction flags                                          
         1    782.6238     14.6811 300.4120103 +22.6127017     554.2151     72.29182      1.311     3.65     5.034542     20.40612     74.43784        10     1.036     0.725 -78.49   0
         2    214.6334     13.9309 300.2354411 +22.4424731     3913.308     72.32868      1.535     2.66     5.488153     20.40612     488.6783        32     1.243     1.146  64.91   0
         3    776.0938      6.7302 300.4125513 +22.6084610     911.9185     72.45753      1.292     2.53     5.011809     20.40612     154.9984        13     0.945     0.836  46.81   0
         4    330.8065      6.1193 300.2741006 +22.4750171     1298.848     72.25495      1.431     2.89     5.485294     20.40612     148.6252        21     1.160     0.980  31.65  16
         5    741.3170      5.4732 300.4021205 +22.5976955     277.8857     72.45753      1.073     3.33     4.995879     20.40612     51.21448         5     0.754     0.426  24.72  16
         6    814.1388      2.0336 300.4259315 +22.6184906     653.7008     60.24749      1.422     4.15     5.053163     20.40612     65.18607        10     1.010     0.723  53.05  24
         7    737.2876      1.7007 300.4020872 +22.5954049     379.6754     58.49691      1.112     2.46     4.985391     20.40612     61.45981         7     0.784     0.592  25.37  24
         8    214.1369   1002.6857 299.9142737 +22.7260864     1257.069     72.42074      4.536     8.14     79.29433     20.40612      56.3139        23     2.143     0.865 -75.87   3
         9    339.0548   1022.3881 299.9467046 +22.7692208     750.7993     63.12058      1.715     4.42     14.77869     20.40612     79.69099        16     1.238     1.012  80.80  24
        10    292.4887   1022.3192 299.9322456 +22.7552281     635.3644     63.54139      1.994     7.65     48.06301     20.40612     41.05157        13     1.721     0.950   6.68  26
        11    292.9626   1019.3617 299.9333552 +22.7545224     367.1107     72.40234      1.324     3.45     46.07887     20.40612     32.79321         5     1.886     0.182 -30.36  18
        12    145.6264   1021.8329 299.8867514 +22.7110119     3941.539     65.58464      5.748    25.09     90.28518     20.40612     101.9534       189     6.220     2.810   6.95  27
        13    125.1810   1013.6798 299.8830507 +22.7025381     4901.888     72.32868     11.873    57.84     76.87212     20.40612     98.79737       894    13.742     6.756  60.75  27
        14    123.0692    958.9038 299.9002134 +22.6862044     5515.964     72.45753     22.655    71.63      34.0484     20.40612      108.141      2932    17.263    14.855 -10.04  19
        15    682.3650    994.7267 300.0625610 +22.8642589     9212.108     72.31026      1.877     4.30     2.924092     20.40612     579.3975        49     1.520     1.406  20.97   3
        16    776.8931    997.5076 300.0911069 +22.8933965     680.7566     72.49429      1.945     7.20     3.684454     20.40612     47.47842        14     1.354     1.074 -14.53   0
        17    219.3567    997.6382 299.9175384 +22.7262060     919.9263     72.42074      3.265     6.43     74.99409     20.40612     45.13738        11     1.503     0.920  19.10   1
        18    119.1254    927.8892 299.9090753 +22.6761305     4140.628     72.49429     19.894    66.96      10.4439     20.40612      88.3831      1148    15.818     7.864 -17.27   3
        19     10.5820   1003.9012 299.8506323 +22.6653328     1471.684      72.2365     11.366    14.88    -13.69251     20.40612     48.01465        33     4.494     1.371 -72.46  19
        20    262.5361    995.2707 299.9317324 +22.7384851     5746.084     72.36552      8.262    22.13     51.94921     20.40612     101.3403       361     5.887     4.625  72.49  19
        21    282.2643    984.6815 299.9413113 +22.7413690     8340.155     72.43913      9.251    33.34     36.73795     20.40612     184.9227       831    11.055     5.334  64.51  19
        22    211.2030    989.4924 299.9176538 +22.7214238     1295.947      72.2365      2.619     8.66     67.24656     20.40612     47.13461        25     1.812     1.273 -34.38   2
        23    209.1786    981.6670 299.9195702 +22.7185730      1162.12     72.31026      4.176    12.79     61.22721     20.40612     41.38233        29     3.487     1.305  64.17   2
        24    529.0278   1011.5485 300.0093411 +22.8231025     471.1877      72.3471      2.143     6.01     2.528045     20.40612     29.36466         8     1.284     0.791 -24.69   0
        25    541.9598    986.7149 300.0214463 +22.8198571     563.7866     72.31026      2.422     5.59     2.795893     20.40612      38.1098        10     1.186     0.820  38.91   0
        26     25.5778    983.6591 299.8618746 +22.6640345     799.7227     72.32868      4.357     7.95    0.4125725     20.40612     46.87012        12     1.750     1.009  75.22   0
        27    969.6756    980.7474 300.1566602 +22.9463631     865.6746     72.32868      2.158     7.82     3.664454     20.40612      41.0038        18     1.455     1.176 -15.99   0
        28      4.3702    976.8708 299.8574961 +22.6557225       941.46     70.02599      4.365     4.66    -11.82088     20.40612     28.99954         5     0.867     0.710  36.47  17
        29    398.5620   1008.3593 299.9697792 +22.7830520     711.0588     72.40234      2.641     6.77      3.79917     20.40612     42.04827        10     1.275     1.007 -28.26   0
        30    168.0104    961.7765 299.9132447 +22.7005160      1847.44     72.32868      8.978    18.52     44.18225     20.40612     49.24788        70     4.195     2.272  40.31   3
        31    170.8317    971.1449 299.9110742 +22.7040483     1302.362      72.3471      4.305     9.15     51.86929     20.40612     37.80475        18     2.140     1.093  74.05   3
        32    662.7748   1003.1318 300.0537245 +22.8607969     353.7111     72.31026      1.503     3.69     2.686244     20.40612      36.2658         5     1.145     0.342  77.36   0
        33      4.5442   1017.1566 299.8444449 +22.6673180     2483.286     70.51901     10.818    35.45    -22.55529     20.40612     50.83857       188     6.206     5.621 -66.41  27
        34    188.6541    966.2008 299.9182217 +22.7079797     1724.574     72.25495      4.331    12.53     47.53273     20.40612     56.45993        39     2.381     1.835   6.07   0
        35    695.1672    964.1389 300.0765002 +22.8593192     6947.976     72.36552      1.852     3.95      3.34151     20.40612     451.6031        49     1.509     1.394  17.34   0
        36    590.3193   1001.7451 300.0316121 +22.8386721     2525.945     72.36552      1.889     4.44     2.590151     20.40612     174.2731        33     1.397     1.343  38.10   0
        37    575.0925    958.1909 300.0410405 +22.8216098     481.3598     72.25495      1.995     4.90     3.169386     20.40612     46.68365         7     1.254     0.542  40.90   0
        38    174.9560   1018.0912 299.8970835 +22.7187429     1203.757     72.32868      2.956     9.28     92.08459     20.40612     58.42735        18     1.626     1.477 -59.03  18
        39    603.8455    954.7592 300.0511095 +22.8292470     1578.897     72.40234      1.715     4.04     3.211183     20.40612     116.5295        26     1.296     1.207 -72.54   0
        40    178.5621   1015.6979 299.8989829 +22.7191393     521.3699     72.32868      1.781     8.02     90.38413     20.40612     40.56876        11     2.522     0.713  44.32  18
        41    497.3654    951.1909 300.0191217 +22.7962918      1123.34     72.31026      1.775     4.48     3.295696     20.40612     86.43849        20     1.214     1.096   8.74   0
        42    428.0758    949.3292 299.9981649 +22.7749755     6727.596     72.40234      1.790     3.71     3.731725     20.40612     539.1843        43     1.435     1.338  38.56   0
        43    676.6652    997.0287 300.0600367 +22.8632105     8491.251      72.3471      1.914     4.52     2.833411     20.40612      564.028        45     1.538     1.375  27.78   3
        44    974.2842    928.3360 300.1751478 +22.9326931     2240.331     72.42074      2.013     4.78     3.414209     20.40612     119.6904        31     1.486     1.301  -1.98   0
        45    461.4072    936.2230 300.0127996 +22.7812134     479.3484     72.31026      1.514     4.67     3.591736     20.40612     38.53426         9     1.276     0.485  86.09   0
        46      4.9334    982.5388 299.8558273 +22.6575157     1438.516      71.5321     13.061    18.54    -12.94302     20.40612     55.13985        42     3.497     2.730 -19.87  27
        47    656.6602    922.0108 300.0782094 +22.8356844     335.9903     72.29182      1.462     4.78     3.587754     20.40612     35.06049         7     0.967     0.669  86.27   0
        48    763.3145    916.7809 300.1131367 +22.8661544     826.3647     72.25495      1.865     5.61      3.63985     20.40612      57.0373        16     1.422     0.912   3.15   0
        49    798.2911    911.2361 300.1258399 +22.8750457     1038.394     72.31026      1.845     4.70     3.567428     20.40612     71.35226        21     1.343     1.140  31.75   0
        50     14.9317   1009.5281 299.8501527 +22.6682510     1545.858     72.38393      9.975    11.98    -11.28504     20.40612     45.45342        16     4.407     0.907  86.91  19
        51    156.6095    906.6965 299.9276155 +22.6813044     995.5178     72.25495      3.614     3.54     12.72722     20.40612     30.39905         5     0.765     0.471 -65.28   3
        52      8.0730    908.1593 299.8809935 +22.6371431     563.1829     72.31026      1.686     5.96     2.915776     20.40612     55.46204        12     1.416     0.791 -28.91  16
        53    820.2538    904.8810 300.1347519 +22.8798033     11552.42     72.36552      1.764     3.87     3.534957     20.40612     802.7529        55     1.456     1.392  10.05   0
        54   1010.4061    904.9877 300.1940094 +22.9368089     492.3524      72.1996      1.896     6.28     3.338402     20.40612     43.32135         9     1.231     0.901   3.08   0
        55    865.9243    904.7484 300.1490313 +22.8934514     402.8669      72.3471      1.471     5.49      3.48437     20.40612     37.93068        10     1.012     0.841 -71.05   0
        56      7.0644    996.0895 299.8520811 +22.6620383     1431.371     72.43913     14.168    14.34    -15.06124     20.40612     48.03967        45     4.125     1.387 -86.32  19
        57    209.9820    898.5637 299.9468491 +22.6949881      605.814     72.32868      4.043     4.86     11.88921     20.40612     24.71288         5     1.252     0.534 -51.01   0
        58    131.4048    896.2650 299.9231752 +22.6707501     1075.457     72.31026      6.493     5.37     9.008373     20.40612     72.87576        18     1.496     1.302  25.50   0
        59      2.7036   1001.2220 299.8490572 +22.6621997     1430.246     63.45745     13.599    18.66    -19.69649     20.40612     47.04362        65     5.701     1.696  87.46  27
        60    525.7873    892.6443 300.0470102 +22.7880179     592.1684      72.3471      1.669     3.75      3.64233     20.40612     63.42953        10     1.037     0.976 -25.53   0
        61    122.5027    888.3495 299.9229829 +22.6658094     595.6517     72.40234      2.235     4.64     7.622316     20.40612     49.51052         8     1.222     0.500  89.92   0
        62    828.7997    887.0673 300.1432092 +22.8772497     1430.031     72.27339      1.705     4.00     3.502287     20.40612     109.5828        25     1.351     1.116   5.24   0
        63   1011.3159    886.0011 300.2004683 +22.9316279     544.8327     72.21806      2.144     5.01     3.346085     20.40612     42.30778         8     0.908     0.781 -25.53   0
        64    680.9517    884.3784 300.0980148 +22.8321655     551.8556      72.3471      1.679     4.78     3.693864     20.40612     55.32137        10     1.010     0.797  27.81   0
        65    866.8907    880.5038 300.1572175 +22.8867793     790.7525     72.51267      2.064     6.38     3.440347     20.40612     50.96129        15     1.117     1.060  51.99   0
        66    206.5977    879.6145 299.9519589 +22.6885392     658.4534     72.16268      2.698     3.88     9.521194     20.40612       29.371         5     0.989     0.437  75.49   0
        67    975.2807    877.3234 300.1920503 +22.9183405     492.0482     72.43913      1.786     5.37     3.386428     20.40612      44.0258        11     1.146     0.933  50.17   0
        68    915.1104    871.8012 300.1750817 +22.8987280     713.3286      72.2365      1.737     4.93      3.42351     20.40612     60.48837        15     1.215     1.030  53.99   0
        69    766.6937    870.6451 300.1291941 +22.8539225     817.0701      72.3471      1.768     5.96     3.637305     20.40612     64.81838        14     1.173     0.853  36.28   0
        70    369.9608    870.3372 300.0057747 +22.7348859     236.6501     72.32868      1.658     5.39     4.168052     20.40612     37.40081         7     1.099     0.745 -33.72   0
        71    479.2831    866.9979 300.0408756 +22.7667142     4314.711      72.2365      1.603     3.18     3.785691     20.40612     451.9239        35     1.291     1.247   0.95   0
        72     26.9278    869.2260 299.8995092 +22.6316436     485.4781      72.3471      1.840     3.93     3.882489     20.40612     36.44292         5     0.868     0.509 -59.93   0
        73    777.9551    867.4760 300.1337339 +22.8563877     544.6902     72.31026      1.542     5.20     3.601554     20.40612     47.17943        12     1.147     0.806 -87.04   0
        74    141.8024    855.4536 299.9396762 +22.6621696     216.8698     72.29182      1.259     4.01     6.295414     20.40612     41.80514         7     0.973     0.684 -49.80   0
        75    204.5765    852.7220 299.9600747 +22.6802214     619.6958     72.32868      1.605     3.47     6.978171     20.40612      72.9766        14     1.190     0.981  32.23   0
        76    112.9312    850.7758 299.9322257 +22.6521650     526.4473     72.32868      1.767     5.80      4.97067     20.40612     40.67996        10     1.242     0.994  88.84   0
        77    181.6573    849.5623 299.9539780 +22.6724389     1511.485     72.32868      1.663     4.39      6.83838     20.40612     149.1885        22     1.202     1.180  27.20   0
        78     56.8321    839.3270 299.9185188 +22.6320479     396.3407     72.32868      1.535     5.36     4.100777     20.40612     43.26344         8     1.272     0.638  53.61   0
        79   1007.7440    837.3257 300.2151830 +22.9165757     2105.961     72.36552      1.856     4.18     3.829355     20.40612       134.16        31     1.424     1.256 -21.17   0
        80    713.9730    837.6950 300.1234817 +22.8286622     508.4825      72.2365      2.353     5.91     3.875156     20.40612     36.17924         9     1.277     0.770  -1.18   0
        81    791.6008    831.4622 300.1496968 +22.8501365     642.4294     72.29182      1.519     4.72     3.767722     20.40612     65.79433        11     1.159     0.702 -18.01   0
        82    214.2729    831.2984 299.9700539 +22.6769869     398.0023     72.45753      1.522     2.82     5.738294     20.40612     52.07607         8     0.921     0.582 -69.82   0
        83    659.3165    825.1904 300.1105215 +22.8086906     4814.543     72.27339      1.547     3.14      3.91258     20.40612     447.4973        33     1.240     1.172  50.07   0
        84    149.5275    825.8158 299.9517124 +22.6559895     341.5034     72.32868      1.518     2.85     5.377062     20.40612     52.68977         5     0.820     0.541  38.95   0
        85    461.6383    822.2721 300.0499264 +22.7485901     543.1372     72.29182      1.355     2.56     3.845801     20.40612     73.12019        10     0.892     0.708   5.29   0
        86    209.6193    818.7849 299.9726754 +22.6720022     1329.273     72.31026      1.683     3.39      5.08039     20.40612     144.9959        23     1.237     1.137  -0.73   0
        87    680.2108    817.6912 300.1194679 +22.8128004      788.799     72.27339      1.562     3.64     3.976496     20.40612     69.55355        14     1.041     0.906  69.25   0
        88    478.4950    816.8112 300.0569477 +22.7520775     197.2267     72.27339      1.458     3.66     3.825889     20.40612     30.53711         5     1.020     0.379   6.02   0
        89    228.5504    816.0078 299.9794632 +22.6768849     466.9755     72.32868      1.909     4.66     4.809403     20.40612     41.91687         8     1.018     0.824 -83.75   0
        90    596.3810    808.6864 300.0962874 +22.7850883     367.3297     72.27339      1.527     3.80     3.855163     20.40612     52.88651         5     0.939     0.440 -44.14   0
        91    835.3261    804.8900 300.1719643 +22.8556077     4305.191     72.49429      1.592     3.48     3.646159     20.40612     373.6189        32     1.258     1.193 -41.05   0
        92    243.8323    799.0178 299.9897372 +22.6765964     467.4055     72.31026      1.405     3.55      4.00331     20.40612     55.84723         9     0.990     0.777   0.93   0
        93    552.3410    797.4165 300.0862390 +22.7686515     586.1553     72.29182      1.549     3.95     3.872938     20.40612     73.48528        11     1.035     0.788 -33.19   0
        94    198.7044    795.2474 299.9769338 +22.6619775     945.4304      72.3471      1.685     3.85     4.116273     20.40612     88.99821        17     1.131     1.027  37.13   0
        95    348.3490    787.3918 300.0260183 +22.7046095     53970.91     72.32868      1.589     3.00     3.926419     20.40612     5861.519        86     1.397     1.316  24.67   0
        96    606.1669    786.3771 300.1065869 +22.7816179     1648.669     72.32868      1.563     3.26     3.895667     20.40612     159.9752        21     1.204     0.990  41.94   0
        97   1019.1106    785.7061 300.2355116 +22.9051503     774.3049     72.49429      1.603     4.11     4.585069     20.40612     76.08904        12     1.031     0.872 -13.03  16
        98    614.2104    790.6647 300.1076980 +22.7852597     684.9606     72.27339      1.629     4.36     3.904431     20.40612     56.60544        13     1.052     0.943  -5.60   0
        99    276.5150    785.3710 300.0043350 +22.6824854     489.9505     72.32868      1.962     4.57     3.985524     20.40612     53.04808        11     1.102     0.878  -5.13   0
       100    635.2191    782.6337 300.1168512 +22.7892512     950.6828     72.32868      1.509     3.00      3.96621     20.40612     102.4414        15     0.965     0.955  37.44   0
       101     34.5384    782.2484 299.9301478 +22.6089941     845.0729     72.38393      1.718     4.38     4.092681     20.40612     84.61469        14     1.298     0.886 -24.84   0
       102      2.1117    782.0422 299.9201432 +22.5992040     557.0517     60.60033      1.429     3.60     4.055202     20.40612     65.26741        10     1.059     0.720  81.47  24
       103    646.1094    781.0466 300.1207588 +22.7920597      621.728     72.31025      1.540     5.33     3.995094     20.40612     64.74731        12     1.214     0.961 -17.11   0
       104    965.9041    777.9990 300.2214205 +22.8870005     419.0928     72.21806      1.523     4.76     4.138353     20.40612     43.16831         7     1.072     0.771  -7.90   0
       105    751.7268    776.9198 300.1550028 +22.8225265     422.0059     72.43913      1.405     3.59     4.042521     20.40612     48.73119        10     0.957     0.731  27.14   0
       106    789.1107    767.4551 300.1697291 +22.8310101     560.7789     72.36552      1.360     3.29     4.005864     20.40612     83.49787        12     0.977     0.830  13.76   0
       107    398.0917    764.6330 300.0488898 +22.7129965     31388.57     72.29182      1.502     2.85     3.885954     20.40612     3722.567        71     1.339     1.283  19.65   0
       108    412.2602    765.1675 300.0531242 +22.7173983     1998.135     72.36552      1.535     3.16     3.874961     20.40612     217.8982        24     1.184     1.066  48.72   0
       109    921.2381    760.7256 300.2131059 +22.8686597     2775.576     72.27339      1.601     3.32       4.0487     20.40612     246.3371        32     1.266     1.178   6.34   0
       110    409.2785    759.0773 300.0541760 +22.7147566     692.5421     72.43913      1.795     3.50     3.877317     20.40612     78.50799        11     1.096     0.716 -32.42   0
       111    679.2250    756.5680 300.1390302 +22.7949565     966.2333     72.32868      1.483     3.06     4.062635     20.40612     121.5479        16     1.092     1.012 -80.31   0
       112    280.5753    756.5050 300.0149797 +22.6754227     766.5322     72.25495      1.504     3.64     3.949688     20.40612       84.067        13     1.097     0.796  26.77   0
       113    573.5335    754.9530 300.1066398 +22.7628158     235.0839     72.32868      1.350     3.72     3.902205     20.40612     32.75013         6     0.798     0.499  88.61   0
       114    526.3953    751.3845 300.0931244 +22.7476615     857.9924     72.21806      1.384     3.04     3.892324     20.40612     104.2715        17     1.102     0.923  70.61   0
       115     85.7219    751.8976 299.9559122 +22.6156497     444.6409     72.43913      1.402     2.78     4.186918     20.40612      58.5121         6     0.962     0.397 -76.28   0
       116    927.0473    748.1321 300.2190108 +22.8667820     510.5588     72.31025      1.646     4.71     4.286069     20.40612     46.72053        11     1.109     0.837 -63.28   0
       117    472.0274    746.4078 300.0778196 +22.7299344     401.9294     72.32868      1.458     3.82     3.927204     20.40612     46.08401         9     0.985     0.756 -10.08   0
       118    428.5180    747.1925 300.0640249 +22.7171149     350.7647     72.25495      1.177     2.96     3.882941     20.40612     47.91297         6     0.771     0.499 -87.17   0
       119    384.0457    747.4711 300.0500978 +22.7038603     264.8565     72.31026      1.272     4.43     3.896946     20.40612      38.2352         7     1.055     0.557 -27.61   0
       120    113.8548    745.9193 299.9665962 +22.6223759     517.8195     72.36552      1.579     3.96     4.165434     20.40612     53.49464         9     1.135     0.699 -18.78   0
       121    515.5800    756.5840 300.0880678 +22.7459117     568.8756     72.31026      1.708     2.88     3.894534     20.40612     68.30643         8     0.812     0.783  -5.65   0
       122    904.9813    743.6841 300.2135759 +22.8588947     385.3932     72.25495      1.677     3.87     4.182848     20.40612     46.47083         5     0.925     0.464  -1.91   0
       123    278.5976    740.7845 300.0194738 +22.6703198     550.0922     72.18114      1.613     3.16     3.930152     20.40612     64.63278        10     0.929     0.793 -66.94   0
       124    601.5378    731.3911 300.1230175 +22.7644456     407.1416     72.27339      1.336     3.04     3.959866     20.40612     66.26396         7     0.841     0.694  20.92   0
       125    571.3033    729.4728 300.1142266 +22.7548330     672.2927     72.45753      1.514     3.44     3.933547     20.40612     67.67746        13     0.991     0.949  25.78   0
       126    987.6138    726.0206 300.2450870 +22.8785687     4468.751     72.29182      1.616     3.38     4.578541     20.40612     371.9134        33     1.270     1.200   7.12   0
       127    593.0748    726.8526 300.1218571 +22.7606062     1396.815     72.32868      1.464     3.12     3.960944     20.40612     142.7485        21     1.178     0.979  26.33   0
       128    512.8389    726.2247 300.0970814 +22.7363761      322.749      72.3471      1.380     3.56     3.939177     20.40612     33.92127         5     1.063     0.344  45.45   0
       129    976.1494    717.4471 300.2442974 +22.8726720     1659.418     72.36552      1.631     3.40     4.565586     20.40612     136.9684        23     1.194     1.128  14.14   0
       130    744.0383    717.0372 300.1720703 +22.8030264     295.9025     72.40234      1.500     3.69     4.073866     20.40612     31.75994         5     1.013     0.386 -31.49   0
       131    205.5955    712.1651 300.0060772 +22.6402147     291.9324     72.32868      1.480     4.72     4.013472     20.40612     31.23984         7     1.024     0.616  40.25   0
       132    339.1608    711.0256 300.0479793 +22.6799437     780.6386      72.3471      1.399     3.20     3.874254     20.40612     100.9488        11     0.933     0.810  29.07   0
       133    802.5856    708.6758 300.1930327 +22.8181655     2585.779      72.3471      1.577     2.92     4.088393     20.40612     272.4093        31     1.465     1.073   5.25   0
       134   1007.1295    707.6082 300.2571585 +22.8791221     1604.139     72.31026      1.640     3.62     4.598791     20.40612     129.4274        19     1.146     1.065 -37.33   0
       135     24.9336    698.6060 299.9543452 +22.5821299     770.6627     72.32868      1.649     4.33      4.12976     20.40612     84.62099        14     1.118     0.944  61.54   0
       136    187.8867    694.7536 300.0062300 +22.6299086     595.2849     72.31026      1.442     3.12     4.158843     20.40612     70.84991        12     0.996     0.813  61.32   0
       137    884.9671    694.4625 300.2233321 +22.8387597     538.5579     72.32868      1.463     3.05     4.333869     20.40612     63.00424         7     0.926     0.625 -15.15   0
       138    467.4643    694.2286 300.0933560 +22.7135904     191.9421     72.32868      1.767     4.99     3.946218     20.40612     25.24497         5     1.091     0.645  24.31   0
       139    920.9091    685.5984 300.2374195 +22.8469777     149087.1      72.2365      1.545     3.01     4.529306     20.40612     14464.83       156     1.452     1.437  39.85   0
       140    683.4570    689.3336 300.1621987 +22.7769189     370.1175     72.36552      1.623     4.71     4.091928     20.40612     42.08023         6     0.944     0.667  10.55   0
       141    773.3052    685.8328 300.1913304 +22.8028327     797.4034     72.31026      1.451     4.43     4.110306     20.40612     87.71309        15     1.333     0.800  39.48   0
       142    953.3536    678.1352 300.2499626 +22.8545496     447.0175     72.36552      1.282     3.35     4.580284     20.40612     57.90374        10     0.904     0.774   4.06   0
       143    607.1275    674.4723 300.1432540 +22.7497790     1580.123     72.38393      1.343     2.74     4.099895     20.40612     174.7989        20     1.065     0.976  70.83   0
       144    788.3598    671.6938 300.2006162 +22.8032814     9375.384      72.3471      1.446     2.70     4.142998     20.40612     1110.217        41     1.194     1.175  54.32   0
       145    270.3151    672.8114 300.0389853 +22.6483345     237.8681     72.27339      1.282     3.62     3.857448     20.40612     32.34795         5     0.981     0.386   4.20   0
       146    289.8429    666.6841 300.0470483 +22.6524322     4964.375     72.29182      1.479     2.94     3.830112     20.40612     555.8716        32     1.198     1.118  33.29   0
       147      3.5503    665.1433 299.9585752 +22.5661188     1682.899     67.19038      1.743     3.82     4.025148     20.40612     163.6375        26     1.321     1.212 -10.58  24
       148    371.8080    664.8258 300.0731457 +22.6764748     1136.453     72.32868      1.430     3.11     3.811428     20.40612     125.9642        15     0.995     0.892  38.15   0
       149    247.6140    662.3790 300.0353161 +22.6385337     573.9291     72.29182      1.794     4.71     3.893759     20.40612      64.6917        11     1.122     0.933 -55.89   0
       150    580.2853    660.3282 300.1394911 +22.7376738     673.4044     72.43913      1.354     3.79     4.219101     20.40612     83.85841        14     1.117     0.888  59.62   0
       151    571.7862    652.5331 300.1393773 +22.7328887     3128.469     72.32868      1.334     2.47     4.282015     20.40612     458.0113        23     1.059     0.992  33.32   0
       152    562.1104    646.1472 300.1384394 +22.7281555     1430.965      72.3471      1.318     2.81      4.34493     20.40612     167.9115        18     1.033     0.894  39.04   0
       153    956.0948    644.1959 300.2618450 +22.8456179      523.748      72.2365      1.798     5.15     4.581289     20.40612     47.51991        10     1.199     0.759  24.38   0
       154    225.2347    642.3596 300.0348618 +22.6260788     734.7194     72.36552      1.547     3.29     3.943729     20.40612     77.32447        14     1.073     0.898 -11.23   0
       155    239.7138    640.9031 300.0398365 +22.6300029      661.947     72.51267      1.389     2.92     3.917744     20.40612     87.06661        12     0.938     0.846  18.82   0
       156   1009.0961    637.4506 300.2805686 +22.8595491     485.3085     72.40234      1.455     4.48     4.580237     20.40612     48.02317        11     1.049     0.735  67.53   0
       157    296.2353    637.3746 300.0585579 +22.6459386     375.2161      72.3471      1.503     5.05     3.831929     20.40612     43.99996         7     1.002     0.845  49.84   0
       158    265.5382    637.5910 300.0489419 +22.6367963     522.2669     72.27339      1.301     2.75     3.872228     20.40612     69.22957         8     0.828     0.701  37.91   0
       159    586.0794    636.7208 300.1489648 +22.7326317     456.3989     72.45753      1.205     3.02     4.425819     20.40612     57.28784         7     0.817     0.579  21.95   0
       160    486.7867    635.7937 300.1183549 +22.7026083     1757.309      72.1996      1.410     2.89     4.174518     20.40612     214.7383        20     1.047     1.013  66.66   0
       161    520.4744    635.3854 300.1289734 +22.7125877      323.713     72.32868      1.167     4.06     4.329691     20.40612     36.96288         6     1.014     0.464 -33.97   0
       162    140.7911    630.7608 300.0123819 +22.5974264     19916.51      72.3471      1.586     3.20      4.50335     20.40612      2173.29        63     1.376     1.315  42.05   0
       163     61.9438    632.5071 299.9873152 +22.5742772     690.9913     72.38393      1.615     3.92      4.13469     20.40612     70.53925        11     1.030     0.796  12.95   0
       164    607.3759    630.7281 300.1575432 +22.7372925     307.1545     72.36552      1.235     4.16     4.479746     20.40612     52.83522         8     1.090     0.634  84.28   0
       165    571.7867    631.2652 300.1462867 +22.7267822     947.7011     72.27339      1.279     3.37     4.479746     20.40612     122.0089        15     1.039     0.889 -35.46   0
       166    942.7681    626.9772 300.2632827 +22.8366792     306.6972     72.32868      1.239     4.23     4.578733     20.40612     34.07454         6     1.144     0.447 -62.37   0
       167    654.4558    619.2131 300.1759464 +22.7480922      309.437     72.32868      1.501     2.11     4.369973     20.40612     43.53051         5     0.680     0.463  68.26   0
       168    989.9678    617.5424 300.2810692 +22.8481003     992.0699      72.3471      1.516     4.13     4.577381     20.40612     103.6574        17     1.242     0.934 -31.35   0
       169     86.7222    614.9374 300.0007203 +22.5766702     1532.636     72.40234      1.999     5.11     4.367634     20.40612      96.7525        26     1.645     1.056  85.51   0
       170    856.6107    615.7890 300.2400527 +22.8076635     442.8612     72.21806      1.588     2.72     4.472223     20.40612     63.07182         6     0.800     0.674  81.25   0
       171    153.0275    615.6014 300.0211087 +22.5967474     411.0841     72.27339      1.466     4.03     4.557499     20.40612     56.60564         7     1.236     0.375  15.49   0
       172    535.3191    611.8524 300.1412390 +22.7102799      369.833      72.3471      1.140     2.82     4.587293     20.40612     63.13342         8     0.922     0.601  24.49   0
       173    327.8205    611.1926 300.0768857 +22.6478949      292.181     72.29182      1.252     4.16     3.858333     20.40612     39.64152         6     0.918     0.566 -67.36   0
       174    930.0622    610.2407 300.2647572 +22.8280650     820.8541     72.31026      1.543     3.37     4.576178     20.40612     77.40072        12     0.962     0.921 -55.52   2
       175    925.5240    610.4401 300.2632772 +22.8267635     449.4174     72.29182      2.282     3.17     4.571205     20.40612     43.68215         5     0.768     0.429 -21.57   3
       176    491.8137    604.1096 300.1302115 +22.6950187     677.9052     72.27339      1.317     3.00     4.363477     20.40612     85.51157        10     0.877     0.779  48.53   0
       177    639.8053    602.8049 300.1767132 +22.7389904     499.1328     72.18114      1.271     2.96     4.552162     20.40612     72.81326         9     0.833     0.743  68.06   0
       178    687.2799    601.3260 300.1919813 +22.7527888     397.7566     72.43913      1.351     3.26      4.35091     20.40612     48.57635         9     0.883     0.712  76.32   0
       179    657.6086    601.0285 300.1828354 +22.7438141     589.6243     72.32868      1.229     2.54     4.456351     20.40612     76.55118         9     0.856     0.645  29.44   0
       180    536.1315    599.9902 300.1453450 +22.7071173      933.105     72.32868      1.399     2.83     4.651756     20.40612     123.4103        14     1.008     0.855  19.48   0
       181    969.9297    595.7161 300.2819091 +22.8358279     3176.634     72.45753      1.463     2.74     4.572801     20.40612     361.8001        30     1.203     1.134  66.84   0
       182    501.6963    595.3940 300.1361185 +22.6954782     1710.901     72.21806      1.308     2.41     4.479401     20.40612     234.4487        21     1.062     0.978  51.22   0
       183    867.1600    593.0250 300.2507360 +22.8042819     269.7223     72.36552      1.397     3.40     4.474425     20.40612     45.14579         5     0.806     0.493 -41.15   0
       184    851.3630    591.4217 300.2463320 +22.7990906     261.6139      72.3471      1.127     4.24     4.500494     20.40612     38.51321         5     1.182     0.435  36.16   0
       185    477.5930    590.8154 300.1301034 +22.6869400     274.5307      72.2365      1.335     3.51     4.376007     20.40612     37.61705         5     0.778     0.458  73.55   0
       186     63.6126    588.9062 300.0019949 +22.5622718     4897.942     72.25495      1.605     3.31     4.113643     20.40612     552.8594        36     1.348     1.214  38.68   0
       187   1009.2385    585.7727 300.2974005 +22.8447384     258.7335      72.3471      1.300     2.49     4.579999     20.40612     52.49219         7     0.838     0.547  26.64   0
       188    530.8901    586.1006 300.1482246 +22.7015585     316.0284     72.49429      1.307     4.04     4.678421     20.40612     43.90963         7     1.082     0.619  61.13   0
       189    365.0578    582.1431 300.0979037 +22.6507202     9203.076     72.40234      1.367     2.64     4.070081     20.40612     1066.648        37     1.153     1.110  40.41   0
       190    487.4901    579.2222 300.1369491 +22.6865776     8834.441     72.25495      1.297     2.41     4.506889     20.40612     1104.603        35     1.111     1.071  52.31   0
       191    733.9802    575.6407 300.2148736 +22.7594001     213.8785     72.36552      1.083     2.76     4.442267     20.40612     62.80367         7     0.865     0.648  66.92   0
       192    899.1926    573.2927 300.2671325 +22.8082037     1828.152      72.2365      1.377     2.88     4.513823     20.40612     216.1143        19     1.067     0.957 -82.69   0
       193    983.8517    570.6747 300.2943852 +22.8327986     12627.51      72.3471      1.513     2.87     4.572337     20.40612      1408.05        51     1.311     1.248 -63.56   0
       194    548.0847    568.7874 300.1592006 +22.7017394     11710.48     72.27339      1.338     2.52     4.815719     20.40612     1605.967        45     1.150     1.121  75.82   0
       195    717.5808    564.8638 300.2132641 +22.7513919     468.1996     72.31026      1.125     2.12      4.52347     20.40612     85.86329         8     0.746     0.644   7.45   0
       196    275.5435    564.1505 300.0759060 +22.6187213     1345.438     72.36552      1.358     2.62     4.094085     20.40612     182.5197        19     1.134     0.906  45.29   0
       197    433.6891    563.5560 300.1252933 +22.6659557     407.7662      72.3471      1.175     3.88     4.289274     20.40612     56.90879         7     0.945     0.518  63.45   0
       198    522.2158    562.1450 300.1533044 +22.6920804     401.7489     72.29182      1.215     2.32     4.744518     20.40612     67.08959         6     0.682     0.579  29.44   0
       199    479.7174    557.0205 300.1417402 +22.6778737     4353.535     72.29182      1.305     2.46     4.635293     20.40612     636.4812        28     1.066     1.024  40.96   0
       200    822.7142    557.1776 300.2485236 +22.7806714     702.8186     72.27339      1.221     2.48     4.568836     20.40612     110.2213        13     0.901     0.834 -49.34   0
       201    458.0502    555.4236 300.1355154 +22.6709219     1247.348     72.32868      1.311     2.71     4.498844     20.40612     168.2876        18     1.067     0.872  31.01   0
       202    212.4339    554.6981 300.0593536 +22.5970872     728.9287     72.31026      1.455     3.37      4.33714     20.40612     91.19652        15     1.095     0.912 -70.59   0
       203    899.5750    552.5833 300.2739777 +22.8023666     1506.628      72.3471      1.547     3.33     4.507513     20.40612     145.6595        21     1.183     1.015  -1.60   0
       204    420.3362    551.2525 300.1251338 +22.6584215     434.7075     72.38393      1.483     2.62     4.254835     20.40612     49.80165         6     0.829     0.482 -45.33   0
       205    779.9641    549.4706 300.2377023 +22.7656542     890.1099     72.32868      1.415     3.05     4.607731     20.40612     98.41603        15     1.048     0.897  58.97   0
       206    596.3727    544.5219 300.1821161 +22.7092389     202067.6      72.3471      1.296     2.27     5.273619     20.40612     28791.49       185     1.387     1.326  -4.22   0
       207    984.1945    546.2086 300.3024382 +22.8258687     288.1772     72.18114      1.568     4.00     4.569909     20.40612     27.57744         6     0.787     0.581  46.66   0
       208    282.5096    544.4500 300.0844696 +22.6151556     3407.184     72.32868      1.364     2.35     4.173939     20.40612     489.6891        25     1.108     1.025  22.57   0
       209    557.6072    545.1553 300.1698399 +22.6978062     305.5525      72.3471      1.093     2.82     4.976779     20.40612     36.59281         5     0.717     0.461 -72.89   0
       210    848.2490    540.5984 300.2618676 +22.7835539     639.3702     72.31026      1.659     3.61     4.517586     20.40612     69.28316        11     1.118     0.665  55.20   0
       211    461.1563    541.5776 300.1409783 +22.6678773     335.3704     72.38393      1.524     3.48     4.590477     20.40612      31.2577         5     0.763     0.459 -17.45   0
       212    866.8152    539.0715 300.2681516 +22.7886744       233.24     72.32868      1.486     3.89     4.484617     20.40612     29.84634         5     0.826     0.525  39.13   0
       213    331.1499    527.0290 300.1052538 +22.6247360     417.3719      72.3471      1.518     4.00     4.325652     20.40612     45.67022         8     0.868     0.626  44.07   0
       214    487.0056    524.9601 300.1544194 +22.6708519     2777.534      72.3471      1.379     2.44     4.761916     20.40612     370.4595        22     0.992     0.963  69.46   0
       215    898.3865    521.5092 300.2836982 +22.7930800     358.2252     72.27339      1.246     3.16     4.521114     20.40612     51.32381         8     0.868     0.707  42.87   0
       216    717.9943    520.4718 300.2278088 +22.7387626      261.255     72.27339      1.098     3.73     4.719518     20.40612      33.4994         6     0.806     0.495   5.79   0
       217    916.2705    516.7594 300.2908172 +22.7970692     200.7959     72.29182      1.089     3.71      4.52476     20.40612     38.72626         5     0.940     0.420   5.31   0
       218    804.4022    513.5242 300.2569917 +22.7626439     384.3685      72.2365      1.236     3.50     4.607278     20.40612     60.13486         7     0.961     0.489  -7.03   0
       219    884.0875    511.0211 300.2826454 +22.7857845     1663.373     72.25495      1.391     2.80     4.533149     20.40612      206.737        24     1.216     1.031  84.57   0
       220    755.2675    508.6679 300.2432556 +22.7465343      2447.07     72.38393      1.282     2.45     4.667269     20.40612     358.6448        20     1.031     0.934  69.43   0
       221     14.2289    509.5806 300.0124121 +22.5247051     888.5318     72.32868      1.551     2.97     3.888154     20.40612     103.4647        15     1.050     0.990  39.03   0
       222    393.4088    508.6620 300.1305849 +22.6381236     194.3512     72.27339      1.258     4.18     4.467756     20.40612       32.656         5     1.024     0.486 -85.42   0
       223    999.7770    506.1863 300.3202955 +22.8190281     562.9036     72.31026      1.549     3.14     4.552096     20.40612     54.80189         9     0.942     0.687   2.63   0
       224    964.5767    505.8285 300.3094318 +22.8083885     318.8965     72.32868      1.527     4.46     4.537066     20.40612     37.14965         7     0.898     0.630  20.48   0
       225    659.7261    505.0966 300.2146490 +22.7168929     442.8777     72.45753      1.281     3.11     5.039721     20.40612     78.78143         8     0.852     0.687  45.09   0
       226    542.6194    504.7131 300.1783055 +22.6817010     683.5634     72.27339      1.224     2.20     4.989362     20.40612      119.226        11     0.827     0.768 -53.45   0
       227   1012.5126    502.8203 300.3253614 +22.8218724     1353.123     72.25495      1.544     2.81     4.555205     20.40612     169.1453        20     1.206     1.054  38.37   0
       228    998.3832    501.9629 300.3212320 +22.8173967     905.9905     72.32868      1.631     3.33     4.548341     20.40612     79.18324        14     1.114     0.804  16.18   0
       229    884.3578    501.2874 300.2858902 +22.7830679     2273.225     72.32868      1.544     2.87     4.546013     20.40612     282.1879        25     1.334     1.022  74.34   0
       230    637.5994    499.2566 300.2096532 +22.7085874     669.3737     72.25495      1.549     3.22     5.229715     20.40612      58.6006        10     0.897     0.798 -79.24   2
       231    637.4861    495.0439 300.2109858 +22.7073433     389.9698     72.31026      1.791     2.93     5.249958     20.40612      42.6688         5     0.751     0.437  67.04   3
       232    423.6860    498.8116 300.1432037 +22.6443691     310.4734     72.27339      1.275     3.41     4.580072     20.40612     50.58918         8     0.910     0.734 -61.98   0
       233    922.4698    496.2804 300.2994000 +22.7930388     4275.001     72.43913      1.367     2.52     4.524191     20.40612     490.8521        30     1.147     1.068  50.90   0
       234    476.0070    498.1504 300.1597008 +22.6598576     355.9491     72.32868      1.222     2.65     4.746377     20.40612     55.42481         8     0.800     0.643  35.61   0
       235    563.5815    495.7610 300.1877384 +22.6854101     276.9776      72.3471      1.120     3.86     5.149997     20.40612     39.58868         5     1.016     0.420  73.79   0
       236    660.3482    493.0942 300.2187397 +22.7136312     141.2303     72.40234      1.103     3.43     5.095433     20.40612     40.12074         5     0.763     0.447  74.49   0
       237    583.2776    492.2191 300.1950212 +22.6902933      274.422     72.32868      1.132     2.83     5.284242     20.40612     43.14748         6     0.743     0.547  41.83   0
       238   1014.2217    486.7256 300.3311204 +22.8177568     632.9886     72.32868      1.285     2.85     4.542312     20.40612     99.75494        14     0.971     0.885  65.71   0
       239    154.2972    486.4833 300.0634304 +22.5600810     1043.295     72.49429      1.504     3.26     4.375338     20.40612     125.3652        18     1.093     1.050  69.06   0
       240    815.3301    480.1591 300.2712309 +22.7563280     321.3348     72.29182      1.496     2.51     4.595698     20.40612     46.41529         6     0.844     0.684  88.12   0
       241    202.2138    478.8073 300.0808163 +22.5722439     334.2518     72.21806      1.287     2.84     4.379172     20.40612     43.75361         6     0.770     0.521 -41.26   0
       242    146.6798    476.5325 300.0642932 +22.5549415     350.5421     72.43913      1.337     2.74     4.374957     20.40612     62.89767         9     0.910     0.852  23.85   0
       243   1010.6669    475.8555 300.3335406 +22.8135676      254.456     72.38393      1.092     3.74      4.53486     20.40612     46.75814         6     1.133     0.369  26.55   0
       244    754.7463    470.7591 300.2554011 +22.7354854     483.4741     72.31026      1.416     2.79     4.715549     20.40612     69.56503        10     0.878     0.771 -52.96   0
       245    363.0715    469.0355 300.1340115 +22.6176547     251.4901     72.32868      1.274     3.65     4.591712     20.40612     35.37928         5     0.658     0.582  -1.54   0
       246    643.5178    468.3360 300.2215352 +22.7014775     386.3757     72.43913      1.161     2.72     5.192983     20.40612     75.32407         7     0.842     0.597  19.86   0
       247    695.9926    466.7305 300.2384025 +22.7167327     687.4668     72.31026      1.164     2.12     4.932891     20.40612     128.2384         9     0.792     0.670  50.08   0
       248    674.8124    464.7886 300.2324347 +22.7098314     341.7297     72.21806      1.274     3.44     5.013617     20.40612     46.89398         6     0.871     0.634 -55.05   0
       249     55.3725    461.3685 300.0408435 +22.5232122     509.1274     72.32868      2.303     5.95     4.332929     20.40612     33.26631         7     1.198     0.831 -19.51   0
       250   1010.5845    459.1934 300.3389243 +22.8087523      674.235      72.2365      1.448     4.12     4.529154     20.40612     73.15785        13     1.134     0.903 -22.20   0
       251    756.7120    458.8419 300.2598824 +22.7326496     858.4491     72.32868      1.271     2.79     4.708959     20.40612     130.9295        13     1.058     0.745  31.24   0
       252    913.8511    455.0983 300.3100825 +22.7786207      925.987     72.40234      1.366     2.98     4.542345     20.40612     109.0654        16     1.060     0.901   7.01   0
       253    898.0831    451.5166 300.3063283 +22.7728709     666.6805     72.45753      1.322     2.17     4.573454     20.40612      103.256         8     0.731     0.666  61.91   0
       254    878.8729    451.7290 300.3002696 +22.7671812     364.9789     72.40234      1.325     2.19     4.609247     20.40612     54.73257         5     0.738     0.410  16.32   0
       255    642.4674    449.5104 300.2273192 +22.6957544     3163.932     72.47591      1.180     2.16     5.121704     20.40612     472.2375        22     0.969     0.961  54.30   0
       256    118.4972    440.8238 300.0671255 +22.5362444     265.6663     72.25495      1.250     3.02     4.405219     20.40612     51.43295         5     0.922     0.366  -7.16   0
       257   1003.1175    448.2830 300.3401367 +22.8033804     490.1281     72.45753      1.481     2.92     4.524446     20.40612     78.82027        10     1.084     0.818 -88.76   0
       258    482.4869    436.3182 300.1817900 +22.6440419     275.6011     72.45753      1.071     3.44     4.867515     20.40612     59.04368         6     0.841     0.601 -19.35   0
       259   1012.2661    427.5475 300.3497218 +22.8001563      945.427     72.36552      1.427     2.86     4.518794     20.40612     112.6816        15     0.989     0.899  31.97   0
       260    925.7399    428.2292 300.3225120 +22.7744552     543.6055      72.3471      1.292     3.19     4.522258     20.40612     59.36682         8     0.875     0.669  26.04   0
       261    662.1407    425.2526 300.2413210 +22.6946770     395.3914     72.38393      1.413     3.47     4.938853     20.40612     40.59044         6     0.754     0.567  42.47   0
       262    753.1102    423.4563 300.2702463 +22.7214021      1038.08     72.36552      1.216     2.69     4.717128     20.40612     143.2063        13     0.894     0.836 -81.70   0
       263    548.8766    424.0561 300.2064368 +22.6604086     442.7138     72.36552      1.175     2.01     4.853917     20.40612     80.01033         8     0.774     0.605  58.77   0
       264    256.6110    421.4418 300.1163488 +22.5720838     657.7761     72.32868      1.594     3.70     4.479607     20.40612     74.06564        12     0.968     0.928  23.89   0
       265    319.3755    417.3241 300.1372042 +22.5897125     3723.735      72.3471      1.318     2.44     4.643171     20.40612     458.9669        26     1.110     0.971  31.11   0
       266    266.5766    411.9698 300.1225217 +22.5723515      7548.87     72.32868      1.385     2.60     4.509331     20.40612     1063.126        35     1.192     1.076  48.77   0
       267    645.5513    411.7938 300.2405220 +22.6858416     337.2791     72.32868      1.261     2.97     4.957424     20.40612     40.77519         5     0.732     0.440  66.58   0
       268    407.3996    406.2995 300.1681656 +22.6129237     4905.481     72.16268      1.274     2.27     4.785014     20.40612     632.9257        31     1.163     1.021  38.56   0
       269    651.6151    403.0456 300.2452500 +22.6851440     18699.26      72.3471      1.268     2.29     4.938135     20.40612     2669.883        45     1.141     1.057  76.34   0
       270    669.1039    403.1118 300.2506762 +22.6904004     874.5057     72.51267      1.765     5.55     4.888812     20.40612     83.27719        19     1.613     0.842 -32.54   0
       271    498.6073    404.5015 300.1971341 +22.6397329     533.5661     72.21806      2.570     3.76     4.865787     20.40612     42.70926         6     0.955     0.425  17.89   2
       272    509.3515    399.8383 300.2019920 +22.6416120     299.1952      72.3471      2.280     4.90     4.848865     20.40612     31.05686         7     1.685     0.404  18.79   0
       273    848.6495    393.8025 300.3096489 +22.7414823     367.2845     72.32868      1.112     2.16     4.589892     20.40612     80.64832         7     0.833     0.515  31.33   0
       274    271.8011    390.0745 300.1312519 +22.5676312      353.601     72.21806      1.285     3.00     4.626161     20.40612     63.22679         8     0.883     0.773  37.28   0
       275    985.0916    385.4537 300.3549069 +22.7799198     853.6394     72.38393      1.542     4.38     4.494476     20.40612     108.9296        17     1.237     1.066 -22.15   0
       276    522.0496    384.9831 300.2107658 +22.6411485     193.5388     72.36552      1.283     3.01     4.825755     20.40612     37.59543         5     0.622     0.601   1.89   0
       277    695.3783    384.1445 300.2650169 +22.6928179     295.5984      72.3471      1.261     3.13     4.838485     20.40612     43.21261         6     0.791     0.613  56.23   0
       278    206.2708    383.1441 300.1131259 +22.5460014     2077.487      72.3471      1.414     2.81     4.599994     20.40612     267.4805        21     1.101     0.950  37.67   0
       279    592.2622    372.4923 300.2366802 +22.6585900     6720.124     72.43913      1.241     2.14     4.983907     20.40612     979.7352        39     1.194     1.052  54.26   0
       280   1005.9429    373.0036 300.3654519 +22.7825794     1142.966     72.29182      1.350     2.68     4.486758     20.40612      157.074        17     1.017     0.902  58.31   0
       281    306.9987    371.7772 300.1481354 +22.5729257     785.8876     72.27339      1.435     2.94     4.754288     20.40612      102.087        12     0.937     0.861 -45.72   0
       282    217.3704    368.8546 300.1212133 +22.5452260     159.0639     72.32868      1.037     3.41     4.700165     20.40612     29.26605         5     0.761     0.441 -71.58   0
       283    164.9866    364.9824 300.1061858 +22.5284135     383.5961     72.29182      1.271     2.37     4.492769     20.40612     66.30785         9     0.781     0.720 -27.49   0
       284    852.1256    364.3586 300.3202878 +22.7340585     205.2152     72.31026      1.189     3.36     4.508882     20.40612     44.02797         6     0.756     0.615 -76.02   0
       285    706.1187    362.5207 300.2753801 +22.6898195      613.466     72.45753      1.339     4.07     4.819125     20.40612     89.21812        13     1.238     0.813  76.85   0
       286     12.0122    362.7182 300.0593883 +22.4819039     1301.486     72.31026      1.427     2.94     4.852482     20.40612     186.8182        19     1.173     0.978  14.03   0
       287    796.4412    361.5617 300.3038376 +22.7165855     1120.337     72.42074      1.329     2.57     4.439567     20.40612       170.01        15     1.059     0.786  60.70   0
       288    498.9388    358.7116 300.2120966 +22.6266789     6178.892     72.40234      1.284     2.19     4.814634     20.40612     1052.739        31     1.107     0.987  60.01   0
       289    988.2012    353.2908 300.3663143 +22.7716014     608.4741      72.2365      1.448     3.82     4.473896     20.40612     64.99321        12     1.083     0.771  69.42   0
       290    890.8970    353.1776 300.3360043 +22.7424488     1339.468     72.25495      1.299     2.55     4.489742     20.40612     179.0497        17     0.990     0.917 -77.25   0
       291    483.7820    347.3102 300.2110781 +22.6188636     596.5303     72.25495      1.312     2.74     4.825099     20.40612     67.77879         8     0.749     0.686  14.57   0
       292    566.4927    345.3454 300.2374646 +22.6430724     438.4526     72.38393      1.340     2.72     4.896898     20.40612     56.05798         8     0.779     0.730 -29.51   0
       293     10.4561    344.0218 300.0649708 +22.4760722     942.0488     72.36552      1.441     2.94     4.914015     20.40612     145.6293        16     1.081     0.979 -38.04   0
       294    844.1615    343.8994 300.3244438 +22.7257928     303.5538      72.3471      1.374     4.05     4.478361     20.40612     40.31174         6     1.089     0.431  62.66   0
       295    863.7622    340.8879 300.3315317 +22.7307938     483.6975     72.31026      1.376     4.15      4.51269     20.40612     73.95954        11     1.112     0.813 -78.05   0
       296    386.4053    337.9228 300.1838211 +22.5869961     2602.395      72.2365      1.288     2.35     4.816458     20.40612     393.9465        21     1.078     0.876  50.94   0
       297    104.7417    335.0509 300.0971738 +22.5017634     987.1771     72.38393      1.547     4.36     4.639165     20.40612     98.83977        19     1.333     0.994  39.28   0
       298    355.7813    327.3196 300.1777338 +22.5747759     29923.85     72.32868      1.319     2.40     4.830642     20.40612      4192.36        68     1.272     1.141  56.05   0
       299    890.5176    325.0528 300.3450117 +22.7342486     1405.605     72.36552      1.345     2.42     4.508534     20.40612     183.4605        16     0.962     0.923 -11.62   0
       300    846.0627    322.7799 300.3318890 +22.7202900     379.9686     72.31026      1.412     3.27     4.516375     20.40612     42.02374         6     0.881     0.476  34.22   0
       301     52.0436    315.1215 300.0872653 +22.4802459     5069.086     72.31025      1.524     3.10     4.888509     20.40612     582.4275        37     1.349     1.148  41.35   0
       302    805.8764    314.0513 300.3221939 +22.7057521     600.0456     72.32868      1.282     2.44     4.503295     20.40612      100.098         9     0.818     0.731 -78.76   0
       303    230.1368    313.7563 300.1430585 +22.5332330      488.689     72.32868      1.363     3.28     4.816835     20.40612     63.32443         8     0.940     0.614  56.92   0
       304    453.9481    312.7188 300.2130155 +22.5999901     523.2327      72.3471      1.305     3.83     4.872334     20.40612     69.98086         9     1.083     0.747  62.73   0
       305    766.3301    307.1852 300.3120961 +22.6919406     1962.347      72.3471      1.290     2.41     4.692389     20.40612     249.1896        19     1.020     0.953  81.27   0
       306    574.4550    301.9497 300.2540230 +22.6329878     239.0541     72.36552      1.047     1.96     4.974814     20.40612     61.67419         6     0.722     0.496  85.19   0
       307    981.4168    300.1033 300.3814551 +22.7542750     561.7941      72.2365      1.231     3.41       4.3807     20.40612     79.20015        11     1.088     0.761  48.22   0
       308    428.0753    291.7204 300.2117756 +22.5862080       2213.9     72.43913      1.500     2.98     4.837496     20.40612     262.8285        26     1.353     0.970  49.44   0
       309    640.3676    290.3633 300.2783086 +22.6493948     188.6761      72.3471      0.963     3.04     4.936138     20.40612     43.78981         5     0.734     0.470  78.82   0
       310    867.1887    284.7448 300.3508147 +22.7156766      532.368     72.32868      1.234     2.54     4.576983     20.40612      94.3378        11     0.890     0.784 -45.39   0
       311    766.9510    282.5851 300.3202700 +22.6850545     333.2555     72.36552      1.398     2.74     4.739525     20.40612     53.35112         6     0.789     0.594  39.15   0
       312    749.5511    282.1482 300.3149893 +22.6797204     480.5159     72.36552      1.270     3.00     4.810168     20.40612     63.92731         8     0.772     0.710   2.34   0
       313    717.9080    281.6671 300.3052854 +22.6701098     191.0818     72.47591      1.136     2.94     4.868864     20.40612     43.28642         7     0.742     0.647  -2.04   0
       314      1.4191    282.3201 300.0821791 +22.4556553     424.0154      56.8097      1.084     2.66     5.148055     20.40612     60.83965         5     0.691     0.472  73.30  24
       315    503.9552    271.2303 300.2420386 +22.6030482     1137.735     72.36552      1.257     2.24      4.96124     20.40612     171.7605        14     1.046     0.737  82.36   0
       316    311.0764    271.3554 300.1819822 +22.5453092      382.714     72.31026      1.555     3.11     4.901302     20.40612     40.97053         6     0.789     0.634  31.31   0
       317   1016.0924    267.3796 300.4028880 +22.7552373     371.6695     72.25495      1.547     4.09     4.328263     20.40612     48.20301         6     1.002     0.478   5.59   0
       318    244.2000    266.4014 300.1627916 +22.5238492     57.45927     72.10726      0.879     2.52     4.967477     20.40612     34.05359         5     0.700     0.466  16.93   0
       319    886.9886    264.5883 300.3635266 +22.7158057     231.3499     72.21806      1.014     1.95     4.589568     20.40612     66.20905         6     0.749     0.491   3.28   0
       320    748.7026    263.1180 300.3208978 +22.6739957     2159.928     72.47591      1.216     2.26     4.830321     20.40612     321.1103        21     1.002     0.899  64.28   0
       321   1010.0097    257.4357 300.4042159 +22.7505571     3104.341     72.32868      1.431     2.55     4.362517     20.40612     421.0292        25     1.125     1.046  88.19   0
       322    457.0656    246.7982 300.2353683 +22.5819855     680.1111     72.32868      1.317     2.62     4.894059     20.40612     82.82404        10     0.862     0.709  84.36   0
       323     77.1555    247.0084 300.1171597 +22.4682217     888.8234      72.3471      0.500     0.90     5.466336     20.40612     561.9822         6     0.508     0.381 -54.09   0
       324    131.9573    240.8532 300.1361854 +22.4828788     1330.647     72.32868      1.642     3.43     5.393328     20.40612      147.431        24     1.288     1.164 -23.09   0
       325    162.9941    240.7969 300.1458501 +22.4921636     583.8225     72.14421      1.366     2.88      5.36202     20.40612     92.37561        12     1.005     0.762  57.64   0
       326    869.1494    234.6642 300.3676702 +22.7018620     344.6917     72.38393      1.308     3.34     4.665045     20.40612     46.45412         8     1.078     0.549  33.96   0
       327    215.8286    233.0792 300.1647773 +22.5057792     453.6389      72.3471      1.177     2.62     5.220103     20.40612      70.8902        10     0.868     0.727  -4.01   0
       328   1010.9655    230.1266 300.4133716 +22.7429873      274.444     72.31025      1.586     5.32     4.413709     20.40612     29.82112         9     1.182     0.676  17.82   0
       329     71.4708    230.4398 300.1207665 +22.4617615     347.4052     72.29182      1.602     3.70     5.690627     20.40612     38.84465         6     0.930     0.424 -18.20   0
       330    891.9708    227.2194 300.3772005 +22.7065498      366.081     72.32868      1.179     3.07     4.667099     20.40612     48.72982         6     0.865     0.487  35.70   0
       331    820.3342    224.3558 300.3557952 +22.6842898     703.4826     72.31026      1.261     2.40     4.812715     20.40612     104.5224        10     0.873     0.681  29.40   0
       332    410.6409    223.8143 300.2283749 +22.5614778     349.7138      72.3471      1.345     4.90     5.000457     20.40612     48.51828         8     1.024     0.664  48.59   0
       333    910.4132    217.3849 300.3861408 +22.7092395     422.9701     72.27339      1.731     2.89     4.702936     20.40612     58.87191         5     0.771     0.687  37.52   0
       334    918.6061    213.4447 300.3899735 +22.7105575     2047.346      72.3471      1.362     2.31     4.721041     20.40612      297.429        22     1.157     0.973  63.43   0
       335    337.0966    210.7180 300.2097410 +22.5356870     2128.354     72.47591      1.293     2.28     5.036135     20.40612     341.2707        23     1.097     0.962  75.29   0
       336    414.9602    205.6510 300.2356089 +22.5575530     1139.023     72.32868      1.485     2.97     5.113266     20.40612     122.0915        19     1.189     0.935  59.36   0
       337    816.9838    205.4568 300.3608797 +22.6778525     646.4556     72.29182      1.164     1.69        4.872     20.40612      117.125         9     0.769     0.682 -88.31   0
       338    167.1909    206.3498 300.1583250 +22.4835299     291.3925     72.32868      1.330     3.30     5.532884     20.40612     42.90503         6     0.722     0.640 -59.05   0
       339    857.0291    205.5108 300.3733460 +22.6898512     220.0931     72.31026      1.007     2.61     4.780746     20.40612     33.76581         6     0.760     0.499   1.97   0
       340    924.1014    202.3291 300.3952920 +22.7090045     224.0505     72.47591      1.157     4.33     4.779105     20.40612     45.64947         7     0.897     0.594 -34.30   0
       341    231.7294    198.0889 300.1810673 +22.5004946     805.8272     72.49429      1.286     2.31     5.348472     20.40612     122.1926        12     0.896     0.797 -78.08   0
       342    349.5003    197.5316 300.2178753 +22.5356143     347.4641     72.42074      1.449     4.10      5.07224     20.40612     35.35356         5     0.965     0.499 -87.36   0
       343    769.5626    195.0323 300.3494797 +22.6606635     1802.234      72.3471      1.338     2.17     4.913872     20.40612     274.7727        21     1.078     0.996 -43.15   0
       344    834.5593    194.1965 300.3700099 +22.6798737     498.5922      72.3471      1.206     3.06     4.868025     20.40612     79.51762        11     1.027     0.735  67.12   0
       345     84.2520    195.4256 300.1360913 +22.4555396     201.4866      72.3471      1.023     3.42      5.65347     20.40612     31.50917         5     0.737     0.458  18.89   0
       346    253.0473    191.2643 300.1899087 +22.5049211     651.4213     72.36552      1.248     3.14     5.374389     20.40612     81.45519        10     1.007     0.659  54.14   0
       347    773.6655    186.5954 300.3534941 +22.6594653     729.5051     72.32868      1.179     2.61     4.930051     20.40612     93.83092        10     0.878     0.722  47.93   0
       348    543.2473    187.3997 300.2814575 +22.5907240     226.2789     72.32868      1.170     2.45     5.218538     20.40612     44.05855         5     0.690     0.470  15.98   0
       349    694.2197    185.6900 300.3290321 +22.6354277      1270.06     72.27339      1.252     2.09     5.100175     20.40612     216.8407        14     0.881     0.834 -82.19   0
       350    515.3567    182.1895 300.2744638 +22.5808758     346.3646     72.32868      1.156     1.73     5.101453     20.40612     68.34082         5     0.642     0.466  75.56   0
       351    889.8029    177.2122 300.3927409 +22.6915183     1443.043     72.16268      1.311     2.51     4.895324     20.40612     185.1873        19     1.087     0.951  52.90   0
       352    620.3929    177.5906 300.3086611 +22.6110004     1143.254     72.16268      1.323     2.29     5.035954     20.40612     139.2422        15     0.959     0.822  45.24   0
       353    901.7058    176.4309 300.3967059 +22.6948548     911.1147     72.25495      1.342     2.38     4.906779     20.40612     119.3898        13     0.970     0.797 -80.82   0
       354     86.6839    176.1715 300.1430896 +22.4507401      148.415     72.32868      1.189     3.52     5.631618     20.40612     37.53729         5     0.963     0.372   3.95   0
       355    947.8420    175.0319 300.4115477 +22.7082548     342.7589     72.38393      1.496     4.20     5.006295     20.40612     46.72242         6     1.221     0.412  53.26   0
       356   1018.3946    166.5374 300.4363103 +22.7269152     1131.822     72.31026      1.399     2.36     5.438926     20.40612     169.4531        18     1.104     0.909  66.15  16
       357     42.0729    163.5108 300.1333335 +22.4337361     389.4572     72.49429      1.347     3.34     5.959391     20.40612     48.08405         6     0.778     0.493  -7.91   0
       358    252.4397    159.5533 300.2000010 +22.4956307      788.066     72.38393      1.536     3.14     5.499873     20.40612     97.07449        12     1.019     0.833  20.73   0
       359    114.4365    154.2807 300.1588105 +22.4527706     2222.869     72.29182      1.472     2.58     5.556792     20.40612     262.8846        23     1.170     1.005  60.94   0
       360    937.4496    151.6384 300.4158914 +22.6984163     888.8621      72.3471      1.577     3.14     5.105612     20.40612     93.75894        14     1.007     0.923 -68.48   0
       361     63.9667    151.3682 300.1440720 +22.4368109     562.5129      72.3471      1.381     2.96     5.746989     20.40612     78.64503         8     0.977     0.536 -27.84   0
       362    271.7476    147.6359 300.2098686 +22.4979912     5802.597      72.3471      1.418     2.43     5.492862     20.40612     854.1518        38     1.312     1.056  58.78   0
       363     55.8957    142.0475 300.1445858 +22.4317160     1232.907      72.3471      1.497     3.93     5.736075     20.40612     155.0908        19     1.235     0.929  46.72   0
       364    255.2284    138.4997 300.2076933 +22.4904185      671.848      72.2365      1.494     3.59     5.499192     20.40612     72.52572         8     0.896     0.751  56.61   0
       365    915.8818    129.3385 300.4163947 +22.6855492     3583.779     72.42074      1.377     2.39     5.177285     20.40612     501.9537        28     1.158     1.054 -85.23   0
       366   1019.5780    128.1048 300.4491398 +22.7162109     2842.062      72.2365      1.432     2.75     5.658109     20.40612     302.7065        27     1.156     1.048  29.42  16
       367    465.3140    124.3453 300.2776396 +22.5492680     665.5309     72.38393      1.260     2.55     5.071259     20.40612     97.35313        12     0.990     0.730  44.61   0
       368    218.0226    124.7578 300.2005792 +22.4753260     562.8071     72.36552      1.468     4.78     5.515182     20.40612     50.89781         9     1.014     0.639  55.98   0
       369    579.7955    122.2591 300.3139564 +22.5829417     335.8805     72.29182      1.194     2.69     5.224688     20.40612     51.37882         6     0.738     0.546 -58.01   0
       370    389.3320    116.2845 300.2566074 +22.5242000     845.3232     72.43913      1.898     2.17     5.444474     20.40612     80.53538         8     0.788     0.617  -2.86   0
       371    516.6306    111.6268 300.2977361 +22.5609764     1812.199     72.32868      1.340     2.24     5.097745     20.40612     298.3273        21     1.136     0.954  74.84   0
       372    155.5235    113.3041 300.1848628 +22.4533131     705.7147     72.47591      1.446     2.83      5.55733     20.40612     78.10937        10     0.964     0.687   5.63   0
       373    444.8135    112.1801 300.2752026 +22.5396337     496.8581     72.29182      1.347     2.85     5.224967     20.40612     66.99139         8     0.888     0.608  32.44   0
       374    260.0562    106.8544 300.2194522 +22.4827739     358.4867     72.38393      1.508     4.46     5.498117     20.40612     49.01976         7     1.065     0.530  54.73   0
       375    804.4531    101.0492 300.3908240 +22.6440758     453.5739     72.36552      1.514     3.66     5.220388     20.40612     55.36586         7     1.123     0.420  34.30   0
       376    653.0649     97.4864 300.3448061 +22.5977501     146.2998     72.42074      1.102     3.64      5.35295     20.40612     38.60276         6     1.111     0.342 -49.34   0
       377    951.0548     96.2801 300.4380806 +22.6865594     409.3927     72.36552      1.556     3.70     5.481545     20.40612      50.6782         7     1.071     0.454  47.53   0
       378    389.5985     97.3855 300.2628161 +22.5188490     216.8572     72.16268      1.059     3.85     5.477208     20.40612     37.99417         5     0.997     0.427 -15.05   0
       379    695.5836     96.1815 300.3584748 +22.6100994     119.6338     72.31026      0.906     3.17     5.327092     20.40612     30.67429         5     0.730     0.457 -71.06   0
       380    290.7166     91.4602 300.2339767 +22.4875344     5929.432     72.42074      1.382     2.46      5.48845     20.40612     847.7685        34     1.234     1.050  67.13   0
       381    701.6212     92.9919 300.3613897 +22.6109890     246.2965     72.31026      0.977     3.89     5.310818     20.40612     41.07047         5     1.030     0.420  24.31   0
       382    797.3433     92.1272 300.3914998 +22.6393824     287.9089     72.36552      1.125     3.06     5.225495     20.40612      57.2156         7     0.832     0.644 -21.18   0
       383    405.7145     91.6637 300.2696852 +22.5220304     205.9774     72.43913      1.192     4.20     5.474473     20.40612     36.31128         6     0.742     0.677 -53.27   0
       384    142.0474     91.0495 300.1878872 +22.4428840     697.7076     72.36552      1.485     2.03     5.549187     20.40612     92.66472         9     0.755     0.687 -30.72   0
       385    920.1523     89.4964 300.4306416 +22.6753645     284.6495     72.36552      1.281     4.31     5.382371     20.40612     39.88398         5     0.915     0.579  43.93   0
       386    262.5678     85.4740 300.2271628 +22.4773839      249.241      72.3471      1.015     2.27     5.495415     20.40612     72.31036         6     0.769     0.498   3.62   0
       387    306.2352     83.0975 300.2415136 +22.4897793     355.6617     72.32868      1.187     3.57     5.487511     20.40612     47.70602         6     0.778     0.579 -10.07   0
       388     52.4372     82.0962 300.1629426 +22.4134650     363.3174     72.32868      1.209     2.60     5.439903     20.40612      62.1846         6     0.749     0.607 -15.20   0
       389    536.7879     76.8038 300.3152985 +22.5570006     6349.398     72.18114      1.351     2.45     5.076951     20.40612     947.7438        33     1.191     1.053  75.19   0
       390    422.0193     76.7116 300.2796048 +22.5226153      635.168     72.27339      1.323     2.64     5.432449     20.40612     85.61971        11     0.913     0.747  73.68   0
       391    593.4026     71.6373 300.3346016 +22.5724613     251.7103      72.3471      1.138     2.83     5.227816     20.40612     54.87207         6     0.842     0.486 -84.52   0
       392    556.9944     71.2182 300.3234001 +22.5614433     255.1641     72.29182      1.371     2.66     5.112447     20.40612     38.26132         5     0.776     0.480  61.62   0
       393    789.6194     66.6550 300.3973482 +22.6297449     994.9101     72.31026      1.826     3.36     5.166953     20.40612     94.46621        13     1.081     0.821 -48.47   2
       394    730.3089     68.3202 300.3783247 +22.6124782      262.338     72.43913      1.282     4.30     5.199085     20.40612     46.89524         5     0.766     0.687 -10.01   0
       395    882.0587     65.6144 300.4265031 +22.6570990     425.7484     72.31026      1.316     3.50     5.290128     20.40612     64.71642         8     0.937     0.593 -11.73   0
       396    229.7206     60.7138 300.2249731 +22.4604324     477.5214     72.49429      1.512     2.64     5.497161     20.40612     74.01875        10     0.923     0.699 -35.31   0
       397    665.1694     56.9665 300.3617093 +22.5897210     6337.094      72.3471      1.305     2.45     5.245287     20.40612     908.2765        32     1.146     1.013  75.80   0
       398    440.1044     56.0071 300.2919427 +22.5220792     1525.125     72.21806      1.326     2.20     5.280231     20.40612     232.0956        18     1.020     0.904  33.44   0
       399    706.4454     54.3958 300.3754017 +22.6013331      864.606     72.32868      1.310     2.58     5.190524     20.40612     130.8638        17     1.071     0.907  69.02   0
       400    776.0750     51.9891 300.3978797 +22.6214742     346.7345      72.3471      1.308     1.70     5.132024     20.40612     61.95079         5     0.584     0.537   0.88   0
       401    722.2934     50.3274 300.3816582 +22.6049051      663.756     72.45753      1.319     2.80     5.155549     20.40612     88.37593         8     0.866     0.622 -31.44   0
       402     36.0209     48.8815 300.1686058 +22.3990081     407.8117     72.29182      1.653     2.89     5.406822     20.40612     44.01827         5     0.797     0.480 -61.19   0
       403    992.2300     47.9054 300.4666030 +22.6849540     521.8467      72.2365      1.367     4.18     5.646866     20.40612     68.01696        10     0.999     0.786 -44.78   0
       404    188.9110     48.5455 300.2162285 +22.4447134     525.0878     72.36552      1.155     2.89     5.517266     20.40612      78.5674         7     0.892     0.486  -8.32   0
       405    760.6812     45.9015 300.3950549 +22.6151177     493.5524     72.45753      1.146     2.23     5.118102     20.40612     86.34354        10     0.879     0.663  25.76   0
       406    709.4131     41.8230 300.3804008 +22.5986052     2641.437     72.31026      1.285     2.36     5.150609     20.40612     380.5286        23     1.064     0.977  88.63   0
       407    350.3086     42.7649 300.2682937 +22.4913878     442.5783     72.29182      1.172     2.77     5.485764     20.40612     59.44939         7     0.796     0.604  57.68   0
       408    724.5915     40.6138 300.3855221 +22.6027989     961.0693      72.2365      2.003     4.77     5.123851     20.40612     94.87442        18     1.588     0.836  50.48   0
       409      3.2225     36.3566 300.1624755 +22.3855842     768.7785     65.92913      1.347     3.35     5.341288     20.40612     89.48221        11     1.129     0.653 -22.28  18
       410      2.1113     33.2324 300.1631426 +22.3843541     301.5829     60.55634      1.358     4.28     5.339452     20.40612     39.72043         6     1.159     0.450 -29.34  27
       411    795.8965     33.3764 300.4100893 +22.6220502     1515.427      72.2365      1.391     2.86     5.081266     20.40612     242.7241        20     1.107     0.945  72.27   0
       412    874.2360     28.1775 300.4361961 +22.6439883     152.9432      72.3471      1.202     3.92     5.272568     20.40612      31.5269         6     0.788     0.560  40.54   0
       413    733.8342     26.8096 300.3928753 +22.6015939     759.5415     72.31025      1.298     2.13     5.067356     20.40612     122.8313        13     0.961     0.743  10.41   0
       414    539.5479     25.9450 300.3326391 +22.5432054     1119.418     72.36552      1.343     2.92     4.897595     20.40612     132.3533        14     1.050     0.788  66.12   0
       415    112.2097     25.8060 300.1997560 +22.4152060       612.09     72.18114      1.503     4.33     5.526126     20.40612     67.83072        10     1.163     0.693  -3.28   0
       416    443.2996     24.0422 300.3032951 +22.5138479     772.1451     72.31026      1.307     2.35     5.258499     20.40612     110.8618        14     1.086     0.813  59.42   0
       417    825.0664     22.4672 300.4227170 +22.6276379     569.8459     72.38393      1.505     2.74     5.122389     20.40612     72.49631         9     0.948     0.681  71.93   0
       418    275.6884   1010.7777 299.9307768 +22.7468778     2682.624     72.25495      7.194    26.35     53.52994     20.40612     86.60486       170     7.015     2.748  -6.56  19
       419    345.7386     14.8315 300.2759230 +22.4819919     324.9268     72.36552      1.644     3.92     5.485647     20.40612     31.21206         5     0.720     0.713 -80.97   0
       420    246.4717    998.6596 299.9256354 +22.7346360     3657.705     72.36552     10.168    45.78     64.01511     20.40612     92.41401       554    10.273     5.660  77.69  19
       421      7.1265     14.1610 300.1708795 +22.3803800     436.6531     72.31026      1.749     3.57     5.350139     20.40612     42.72404         6     0.910     0.458 -36.89   0
       422    223.2659   1010.8826 299.9144448 +22.7311759      1125.87     72.43913      3.049     8.77     86.19949     20.40612     42.65234        11     2.915     0.737 -71.55  19
       423    220.0591   1007.1977 299.9146468 +22.7291571     1326.071     72.29182      4.278     6.93     82.74728     20.40612     50.94331        21     1.463     1.261 -60.51   3
       424    217.4075   1002.3971 299.9153843 +22.7269852     847.1605     72.14421      5.210     5.94     78.43698     20.40612     58.04673         9     1.440     0.689  76.36   3
       425    214.1934   1009.4482 299.9120912 +22.7280419     1977.763     72.32868      4.625    18.54     84.45829     20.40612     63.80904        71     4.367     2.187  40.46  19
