#   1 NUMBER                 Running object number                                     
#   2 X_IMAGE                Object position along x                                    [pixel]
#   3 Y_IMAGE                Object position along y                                    [pixel]
#   4 ALPHA_J2000            Right ascension of barycenter (J2000)                      [deg]
#   5 DELTA_J2000            Declination of barycenter (J2000)                          [deg]
#   6 FLUX_APER              Flux vector within fixed circular aperture(s)              [count]
#   7 FLUXERR_APER           RMS error vector for aperture flux(es)                     [count]
#   8 FLUX_RADIUS            Fraction-of-light radii                                    [pixel]
#   9 FWHM_IMAGE             FWHM assuming a gaussian core                              [pixel]
#  10 BACKGROUND             Background at centroid position                            [count]
#  11 THRESHOLD              Detection threshold above background                       [count]
#  12 FLUX_MAX               Peak flux above background                                 [count]
#  13 ISOAREA_IMAGE          Isophotal area above Analysis threshold                    [pixel**2]
#  14 A_IMAGE                Profile RMS along major axis                               [pixel]
#  15 B_IMAGE                Profile RMS along minor axis                               [pixel]
#  16 THETA_IMAGE            Position angle (CCW/x)                                     [deg]
#  17 FLAGS                  Extraction flags                                          
         1    671.5757     17.1452 300.3929726 +22.6014973     908.6556     72.15267      1.757     3.52     6.785428     20.35128     83.06913        15     1.044     1.000 -24.90   0
         2    477.0980     16.5605 300.3325505 +22.5431626     1183.503      72.1343      1.792     2.99     6.899291     20.35128     95.46262        17     1.075     0.940  36.27   0
         3    381.3274     14.5674 300.3033669 +22.5139369     799.1274      72.1343      1.556     3.10     6.926622     20.35128     85.74001        12     1.108     0.699 -24.04   0
         4   1023.3564     11.5333 300.5045579 +22.7050366     1340.131     57.92933      1.472     4.78     6.889901     20.35128     194.1832        18     1.552     0.702  88.30  24
         5    152.4529      4.2793 300.2354637 +22.4424836     3788.006     69.59065      1.808     3.45     7.815986     20.35128     350.2205        41     1.523     1.318  58.24  24
         6    720.6417      5.2349 300.4121321 +22.6127406     484.8283     71.95033      1.491     3.52     6.596734     20.35128     50.48886        11     0.954     0.802 -35.36  16
         7    282.4358      5.1804 300.2756200 +22.4816459     229.2768     71.78436      1.617     4.97     7.072472     20.35128     27.28831         5     1.101     0.636  23.82  16
         8    575.1000      1.8393 300.3678579 +22.5682409     226.6337      59.0173      1.251     4.43     6.897703     20.35128     37.13659         6     1.000     0.684   1.38  24
         9    158.4388   1000.0078 299.9140332 +22.7302129     1636.614     72.15267      4.408    10.46     84.32842     20.35128     56.27208        25     2.436     1.334   6.67   3
        10     67.2912   1010.2768 299.8823475 +22.7058150     5457.926     72.28114     15.416    73.09     74.75798     20.35128     163.9016      1834    15.085    11.117  39.87  27
        11     59.1628    947.5281 299.9002336 +22.6853807     5051.176     72.09754     25.212   118.01     34.24761     20.35128     1119.604      4203    20.881    18.506 -72.67  19
        12     26.7187    979.3362 299.8798003 +22.6847696     722.2164     72.24445      3.643     4.89     40.45951     20.35128     37.61564         5     1.162     0.582  66.10   1
        13    479.3919    976.6335 300.0215377 +22.8197451     333.6544      72.1343      1.807     3.85     4.674132     20.35128     30.95936         5     1.019     0.418 -14.97   0
        14    905.6451    971.5751 300.1560778 +22.9460060     772.5098     72.15267      2.769     6.39     5.415298     20.35128     60.17434        10     1.521     0.754 -89.80   0
        15    200.3223    985.0638 299.9319238 +22.7384887     5016.692      72.2261      9.393    38.16     61.29157     20.35128     95.64978       455     8.173     5.015 -58.99  19
        16    127.3394    955.2458 299.9189228 +22.7080450      1981.69     72.15267     12.805    17.00     44.48809     20.35128     56.08164        50     3.899     2.059   5.18   3
        17    632.5416    954.5802 300.0764318 +22.8593120     6772.188     72.11592      2.069     4.69     5.147645     20.35128      333.118        56     1.675     1.534  30.15   0
        18    153.0901    996.5084 299.9135081 +22.7276048     2987.489     72.29947      6.556    27.85     81.58504     20.35128     68.89698       158     6.454     3.336  76.19  19
        19    144.1963    948.6949 299.9262964 +22.7112219     1040.978     72.04237      4.425     5.00     38.53856     20.35128     41.53846         9     1.294     0.657  31.56   2
        20    512.0838    948.9060 300.0407418 +22.8215841     457.5044     72.31779      1.855     6.77     5.110168     20.35128     41.18989        11     1.178     1.091 -80.34   0
        21    107.9156   1009.1278 299.8953531 +22.7176730     601.7478     72.24445      1.768     4.62     91.79612     20.35128      48.5069         7     1.018     0.596  11.76   3
        22    540.8972    945.3806 300.0508654 +22.8292074     1550.213     72.06077      2.058     5.52     5.099998     20.35128      83.2267        27     1.552     1.223  -9.90   0
        23    435.1563    941.6298 300.0191478 +22.7964374     1189.305     72.17104      2.342     6.89     5.159854     20.35128     66.48737        25     1.598     1.219  43.94   0
        24    365.5109    939.7466 299.9980746 +22.7750189     6440.314     72.17104      2.083     4.75     5.435668     20.35128     361.6501        52     1.624     1.544  10.21   0
        25    116.4998    928.9794 299.9240955 +22.6972592     696.5013     72.06077      5.435     4.63     22.20453     20.35128     29.21544         5     1.049     0.581  13.10   0
        26    398.1558    927.1369 300.0123402 +22.7811860     562.2513     72.15267      1.768     6.73     5.328132     20.35128     41.89709        14     1.416     0.981 -20.82   0
        27    149.7400    999.0607 299.9116357 +22.7273320     1972.643     72.17104      4.485    12.27     83.37732     20.35128     60.78576        41     2.579     1.624  62.79   3
        28    527.6271    992.3568 300.0314479 +22.8387167     2278.223     72.15267      2.058     5.07     4.725348     20.35128     131.7368        38     1.562     1.496 -24.96   0
        29    911.8571    918.8497 300.1751694 +22.9327161     2056.193      72.1894      2.111     5.30     5.585216     20.35128     105.4726        35     1.576     1.430  18.08   0
        30    700.9996    907.4277 300.1131114 +22.8662803     833.3986     72.09754      2.162     7.33     5.518102     20.35128     38.75357        17     2.030     0.742  55.78   0
        31    615.4669    987.9956 300.0602384 +22.8637905     9480.714     72.11592      2.531     8.71     4.896746     20.35128     420.2372        35     1.883     1.379   2.58   3
        32    735.6485    901.6968 300.1257794 +22.8750136     1000.065     72.17104      2.204     5.28     5.601977     20.35128     73.24909        19     1.323     1.238  88.25   0
        33    757.7018    895.4280 300.1346957 +22.8798186     11394.91     72.07915      2.000     4.49     5.615996     20.35128     585.1466        58     1.611     1.542  38.96   0
        34    947.3986    895.6357 300.1938129 +22.9366871     373.4837     72.09754      1.835     4.59     5.727965     20.35128     30.62648         7     1.099     0.545 -45.14   0
        35     69.1262    886.3160 299.9232396 +22.6708117     701.4634     72.24445      2.834     7.34     13.80408     20.35128     38.49232        12     1.349     1.150  20.14   0
        36    463.1435    883.9019 300.0466406 +22.7882537     592.7753      72.2261      2.070     5.84     5.547044     20.35128     45.34482         8     1.293     0.742 -56.47   0
        37    766.3289    877.4393 300.1432369 +22.8772346     1402.694     72.09754      1.965     5.80     5.687486     20.35128     80.18649        28     1.422     1.365  73.99   0
        38    482.6628    877.0236 300.0549573 +22.7921287     298.3438     72.11592      1.900     4.52     5.611069     20.35128      25.2322         6     1.298     0.448  82.90   0
        39     60.3671    878.3167 299.9231175 +22.6658899     291.5687     72.09754      1.984     4.23     11.60062     20.35128     30.17022         5     1.293     0.394  36.42   0
        40    950.8833    876.3322 300.2011791 +22.9321824     346.0773     72.24445      1.685     4.01     5.791371     20.35128     36.47334         5     1.101     0.469 -55.66   0
        41    804.1029    870.5950 300.1572448 +22.8865814     881.0633     72.04237      2.550     7.00      5.63662     20.35128     47.37674        19     1.530     1.339  39.60   0
        42    619.7551    985.2346 300.0624732 +22.8642828     9754.743      72.1894      2.386    12.88     4.939826     20.35128     481.5731        70     2.891     1.601  -3.96   3
        43    912.9335    868.2817 300.1919530 +22.9185062     416.3874     72.24445      1.833     7.76     5.718491     20.35128      36.4948         8     1.539     1.094  53.50   0
        44    852.4520    863.0652 300.1747768 +22.8988969     504.3375     72.17104      1.827     5.97     5.663585     20.35128     37.35198        10     1.331     0.753  28.06   0
        45    704.1887    861.2537 300.1291230 +22.8539720     703.2505      72.1343      1.870     6.69     5.751433     20.35128      53.1508        15     1.382     0.908  24.93   0
        46    715.4422    858.3472 300.1335771 +22.8565079     497.9675      72.1343      1.788     4.79     5.792022     20.35128     44.31323        11     1.036     0.915  13.76   0
        47    416.7284    857.4295 300.0407941 +22.7667425      4153.48      72.1343      1.915     4.36     5.570952     20.35128     281.0709        37     1.444     1.392  21.22   0
        48    195.4665    846.6362 299.9754356 +22.6973153     253.7376      72.1343      1.441     3.69     7.545688     20.35128     36.46427         5     1.597     0.245  48.72   0
        49    141.9395    843.1370 299.9599231 +22.6802609     891.4868     72.17104      2.203     6.24     8.748295     20.35128     66.86748        16     1.447     1.189  79.16   0
        50    119.0977    840.0463 299.9538239 +22.6725245     1452.371     72.17104      2.086     4.78     8.868503     20.35128     110.1721        32     1.606     1.383  31.00   0
        51    714.6248    988.4048 300.0910162 +22.8936202     604.8558     72.09754      2.112     6.49     5.325569     20.35128     39.16081        10     1.425     0.829 -29.87   0
        52    990.9844    829.6630 300.2288742 +22.9307729     2027.146     72.09754      2.051     5.31     6.041092     20.35128     102.4123        34     1.555     1.449  58.34   0
        53    945.2743    828.1623 300.2150933 +22.9166578     2160.318     72.07915      2.108     5.10      6.02224     20.35128     127.5711        35     1.615     1.397   1.61   0
        54    650.5528    828.1118 300.1231785 +22.8283849     602.5411     72.11592      2.198     6.64     5.840847     20.35128     43.75591        12     1.546     0.800 -77.65   0
        55    728.9100    822.0637 300.1495751 +22.8501176      697.993      72.2261      2.052     3.73      5.99005     20.35128     44.53202         8     1.002     0.631  14.86   0
        56    152.1475    821.7739 299.9700438 +22.6771919     453.1781     72.15267      1.749     4.18     7.506033     20.35128       40.361         7     1.022     0.538 -73.24   0
        57    596.7722    815.7204 300.1104446 +22.8087147     4828.021     72.15267      1.837     4.03     5.841776     20.35128     322.2225        41     1.433     1.386   2.11   0
        58     87.0949    816.1329 299.9516465 +22.6560663     396.9809     72.28114      1.658     6.10     7.320878     20.35128      40.9611        10     1.095     0.954 -72.21   0
        59    398.8053    812.5134 300.0498174 +22.7484753     649.1506     72.06077      1.959     6.59      5.95146     20.35128     44.22853        13     1.288     0.946  53.06   0
        60    147.1188    809.1790 299.9725743 +22.6720700     1322.984     72.09754      2.022     4.05     6.834357     20.35128     122.3158        22     1.403     1.180   2.01   0
        61    617.3112    808.1066 300.1193214 +22.8126805     861.7692     72.29947      1.912     4.82     5.864784     20.35128     68.73666        16     1.145     1.020  -3.28   0
        62    166.1316    806.1399 299.9794762 +22.6768986     577.4978     72.15267      2.177     7.51     6.626876     20.35128     35.06292        14     1.409     1.122  51.77   0
        63    772.8542    795.4474 300.1719335 +22.8556302     4164.177     72.17104      1.878     4.08     6.178121     20.35128      275.668        42     1.447     1.428  43.40   0
        64    990.0258    795.7321 300.2396076 +22.9207314     1130.191     72.11592      2.077     5.71     6.112976     20.35128     70.63967        28     1.543     1.302  42.69   0
        65    181.8669    789.1516 299.9898936 +22.6767410     529.0416      72.1343      2.341     4.38     6.431748     20.35128     50.81287         7     1.130     0.528  75.67   0
        66    489.7089    787.9515 300.0861139 +22.7686627     548.4532     72.15267      1.639     4.18     5.905016     20.35128     47.89231        15     1.055     1.038 -48.06   0
        67    136.0974    786.0163 299.9766760 +22.6621185     1059.905     72.04237      2.044     4.76      6.43084     20.35128     84.46581        23     1.551     1.140 -14.78   0
        68    551.8563    781.0483 300.1077200 +22.7852997     497.6155     72.17104      1.785     5.74     5.937366     20.35128     38.59863         9     1.456     0.636  81.11   0
        69    285.8306    777.7236 300.0259576 +22.7046268     53611.33      72.1343      1.901     3.97     6.425415     20.35128     4136.995       109     1.676     1.581  28.88   0
        70    956.6089    776.4037 300.2354599 +22.9051721     941.9949     71.96874      2.118     7.52     6.137504     20.35128     58.77002        20     1.500     1.185  52.78   0
        71    543.7113    776.9528 300.1065135 +22.7816833     1687.449     72.11592      1.737     3.95     5.945418     20.35128     128.4684        28     1.328     1.229   0.22   0
        72    572.6567    773.2036 300.1167517 +22.7892778     988.5578     72.09754      1.814     6.71     5.934749     20.35128     64.87596        18     1.233     1.168  79.72   0
        73    583.3972    771.5944 300.1206219 +22.7920330     528.7057     71.95033      1.574     5.53     5.930845     20.35128     50.33512        13     1.102     1.007  78.41   0
        74    689.3838    767.6477 300.1549418 +22.8226449     555.3203     72.17104      1.622     5.30     6.142966     20.35128     40.04193        13     1.100     0.901 -50.74   0
        75    726.6790    757.8993 300.1697396 +22.8310129      783.346     72.26279      1.792     6.81     6.243679     20.35128     57.65754        15     1.390     1.163  -3.66   0
        76    335.5907    755.0100 300.0488290 +22.7130201     31670.69     72.02397      1.841     3.76     6.093452     20.35128     2281.521        82     1.572     1.499  39.95   0
        77    349.7615    755.4434 300.0530997 +22.7173915      2002.83      72.2261      1.905     4.13     5.986825     20.35128     152.9273        28     1.414     1.182  34.00   0
        78    858.8126    751.2722 300.2131094 +22.8686718     2862.654     72.15267      1.899     4.04     6.425566     20.35128     182.4132        36     1.454     1.332  48.98   0
        79    347.1328    748.9951 300.0543772 +22.7147522     594.1796     72.11592      2.249     5.32     5.997142     20.35128     42.97982         8     1.064     0.750  75.86   1
        80    616.8159    747.4248 300.1388936 +22.7951000     910.5057     72.15267      1.641     4.30     5.996161     20.35128     78.53767        18     1.227     0.977  31.19   0
        81    218.4127    746.8945 300.0149988 +22.6755685     571.4695     72.06077      1.565     4.24      6.55803     20.35128     70.71093        15     1.315     1.000  -9.00   0
        82    453.1610    746.7719 300.0881157 +22.7458857     398.2238     72.17104      2.076     4.50     5.917627     20.35128     37.98213         6     1.161     0.495 -29.07   0
        83    463.6282    741.9272 300.0929505 +22.7476305     982.1734     72.15267      1.973     5.04     5.914355     20.35128     71.69939        16     1.262     0.996  49.59   0
        84     23.3353    742.2190 299.9558484 +22.6157388     622.5965     72.09754      2.175     5.18     6.415202     20.35128     47.95942         8     1.140     0.665 -45.40   0
        85    613.2343    739.4094 300.1403826 +22.7917244     405.9093     72.11592      1.524     3.79     5.998302     20.35128     29.44934         5     1.004     0.410 -83.40   0
        86    365.7292    738.7073 300.0635105 +22.7173712       397.19     72.26279      1.814     4.65     5.923279     20.35128     39.23144         6     1.088     0.565 -23.29   0
        87    864.9898    738.3443 300.2192390 +22.8668050     520.9291      72.1343      2.136     5.29     6.477606     20.35128     38.37738         8     1.190     0.664  -0.46   0
        88    409.6378    736.6610 300.0778475 +22.7299411     384.6424     72.15267      1.398     5.32     5.914396     20.35128     34.79922        10     1.172     0.683 -31.26   0
        89    321.5348    736.9454 300.0503250 +22.7036210     389.2533      72.1894      1.572     4.94     6.188112     20.35128     42.87098         8     1.181     0.586  35.57   0
        90     52.1940    736.0481 299.9668258 +22.6226218      628.412     72.11592      2.353     4.55     6.417281     20.35128     40.60873         7     1.004     0.616 -86.86   0
        91    842.6017    733.6217 300.2137888 +22.8587451     496.6762     72.06077      2.079     3.89      6.45663     20.35128     27.92628         5     1.026     0.423  14.72   0
        92    216.2213    730.8831 300.0195208 +22.6703156     374.9145     72.09754      1.429     4.77     6.581154     20.35128     45.44627         8     0.996     0.649  59.10   0
        93    538.6591    722.0654 300.1227800 +22.7644037      420.029     72.17104      1.878     5.77     6.085432     20.35128     36.72445        10     1.237     0.757  12.99   0
        94    508.6963    719.6932 300.1142158 +22.7547465     577.8921      72.3178      1.667     5.60     6.071833     20.35128     57.18631        13     1.056     0.884  20.78   0
        95    530.4534    717.4137 300.1217351 +22.7606094     1412.797      72.1343      1.818     3.80     6.112743     20.35128     125.5601        22     1.276     1.113 -31.82   0
        96    925.1940    716.5817 300.2451001 +22.8785702     4351.578     72.09754      1.805     4.02     6.314218     20.35128     294.1474        39     1.421     1.378  70.45   0
        97    450.0959    716.8714 300.0968790 +22.7363800     299.5386     72.24445      1.485     5.25     6.069311     20.35128     31.50812         6     1.201     0.648  -0.18   0
        98    913.8047    707.8321 300.2443892 +22.8726457     1658.993     72.11592      1.895     5.33     6.391528     20.35128      106.162        29     1.589     1.239 -40.31   0
        99    276.9559    701.5493 300.0479529 +22.6800982     1046.587     72.17104      2.023     6.86     6.500061     20.35128     71.93129        17     1.299     1.017 -10.07   0
       100    740.1925    699.1232 300.1930573 +22.8181684     2496.645     72.07915      1.807     3.61     6.424567     20.35128     207.5476        35     1.527     1.289  -7.53   0
       101    944.7527    698.2172 300.2571733 +22.8791441     1668.115     72.17104      1.928     4.46     6.307615     20.35128     103.7504        26     1.359     1.262  60.84   0
       102    125.4737    685.4963 300.0060403 +22.6300847     557.6892     72.26279      2.111     5.65     6.545082     20.35128     45.16629         8     0.995     0.903 -25.74   0
       103    822.8718    685.1802 300.2233770 +22.8389140     402.1025     72.17104      1.478     4.87     6.511187     20.35128     44.05857         9     1.041     0.645 -31.13   0
       104    858.4818    676.1470 300.2374225 +22.8469768     148283.6     72.17104      1.818     3.75     6.605254     20.35128     11080.76       162     1.634     1.587 -81.69   0
       105   1005.2608    678.2861 300.2825396 +22.8915208     1287.936     72.24445      1.819     4.28     6.037127     20.35128     88.95287        21     1.287     1.160  -1.25   0
       106    620.4843    680.0508 300.1619333 +22.7768410     413.5254     72.11592      1.674     5.27     6.470097     20.35128     34.40553         8     1.132     0.692  -4.79   0
       107    710.7470    676.5944 300.1911962 +22.8028770     773.0682     72.09754      1.709     3.05     6.487089     20.35128     69.68824        12     0.984     0.789 -21.56   0
       108    890.8311    669.3264 300.2497332 +22.8546986     390.2504     72.15267      1.538     5.48     6.572484     20.35128     40.21539        10     0.982     0.863  24.93   0
       109    544.6104    664.9063 300.1432089 +22.7497656     1662.187     72.07915      1.649     3.68     6.471326     20.35128     146.1181        25     1.284     1.114  13.41   0
       110    725.9296    662.2168 300.2006024 +22.8032907     9483.275     72.15267      1.677     3.39     6.491716     20.35128     740.9212        49     1.402     1.319  57.37   0
       111    227.3045    656.9259 300.0470012 +22.6524059     4938.844     72.28114      1.826     3.81     6.516503     20.35128     411.6409        41     1.445     1.386  27.62   0
       112    309.3212    654.9265 300.0731755 +22.6764102     1182.151     72.24445      1.699     4.22     6.494342     20.35128     90.26437        22     1.258     1.186  63.69   0
       113    184.9957    652.4677 300.0352862 +22.6384455     502.0058     72.11592      1.788     5.96     6.548549     20.35128     51.00656        10     1.440     0.824  22.66   0
       114    517.7775    650.7953 300.1394334 +22.7376746     771.9559     72.09754      1.612     5.40     6.554749     20.35128     68.16967        16     1.242     0.998 -15.98   0
       115    509.4062    642.9349 300.1393791 +22.7329089      3274.76     72.11592      1.613     3.08     6.610995     20.35128     315.3864        32     1.292     1.195 -43.14   0
       116    499.5338    636.7065 300.1383271 +22.7281625     1515.346     72.28114      1.843     3.93     6.660092     20.35128      125.459        22     1.299     1.059 -31.93   0
       117    893.0400    635.2380 300.2614987 +22.8455584     405.8522     72.20776      1.513     5.67     6.496453     20.35128     50.30794         9     1.028     0.901   8.33   0
       118    162.7821    633.0380 300.0346881 +22.6262096     675.1988      72.1343      1.962     4.15     6.560591     20.35128     67.89178        14     1.394     0.746   6.65   0
       119    177.1884    631.2155 300.0397616 +22.6300042     493.4422     72.06077      1.684     4.67     6.555044     20.35128     68.59853        11     1.071     0.948  -8.58   0
       120    203.4881    628.3856 300.0488629 +22.6370739     395.7905     72.07915      1.653     6.27     6.546701     20.35128     32.20509        10     1.174     0.942  -8.94   0
       121    946.9050    627.9681 300.2806721 +22.8595878      470.982     72.09754      1.924     3.25     6.481099     20.35128     39.52272         8     0.985     0.859 -89.38   0
       122    233.9626    628.5811 300.0582815 +22.6462629     371.5557      72.1343      1.453     3.95     6.533746     20.35128     35.82888         6     1.031     0.432 -14.71   0
       123    523.4605    626.8486 300.1489840 +22.7324967     505.8573      72.1894      1.557     5.10      6.68882     20.35128     51.18035        10     1.081     0.730  73.87   0
       124    424.3648    626.2981 300.1182949 +22.7026560      1717.53      72.1343      1.663     3.46      6.56784     20.35128     163.9058        25     1.304     1.115  42.23   0
       125   1000.0522    624.0206 300.2985460 +22.8743557     849.3757      72.1343      1.864     5.60     6.412002     20.35128     60.88003        19     1.413     1.188 -33.48   0
       126    458.0431    625.3463 300.1290933 +22.7124710     201.6031     72.15267      1.227     4.51     6.692278     20.35128     32.57178         6     0.860     0.672  31.04   0
       127     78.3047    621.0133 300.0123207 +22.5974361      19923.2     72.06077      1.970     3.92     6.567642     20.35128     1542.908        72     1.651     1.535  32.07   0
       128    687.1774    613.5750 300.2043226 +22.7777076     1606.479     72.09754      0.697     1.38     6.558278     20.35128     672.4169         6     0.602     0.354  72.69   0
       129    165.5370    613.9896 300.0417328 +22.6215667     2059.079     72.07915      0.659     1.10      6.55704     20.35128     913.7254         6     0.499     0.351  -2.71   0
       130    927.5251    608.2505 300.2810290 +22.8481181     1234.678      72.1343      2.013     4.37     6.511024     20.35128     87.63728        23     1.417     1.164  42.25   0
       131     24.2903    604.9933 300.0007303 +22.5766457     1490.728     72.04237      2.234     5.77     6.579969     20.35128     92.21765        30     1.609     1.413  89.93   0
       132    794.1649    606.4375 300.2400064 +22.8076838     616.9456     72.20776      1.824     4.78      6.39354     20.35128     45.54691         8     0.986     0.658  14.98   0
       133    509.1869    621.5447 300.1462600 +22.7266978     1101.903      72.1343      1.746     4.09      6.74389     20.35128     105.1956        20     1.200     1.185 -69.15   0
       134    472.6618    602.5086 300.1410656 +22.7102888     395.1895      72.2261      1.391     3.63     6.862998     20.35128     48.22058         8     0.899     0.703 -44.84   0
       135    866.4447    600.7903 300.2643910 +22.8276937     1043.435     72.15267      2.680     7.95     6.385244     20.35128     52.43405        22     1.926     0.917   8.52   0
       136    612.7836    597.5303 300.1863435 +22.7508216     840.3494     72.15267      0.761     3.11     6.634181     20.35128      463.785         6     1.151     0.245 -64.07   0
       137    429.4907    594.7078 300.1301532 +22.6951167     611.7565     72.29947      1.585     3.23     6.668986     20.35128     74.60273        11     1.019     0.733  18.85   0
       138    577.6459    593.5734 300.1766777 +22.7391627     439.0711     72.15267      1.542     3.84     6.688109     20.35128     51.50925         9     1.149     0.728  -9.82   0
       139    624.6797    591.8349 300.1919015 +22.7527468     410.1955     72.07915      1.515     5.27     6.628782     20.35128     51.22394        11     1.177     0.889 -71.32   0
       140    595.0739    591.1902 300.1828832 +22.7436966     467.6274      72.1343      1.510     4.94     6.665026     20.35128      57.0359        12     1.096     0.968  51.20   0
       141    473.6169    590.5317 300.1452536 +22.7071339     991.4648      72.1343      1.747     3.36     6.879441     20.35128     96.48598        17     1.097     0.987 -49.98   0
       142    907.5757    586.2149 300.2819611 +22.8358113     3280.626     72.15267      1.730     3.55     6.459221     20.35128     271.9734        33     1.302     1.290 -64.75   0
       143    439.2563    585.6774 300.1361279 +22.6954475     1697.613     72.17104      1.670     3.25     6.727304     20.35128      172.317        24     1.277     1.139  79.78   0
       144   1005.1694    584.4786 300.3129895 +22.8645133     666.1592      72.1343      1.587     4.53     6.517251     20.35128     61.42351        13     1.161     0.921  58.80   0
       145      2.0734    579.1282 300.0022245 +22.5625617     3292.411     60.26178      1.438     3.15     6.586401     20.35128     414.6747        27     1.484     0.873  87.59  24
       146    414.4881    581.2843 300.1298411 +22.6867665     289.4129     72.26279      1.252     3.74     6.629691     20.35128     41.29798         7     0.991     0.646   6.98   0
       147    947.0162    576.6427 300.2973804 +22.8448601     403.1904     72.15267      1.475     5.56      6.49677     20.35128     33.79278         8     1.113     0.829 -37.63   0
       148    302.5801    572.4131 300.0978809 +22.6506937     9216.593     72.09754      1.735     3.49     6.393947     20.35128     836.6353        49     1.436     1.319  37.58   0
       149    425.0862    569.5647 300.1369481 +22.6865742     9127.564     72.11592      1.612     3.11     6.689131     20.35128     868.9542        44     1.354     1.260  37.56   0
       150    836.8365    563.8262 300.2671599 +22.8082037     1852.601     72.15266      1.702     3.55     6.378274     20.35128     149.1177        28     1.284     1.204 -67.48   0
       151    921.5117    561.2755 300.2944113 +22.8328090     12579.29     72.26279      1.753     3.53     6.467608     20.35128     1039.166        53     1.451     1.398 -45.13   0
       152    485.7191    559.2020 300.1591993 +22.7017568     11541.17     72.04237      1.593     3.12     6.924236     20.35128     1135.568        48     1.342     1.274  47.84   0
       153    655.6023    555.6284 300.2133009 +22.7515985     525.0725     72.07915      1.463     3.22     6.609733     20.35128     61.30365         7     1.001     0.448  29.02   0
       154    212.9937    554.6920 300.0757565 +22.6187622     1380.607     72.04237      1.659     3.40     6.511051     20.35128     143.4368        23     1.321     1.026  14.95   0
       155    370.5005    553.8734 300.1250465 +22.6657158     264.4507     72.28114      1.473     4.21     6.549765     20.35128     32.16733         6     1.023     0.494  85.11   0
       156    460.2523    552.4240 300.1534678 +22.6921823     340.9023     72.15267      1.275     3.33     6.860292     20.35128     34.76044         5     0.724     0.463  18.08   0
       157    760.2520    548.0322 300.2483997 +22.7807412     827.6041     72.15267      1.570     3.92     6.374656     20.35128     78.94746        16     1.088     1.017  88.18   0
       158    417.3266    547.3553 300.1417446 +22.6778694     4524.184     72.11592      1.626     3.13     6.692226     20.35128     454.1591        35     1.322     1.210  41.22   0
       159    395.6712    545.7201 300.1355320 +22.6709133     1147.711     72.24445      1.557     3.42     6.630955     20.35128     140.2022        18     1.074     1.062  74.04   0
       160    150.0589    545.0563 300.0593066 +22.5971362     690.7704     72.20776      1.607     4.06     6.513007     20.35128     62.77668        12     0.997     0.915  87.39   0
       161    837.0844    543.1428 300.2739549 +22.8023301     1655.422      72.2261      1.703     3.59     6.375784     20.35128     129.0746        23     1.211     1.156 -40.57   0
       162    534.0296    534.9962 300.1821116 +22.7092683     205367.8     72.09754      1.544     2.98     6.767519     20.35128     18233.69       196     1.571     1.514 -23.68   0
       163    717.5669    540.0709 300.2376735 +22.7656757     884.7916      72.1343      1.658     3.25      6.41731     20.35128     77.22231        13     0.999     0.852   4.83   0
       164    922.9433    537.2242 300.3026697 +22.8263198     223.3522      72.1343      1.374     3.44     6.439616     20.35128      35.5298         5     0.990     0.537 -31.59   0
       165    219.9999    534.7606 300.0844090 +22.6151377     3541.045     72.11592      1.722     3.44     6.484156     20.35128     313.5614        38     1.398     1.317  50.10   0
       166    786.0593    531.7285 300.2617441 +22.7837775      630.417     72.17104      1.566     4.45     6.363311     20.35128     51.71954         8     0.848     0.664  32.38   0
       167    114.3714    522.9213 300.0553942 +22.5800858     7706.277      72.1343      1.618     5.54     6.545645     20.35128     1932.387        22     1.802     0.481 -77.05   0
       168    565.4963    522.0145 300.1961324 +22.7149595     371.0552     72.04237      1.501     3.48     6.723011     20.35128     38.86078         8     0.832     0.674  -0.82   0
       169    424.5664    519.6943 300.1529818 +22.6720905      225.618     72.11592      1.283     2.70     6.693983     20.35128     54.57856         5     0.936     0.325 -23.88   3
       170    424.6570    515.2279 300.1544604 +22.6708343     2646.882      72.1343      1.595     3.02     6.687252     20.35128     272.7383        29     1.257     1.186  86.47   2
       171    269.1946    517.7923 300.1052278 +22.6250035     422.8868     71.98716      1.444     3.19     6.305888     20.35128      47.8307         6     0.887     0.590  20.16   0
       172    581.9569    512.9803 300.2041958 +22.7172913     333.0688     72.15266      2.816     3.68     6.710931     20.35128     27.04346         5     1.020     0.382  57.52   0
       173    835.7226    512.2328 300.2835682 +22.7930337     460.0888     72.11592      2.104     3.85      6.37337     20.35128      41.5178         8     0.928     0.625  10.43   0
       174    741.8335    503.8218 300.2570125 +22.7625170     349.2252      72.1343      1.354     4.10     6.274647     20.35128     46.11869         9     0.933     0.727  86.70   0
       175    821.7195    501.6391 300.2826395 +22.7857968     1933.039     72.09754      1.764     3.53     6.372014     20.35128     171.3351        28     1.300     1.221 -81.16   0
       176    692.9264    499.2452 300.2432477 +22.7465628     2670.088     72.11592      1.583     3.02     6.309573     20.35128     251.4367        28     1.231     1.173  19.32   0
       177    937.2313    497.1397 300.3201465 +22.8190647     468.4636     72.17104      1.481     4.78     6.297845     20.35128     42.92522        10     0.964     0.853  34.80   3
       178    936.1512    492.6454 300.3212687 +22.8174487     803.1871     72.17104      1.719     3.41     6.289525     20.35128     74.01453        13     1.043     0.851  15.80   2
       179    597.5067    496.1219 300.2145161 +22.7171010     399.4606     72.26279      1.401     2.75     6.699618     20.35128     58.03263         8     0.864     0.625 -32.95   0
       180    480.0276    494.9910 300.1782778 +22.6816011     792.5864      72.1343      1.450     3.37     6.751103     20.35128     77.30113        13     1.006     0.896  76.47   0
       181    950.2405    493.5039 300.3253878 +22.8219107     1222.358      72.1343      1.701     4.14     6.207785     20.35128     112.2301        21     1.284     1.067   2.32   0
       182    822.0585    491.7660 300.2859511 +22.7830588     2316.304     72.15267      1.868     4.53     6.371572     20.35128     180.0423        31     1.559     1.182  79.37   0
       183    575.3807    489.7333 300.2096947 +22.7086405     676.0627     72.09754      1.693     4.12     6.715614     20.35128     55.64347        15     1.178     0.970 -44.16   2
       184    574.5734    485.9699 300.2106651 +22.7073171     499.4431      72.1343      2.204     4.18     6.715572     20.35128     35.58286         5     1.097     0.455 -28.46   2
       185    860.1356    486.9438 300.2993971 +22.7930656      4299.37      72.1894      1.574     3.11      6.37183     20.35128       390.54        35     1.292     1.236  55.72   0
       186    413.9984    488.5145 300.1598147 +22.6599666      431.051     72.06077      1.475     3.68     6.625199     20.35128     41.13591         6     0.793     0.498  -4.35   0
       187    501.0206    486.1602 300.1876849 +22.6853495     266.2972     72.17104      1.609     3.89     6.722913     20.35128     28.52365         6     0.944     0.459 -37.64   0
       188    520.4026    482.9895 300.1947529 +22.6902416       332.05     71.95033      1.517     4.49     6.724028     20.35128     32.59348         6     0.831     0.690  66.53   0
       189    952.0962    477.6660 300.3311096 +22.8179097     749.3732     72.24445      1.629     4.26     6.128028     20.35128     75.32142        15     1.280     0.857  -1.37   0
       190     91.9486    476.9238 300.0633550 +22.5601589     1132.455      72.1343      1.881     3.78     6.543916     20.35128     108.5824        24     1.326     1.181  29.83   0
       191    891.3544    475.7157 300.3127846 +22.7991767     244.3297     72.11592      1.087     3.47      6.35369     20.35128     36.39399         5     1.187     0.292  36.35   0
       192    947.8203    467.2191 300.3331668 +22.8136251     368.6778      72.1343      1.453     3.44     6.183224     20.35128     28.89051         5     0.990     0.346  45.75   0
       193    692.4415    461.5520 300.2553348 +22.7355803     462.3717     72.17104      1.223     3.10     6.274429     20.35128      56.0062         8     0.996     0.497  -1.10   0
       194    581.5207    459.2538 300.2215039 +22.7017174     363.0498     72.17104      1.369     4.33      6.70493     20.35128     37.26612         7     1.081     0.494 -41.21   0
       195    301.3095    459.3040 300.1342128 +22.6178228     261.1132      72.3178      1.620     3.75     6.200947     20.35128     42.41922         5     0.984     0.410  44.92   0
       196    633.4671    457.3489 300.2383133 +22.7167199     694.4709      72.1343      1.426     2.74     6.551484     20.35128     75.47093        12     0.984     0.728  27.46   0
       197    694.3560    449.3954 300.2598783 +22.7326578     951.4943     72.15267      1.661     4.51      6.30171     20.35128     91.92556        19     1.275     1.158 -70.28   0
       198    948.0712    450.1764 300.3387783 +22.8087971     655.8536     72.17104      1.562     4.42     6.219255     20.35128     58.18702         8     0.864     0.714  18.81   0
       199    851.5776    445.5824 300.3101556 +22.7786083     1005.896     72.11592      1.629     3.61     6.421472     20.35128     109.2219        19     1.226     1.139  82.14   0
       200    835.9103    442.0148 300.3064254 +22.7728946      567.644     72.07915      1.415     3.27     6.424814     20.35128     73.23196        10     0.909     0.764  60.30   0
       201    815.8516    442.0349 300.3001609 +22.7668987     241.5147     72.15267      1.377     4.47     6.421794     20.35128     31.86251         6     1.279     0.445  35.97   0
       202    580.1164    439.9651 300.2273280 +22.6957521     2995.952     72.09754      1.445     2.91     6.700572     20.35128     303.4174        28     1.154     1.125  73.21   0
       203    940.4227    439.0290 300.3400098 +22.8033022     578.0993      72.1343      1.822     5.64     6.321029     20.35128     48.88766        10     1.211     0.741  -1.81   0
       204    419.6435    426.9113 300.1815713 +22.6439549     478.2369      72.1343      1.574     5.27     6.636548     20.35128     48.71016         9     1.277     0.614 -14.82   0
       205    991.6542    419.4449 300.3623605 +22.8129912     1338.063     72.15267      1.672     3.07     5.811985     20.35128     132.9944        18     1.170     0.970  21.02   0
       206    949.9666    417.9516 300.3498311 +22.8000928     1005.323     72.17104      1.692     3.93     6.265486     20.35128     87.15487        22     1.217     1.163  70.25   0
       207    863.5494    419.2145 300.3224508 +22.7746053     325.5844      72.1343      1.375     3.30     6.463222     20.35128     51.68765         8     0.907     0.700  10.35   0
       208    486.4810    414.5343 300.2064072 +22.6604101     426.3589     72.24445      1.501     2.77     6.696781     20.35128     56.51018         7     0.823     0.649 -78.14   0
       209    690.6432    413.9953 300.2702121 +22.7213674     1108.615     72.15267      1.536     2.97     6.390402     20.35128      112.048        16     1.103     0.935   3.66   0
       210    194.6424    411.9381 300.1163929 +22.5722641     584.1158     72.11592      1.560     3.71     6.457526     20.35128     58.26132        12     1.121     0.875  24.72   0
       211    256.9721    407.5005 300.1372283 +22.5896600     4018.733     72.07915      1.700     3.19     6.295046     20.35128     366.2989        37     1.329     1.283  75.06   0
       212    990.2388    406.5194 300.3661142 +22.8088486     4437.481     72.09754      1.736     3.35     5.826601     20.35128     403.0836        39     1.403     1.318  64.03   0
       213    204.2670    402.2725 300.1225244 +22.5723708     7696.145     72.17104      1.739     3.23       6.4985     20.35128     749.9974        52     1.474     1.375  51.37   0
       214    970.1783    397.5545 300.3627613 +22.8002692     1937.486      72.1894      1.686     3.68     6.049258     20.35128      159.367        24     1.250     1.159  45.08   0
       215    345.0853    396.5934 300.1681955 +22.6129158     4852.332     72.06077      1.587     2.93     6.348009     20.35128     506.4464        39     1.368     1.227  72.34   0
       216    589.3185    393.5005 300.2452778 +22.6851486     18654.85     72.26279      1.533     2.71      6.71517     20.35128     2023.947        53     1.326     1.240  65.05   0
       217    607.2503    393.4377 300.2508871 +22.6904977     882.4303     72.11592      2.174     7.42     6.724024     20.35128     64.27886        18     1.673     0.921 -37.97   0
       218    832.8541    390.3839 300.3222313 +22.7571288     281.7759     72.09754      1.456     3.88     6.474001     20.35128     36.72267         5     0.889     0.486  -0.77   0
       219    446.3620    389.6630 300.2019825 +22.6412499     260.2693      72.1343      1.467     4.94     6.544204     20.35128     30.06903         5     1.330     0.519  47.21   0
       220    786.1085    384.5891 300.3095291 +22.7414765     361.0105     72.07915      1.196     2.58     6.414173     20.35128     53.70191         6     0.766     0.490   4.36   0
       221    208.9842    380.5387 300.1310455 +22.5675404     431.2287     72.07915      1.836     5.98     6.619557     20.35128     35.46187         8     1.481     0.680  56.55   0
       222    922.8116    376.2582 300.3548878 +22.7799743     830.2029     72.07915      1.645     3.70     6.540606     20.35128     89.14895        17     1.160     1.015 -88.01   0
       223    459.4066    374.7765 300.2108769 +22.6408765     390.3202     72.11592      1.781     5.21     6.559664     20.35128     40.37797         8     1.509     0.508  63.25   0
       224    143.9620    373.2669 300.1131765 +22.5459738     2067.017     72.11592      1.805     3.50     6.624133     20.35128     180.9673        30     1.362     1.286 -55.60   0
       225    529.9377    362.8739 300.2367126 +22.6585692     6650.349     72.17104      1.526     2.97     6.696781     20.35128      699.111        37     1.311     1.160  49.04   0
       226    943.5907    363.6794 300.3654560 +22.7825698     1164.686     72.09754      1.572     3.11     6.373088     20.35128     120.8281        18     1.123     1.008   0.32   0
       227    244.8841    362.2621 300.1481475 +22.5730424     630.5964      72.2261      1.494     2.75      6.62737     20.35128     79.21634        10     1.013     0.622 -19.47   0
       228    789.7066    355.4124 300.3201203 +22.7341604     454.8112     72.07915      1.838     4.59     6.447165     20.35128     27.66723         7     1.249     0.480  40.45   0
       229    102.3898    355.4939 300.1060134 +22.5284147     612.5804     72.07915      1.837     4.91     6.673459     20.35128     55.54134         9     1.296     0.527 -55.78   0
       230    734.3232    352.2597 300.3038692 +22.7166834     1264.422      72.1894      1.567     2.86      6.23852     20.35128     113.6025        17     1.091     0.910  16.94   0
       231    643.5329    353.2013 300.2752550 +22.6897868     591.4419     72.11592      1.672     3.98     6.665013     20.35128     48.69814         9     1.071     0.575  28.34   0
       232    436.5694    349.1049 300.2120942 +22.6266604     6099.088     72.06077      1.563     2.87     6.306118     20.35128     623.4926        37     1.305     1.174  66.35   0
       233    925.7819    344.2397 300.3662058 +22.7716498      558.869     72.15267      1.428     4.68     6.571845     20.35128     50.25908        14     1.130     1.029  -0.99   0
       234    828.6804    343.8250 300.3360390 +22.7424862     1515.666     72.11592      1.630     2.95     6.496607     20.35128     150.2776        22     1.149     1.111  42.90   0
       235    421.3622    338.3640 300.2108431 +22.6190203      420.176     72.20776      1.570     3.20     6.173708     20.35128     58.34593         8     0.940     0.599  13.50   0
       236    503.6885    336.1070 300.2372198 +22.6430166     395.3572     72.29947      1.566     4.19     6.707634     20.35128     43.45663         8     1.008     0.642 -31.19   0
       237    782.2577    335.0956 300.3243896 +22.7260875     404.5254     72.20776      1.704     2.58     6.405378     20.35128     47.76604         7     0.821     0.593 -65.38   0
       238    801.5310    331.6297 300.3315264 +22.7308562      572.854     72.11592      1.235     2.62     6.481216     20.35128      72.4356         9     0.905     0.648 -54.66   0
       239    324.1852    328.3146 300.1838454 +22.5870361     2533.571     72.07915      1.550     3.03     6.557037     20.35128      240.206        27     1.225     1.132  50.74   0
       240     42.4052    325.8043 300.0969932 +22.5019164     1087.241     71.98716      1.811     4.38     7.099352     20.35128     102.8448        21     1.465     1.068 -19.97   0
       241    293.4731    317.6472 300.1777460 +22.5747740     30200.48      72.1343      1.657     3.00     6.632151     20.35128      3320.19        74     1.470     1.352  59.21   0
       242    828.3268    315.4898 300.3451230 +22.7342284     1326.003     72.29947      1.570     3.05       6.4999     20.35128     146.0741        22     1.145     1.105  42.65   0
       243    867.1633    304.8902 300.3606798 +22.7427950     368.3211     72.11592      1.950     7.01     6.555726     20.35128     38.32273        10     2.151     0.641 -24.57   0
       244    743.3542    304.4778 300.3221898 +22.7056412     470.7426     72.11592      1.434     4.71     6.244697     20.35128     58.59423         8     1.110     0.638  45.46   0
       245    168.0561    304.1550 300.1430957 +22.5333372     363.3305     72.17104      1.631     3.69     6.916705     20.35128     41.84131         7     0.938     0.592 -76.54   0
       246    392.3125    303.3830 300.2131460 +22.6002683     528.0267     72.06077      1.575     3.52     6.396772     20.35128     58.78979         7     0.966     0.468  -8.89   0
       247    704.0948    297.7151 300.3121407 +22.6919503     1869.614      72.3178      1.499     2.74     6.348665     20.35128     223.9453        24     1.215     1.032 -44.80   0
       248    511.9705    292.3666 300.2539915 +22.6329198     465.6922     72.15267      1.646     4.82     6.721732     20.35128     36.81441         9     0.928     0.710  63.06   0
       249    918.8699    290.6414 300.3814394 +22.7541588     628.4932     72.09754      1.671     2.93     6.574671     20.35128     77.71899        12     1.036     0.763  46.99   0
       250    365.6794    281.9907 300.2117927 +22.5861458     2104.094     72.09754      1.708     3.72      6.73402     20.35128     174.9531        26     1.453     1.093  70.81   0
       251    578.3926    281.2536 300.2782945 +22.6496030     340.1064      72.1343      1.749     5.47     6.732307     20.35128     30.10896         8     1.286     0.657  -4.86   0
       252    804.9769    275.3807 300.3508510 +22.7157041      577.592      72.1343      1.427     3.41     6.521853     20.35128     62.09011        10     0.916     0.777 -28.62   0
       253    687.4155    273.0162 300.3149525 +22.6798555     446.1884     72.09754      1.548     4.30     6.538812     20.35128     44.36105         7     0.958     0.578  37.56   0
       254    441.6931    261.5269 300.2421029 +22.6030181     1205.094     72.26279      1.498     2.56     6.611556     20.35128     141.0252        18     1.106     0.939 -81.98   0
       255    686.5062    253.4440 300.3210179 +22.6739535     2253.871     72.15267      1.528     2.75     6.711515     20.35128     267.9466        21     1.212     0.993  83.37   0
       256    947.8989    247.9945 300.4043352 +22.7505653     3066.092     72.02397      1.641     3.19     6.529217     20.35128     303.3438        33     1.417     1.155 -64.14   0
       257   1009.2112    242.9468 300.4251143 +22.7674439       496.38      72.1343      1.621     3.83     6.295099     20.35128     61.86817         7     0.989     0.689   4.35   0
       258   1017.1031    236.1959 300.4297683 +22.7678599     1672.182     72.04237      1.737     3.26     6.262376     20.35128      150.644        22     1.193     1.065  55.67  16
       259    394.9720    237.2148 300.2354377 +22.5820434     526.4486     72.15267      1.309     3.15     6.780643     20.35128     62.85629         9     0.811     0.724 -27.60   0
       260     68.3428    231.9442 300.1355039 +22.4827255     1823.339     72.20776      3.048     9.94      7.27361     20.35128     427.0991        28     2.717     1.013 -32.58   0
       261    100.3806    231.7738 300.1455226 +22.4922724     623.5256     72.15267      1.453     4.58     7.223365     20.35128     55.65411        12     1.286     0.731   9.59   0
       262    963.7779    228.7552 300.4155327 +22.7497753       409.84      72.1894      1.589     3.71     6.473656     20.35128     59.72432         7     0.964     0.648 -87.23   0
       263    817.9745    229.1806 300.3698921 +22.7062980     339.3017     72.15267      1.805     4.15     6.716519     20.35128     33.44126         5     0.930     0.629 -31.16   0
       264    807.1902    225.3584 300.3677673 +22.7019728     419.1224      72.1343      1.754     3.01     6.746058     20.35128     41.98455         7     0.801     0.626 -33.00   0
       265    153.7523    223.6393 300.1647617 +22.5059194     478.4196     72.17104      1.141     3.40     7.162039     20.35128     58.67348         7     0.945     0.468  -7.46   0
       266    829.4464    217.1137 300.3773849 +22.7062564     260.3557     72.11592      1.220     3.07     6.730855     20.35128     46.41438         5     0.740     0.458  70.68   0
       267    758.0632    215.1476 300.3557545 +22.6843412     556.5885      72.1894      1.325     3.17      6.89937     20.35128     86.05022         9     0.888     0.781  19.28   0
       268    348.6672    213.8362 300.2286015 +22.5614615     400.3749      72.1343      1.677     4.04     6.903019     20.35128     38.16114         6     1.214     0.384  61.09   0
       269    848.8350    208.4691 300.3862380 +22.7095669     287.5156      72.1343      1.508     3.47     6.725496     20.35128     36.29741         5     0.766     0.455 -19.38   0
       270    856.3635    204.0024 300.3900358 +22.7105327     2062.591     72.15267      1.521     3.06     6.726792     20.35128     208.9706        27     1.309     1.094  67.25   0
       271    909.4641    201.9520 300.4072719 +22.7258207     1644.072     72.15267      0.642     0.78     6.687702     20.35128      784.694         6     0.499     0.366  -2.85   0
       272    274.7525    201.0125 300.2097505 +22.5356476     2049.277     72.15267      1.557     2.92     6.959465     20.35128      206.807        28     1.281     1.162  52.41   0
       273    352.5983    196.3514 300.2354955 +22.5576118     1034.329     72.11592      1.563     3.70     6.926919     20.35128     106.2908        18     1.125     1.002  79.97   0
       274    793.9918    195.9832 300.3731768 +22.6895725     194.4678     72.07915      1.277     3.69     6.807505     20.35128      24.4344         5     1.008     0.389 -31.18   0
       275    754.7685    195.9370 300.3609570 +22.6778282     447.9372     72.15267      1.451     3.56     6.923981     20.35128     62.52935        10     1.033     0.732  15.02   0
       276    104.7565    196.3785 300.1583617 +22.4834133     376.0121      72.1894      1.842     4.43     7.297696     20.35128     31.37799         5     0.952     0.586  49.14   0
       277    861.4946    193.1481 300.3951570 +22.7089432       365.44     72.20776      1.420     6.00     6.745709     20.35128     47.37749        11     1.410     0.718  38.17   0
       278    400.0262    193.0255 300.2513424 +22.5708518     153.4424     72.09754      1.149     3.79     6.871342     20.35128     28.11867         5     0.646     0.637  -3.31   0
       279    169.6014    188.5128 300.1810831 +22.5005716     732.3306     72.06077      1.703     4.59     7.385946     20.35128       69.993        12     1.175     0.906  53.09   0
       280    707.5165    185.4294 300.3496281 +22.6606716      1592.06     72.15267      1.498     2.75      6.97008     20.35128     194.6965        20     1.115     1.011  88.36   0
       281    772.2077    185.1591 300.3698916 +22.6799427     554.3242     72.15267      1.655     3.12     6.883383     20.35128      59.9912         8     0.822     0.717  72.07   0
       282    190.6562    181.6727 300.1898516 +22.5049103     380.7552     72.15267      1.336     3.49     7.432587     20.35128      44.6564         9     0.965     0.677 -35.37   0
       283    979.0179    177.9075 300.4367811 +22.7396939     899.2003     72.06077      1.739     3.87     6.587496     20.35128     83.93581        16     1.265     0.972 -68.03   0
       284    480.8996    177.9163 300.2814318 +22.5907107     428.6449     72.29947      1.543     3.05     6.953333     20.35128     43.37641         5     0.623     0.596 -15.44   0
       285    711.2579    176.6580 300.3536391 +22.6592670     724.7805     72.20776      1.645     4.11     6.974829     20.35128     68.16425        14     1.143     0.902  61.72   0
       286    631.9204    176.0990 300.3290840 +22.6353738     1067.165     72.26279      1.468     3.32     6.934589     20.35128     116.7686        18     1.219     0.879  37.15   0
       287    453.1607    172.3300 300.2746022 +22.5808032     408.0636     72.09754      1.517     3.45     6.910926     20.35128     37.20652         5     0.981     0.352 -42.78   0
       288    827.4790    167.7894 300.3927666 +22.6914731     1251.561     72.11592      1.533     2.87     6.810051     20.35128     146.2457        18     1.046     0.996  42.55   0
       289    558.3015    167.7735 300.3088377 +22.6109539     998.7994     72.07915      1.529     3.55     6.888679     20.35128     101.1802        18     1.161     1.046   7.16   0
       290    839.5919    166.9265 300.3968257 +22.6948469     933.8325     72.11592      1.745     3.32     6.807683     20.35128     88.07417        12     1.025     0.824  43.70   0
       291    885.7353    166.2049 300.4114586 +22.7084365     273.7461      72.1343      1.122     4.15     6.787588     20.35128     33.54514         6     0.759     0.647  18.55   0
       292   1000.4724    157.8477 300.4499843 +22.7403319     1770.439     72.11592      1.783     3.46      6.61451     20.35128      144.865        25     1.395     1.046   9.98   0
       293    956.3484    157.2179 300.4364128 +22.7269606     1179.407     72.11592      1.827     3.72      6.71515     20.35128     106.4782        18     1.176     1.062 -67.38   0
       294    190.1297    149.9956 300.1999583 +22.4956486      681.321     72.07915      1.561     4.03     7.581342     20.35128     86.34959        13     1.142     0.947   4.07   0
       295     52.0108    144.3960 300.1588128 +22.4526808     2201.729     71.96874      1.873     3.66     7.392365     20.35128      221.809        30     1.392     1.339  62.77   0
       296    875.5262    142.0840 300.4160937 +22.6984409     805.6885     72.24445      1.625     3.92     6.812769     20.35128     78.67896        15     1.160     0.934  69.45   0
       297      2.1663    141.8394 300.1441441 +22.4370182     388.4442     60.70005      1.398     3.73     7.373737     20.35128     40.77739         8     0.781     0.717  27.47  24
       298    209.4528    137.9073 300.2098897 +22.4979593     5668.978      72.1894      1.691     3.06      7.58556     20.35128     571.2566        43     1.418     1.329  72.66   0
       299    191.4576    139.6108 300.2037382 +22.4930614     344.6725     72.09754      1.654     2.98      7.58344     20.35128     43.65513         5     0.763     0.700  46.19   0
       300    192.8645    128.8963 300.2076494 +22.4904030     492.9196     72.24445      1.386     2.58     7.585762     20.35128      66.2332         8     0.771     0.676 -44.63   0
       301   1008.5274    125.8040 300.4628889 +22.7335133     18373.36     72.07915      1.785     3.60     6.760965     20.35128     1589.985        68     1.608     1.445 -85.71   0
       302    853.6923    119.7575 300.4165188 +22.6854862     3588.042      72.1343      1.666     3.22     6.822446     20.35128     322.2011        35     1.389     1.223 -82.03   0
       303    957.3847    118.7008 300.4492245 +22.7161812     2849.802     72.04237      1.734     3.42     6.810939     20.35128     255.6886        33     1.336     1.259 -73.60   0
       304    155.9628    115.8317 300.2004037 +22.4755998     301.2435      72.1343      1.281     2.63     7.580739     20.35128     55.32443         6     0.858     0.465 -37.09   0
       305    403.1625    114.6551 300.2777285 +22.5492554       529.16      72.1343      1.429     4.14     6.918076     20.35128     65.42021        10     1.070     0.716 -83.61   0
       306    327.1663    106.7917 300.2566140 +22.5242506     614.5696      72.1343      1.675     2.86     7.007522     20.35128     64.89654         9     0.883     0.674  66.55   0
       307    454.4876    102.1619 300.2977641 +22.5610208     1803.382     72.11592      1.615     3.35     6.914562     20.35128     163.1992        22     1.190     1.124  77.18   0
       308     93.5572    103.6954 300.1849264 +22.4534266     614.2065     72.15267      2.026     4.33      7.54623     20.35128     68.80932         9     1.195     0.726  -3.95   0
       309    382.8527    102.3645 300.2753878 +22.5396432     531.3976     72.15267      1.603     3.34     6.945026     20.35128     66.15623         9     1.106     0.766 -78.79   0
       310    516.2294    101.5020 300.3172130 +22.5793040      386.544     72.06077      1.485     3.36     6.904828     20.35128     49.13657         5     0.767     0.426  24.20   0
       311    198.3778     97.2347 300.2196280 +22.4829527     509.0912     72.15267      1.585     3.38     7.591932     20.35128     46.05388         6     0.726     0.635 -38.68   0
       312    889.1478     86.6756 300.4383074 +22.6865627     418.8965      72.1343      1.744     3.12     6.837783     20.35128     37.66017         5     0.749     0.435 -16.38   0
       313   1019.0605     83.2150 300.4799844 +22.7243974     3598.635     72.09754      1.784     3.25     6.915545     20.35128     347.6562        41     1.514     1.383  88.52  16
       314    228.4740     81.6855 300.2340330 +22.4874922     6127.767     72.26279      1.750     3.40     7.458135     20.35128     607.9904        44     1.479     1.305  58.51   0
       315    200.7280     75.7586 300.2273201 +22.4774828     391.7206     72.11592      1.550     4.76     7.509249     20.35128     44.01034         7     0.912     0.804  18.26   0
       316    244.2162     73.6461 300.2415376 +22.4898931     413.1233     72.15267      1.916     3.26     7.320022     20.35128     36.43618         5     0.746     0.442 -17.74   0
       317    474.5624     67.2300 300.3153401 +22.5569797     6415.887     72.17104      1.621     3.05     6.905014     20.35128     682.8087        44     1.399     1.280  74.93   0
       318    360.0974     67.1429 300.2797183 +22.5227049     700.5704      72.2261      1.558     3.35     6.949864     20.35128     70.32978        11     0.998     0.723  -3.18   0
       319    531.0010     61.9493 300.3346358 +22.5723450     274.4416     72.11592      1.382     4.26     6.899937     20.35128     47.78763         6     1.129     0.664  -0.96   0
       320     79.5049     81.3130 300.1878107 +22.4427866     803.9468      72.3178      1.837     4.86     7.579349     20.35128     58.52111        12     1.327     0.696  32.28   0
       321    726.9268     57.9656 300.3970039 +22.6297971     920.4448     72.11592      2.015     5.97     6.858041     20.35128     85.87003        16     1.636     0.869 -72.24   0
       322    668.5991     58.5967 300.3786112 +22.6125363     197.3368     71.91348      1.095     3.84     6.928863     20.35128     36.98651         5     0.962     0.439  75.28   0
       323    819.7418     56.1729 300.4265367 +22.6570323     441.3214      72.1343      1.535     3.62     6.775106     20.35128     53.98831         9     0.982     0.694   1.11   0
       324    167.7134     51.0709 300.2250491 +22.4605030     440.5359     72.24445      1.659     4.93      7.65122     20.35128     42.26587        10     0.980     0.922  40.10   0
       325    526.3865     50.0018 300.3370701 +22.5675275      416.569     71.96874      1.319     4.21     6.899798     20.35128     48.34818         8     0.838     0.727 -39.95   0
       326    603.0370     47.3559 300.3618156 +22.5896937     6338.415     72.20776      1.604     3.01     6.900616     20.35128     681.7443        45     1.402     1.298  79.30   0
       327    377.7333     46.2156 300.2919921 +22.5219639     1555.643     72.11592      1.673     3.49     6.935925     20.35128     151.4523        23     1.331     1.038  39.51   0
       328    644.0029     45.0920 300.3753195 +22.6012943     883.0369     72.04237      1.508     3.34     6.890211     20.35128     93.87112        13     1.100     0.798  16.62   0
       329    659.7408     41.2929 300.3814573 +22.6049076     683.7885     72.20776      1.814     6.24     6.874244     20.35128     48.22732        11     1.390     0.788 -39.71   0
       330    929.9189     39.2432 300.4664063 +22.6850930     606.8261     72.11592      1.691     3.50     6.893249     20.35128     57.02675         9     0.981     0.628 -23.59   0
       331    126.6026     38.9008 300.2162041 +22.4446976      675.392     72.02397      1.671     5.38     7.730131     20.35128     69.74039        11     1.206     0.677 -14.43   0
       332    698.1487     36.8427 300.3948752 +22.6151124     515.8719     72.17104      1.820     5.09     6.804426     20.35128     46.16591         9     1.212     0.665 -13.42   0
       333    647.2309     32.2718 300.3804806 +22.5985704     2781.061      72.1343      1.575     3.03     6.861743     20.35128     299.6093        27     1.281     1.097 -89.12   0
       334    662.5371     31.1838 300.3856052 +22.6028346     1056.159     72.11592      2.217     5.37     6.843023     20.35128     71.61272        21     1.482     1.124  51.98   0
       335    288.2891     33.3639 300.2683097 +22.4915019     385.7148     72.11592      1.497     2.53     7.096692     20.35128     48.67046         6     0.706     0.602 -50.14   0
       336    733.7740     23.9698 300.4101568 +22.6220597      1541.89      72.1343      1.555     3.41     6.662021     20.35128     152.5729        21     1.151     1.031 -73.22   0
       337    811.5716     18.9356 300.4360556 +22.6438699     364.6749      72.1343      1.422     4.17     6.707788     20.35128     31.44436         5     0.771     0.642  11.86   0
       338    276.7664   1013.1181 299.9465815 +22.7694635     448.4899     72.09754      1.614     4.77     19.45418     20.35128     58.33704        14     1.204     1.034  68.81   0
       339    180.5245    987.1238 299.9250948 +22.7331417     4219.934      72.2261      8.915    37.53     67.62766     20.35128     98.46367       348     8.650     4.519 -89.99  19
       340     50.0451     16.6923 300.1995906 +22.4153942     460.8185      72.1343      1.347     4.23     7.557422     20.35128     39.24619         7     0.766     0.666 -13.96   0
       341    218.4992    974.1743 299.9411214 +22.7408163     7247.763     72.07915      7.893    29.14      47.8707     20.35128     150.4302       672     9.377     5.132  62.10  18
       342    763.1654     14.0104 300.4225513 +22.6279805     438.4577     72.11592      1.404     3.49     6.627457     20.35128     47.19201         6     0.992     0.498  10.27   0
       343    113.1460   1007.5652 299.8974880 +22.7187940     1149.208     72.15267      2.759     8.31     90.99839     20.35128       44.517        16     1.634     1.181   1.69   2
       344    211.0433   1001.1138 299.9300373 +22.7463085     973.5172     72.11592      2.411     6.13     72.03017     20.35128      59.1938        15     1.474     0.716  72.07   2
       345    148.0078    976.9249 299.9182986 +22.7204630     2148.131     72.11592      6.758    16.36     63.57365     20.35128     53.41534        74     3.783     1.966  54.47   3
       346    335.9236   1000.2747 299.9691726 +22.7835181     685.5799      72.2261      4.145     5.94     5.113435     20.35128     32.99421         7     1.456     0.681   6.68   0
