#   1 NUMBER                 Running object number                                     
#   2 X_IMAGE                Object position along x                                    [pixel]
#   3 Y_IMAGE                Object position along y                                    [pixel]
#   4 ALPHA_J2000            Right ascension of barycenter (J2000)                      [deg]
#   5 DELTA_J2000            Declination of barycenter (J2000)                          [deg]
#   6 FLUX_APER              Flux vector within fixed circular aperture(s)              [count]
#   7 FLUXERR_APER           RMS error vector for aperture flux(es)                     [count]
#   8 FLUX_RADIUS            Fraction-of-light radii                                    [pixel]
#   9 FWHM_IMAGE             FWHM assuming a gaussian core                              [pixel]
#  10 BACKGROUND             Background at centroid position                            [count]
#  11 THRESHOLD              Detection threshold above background                       [count]
#  12 FLUX_MAX               Peak flux above background                                 [count]
#  13 ISOAREA_IMAGE          Isophotal area above Analysis threshold                    [pixel**2]
#  14 A_IMAGE                Profile RMS along major axis                               [pixel]
#  15 B_IMAGE                Profile RMS along minor axis                               [pixel]
#  16 THETA_IMAGE            Position angle (CCW/x)                                     [deg]
#  17 FLAGS                  Extraction flags                                          
         1     49.0001     17.1444 300.1999674 +22.4152921     578.5533     71.91127      1.994     4.25     7.125882     20.31424     51.27239         9     1.174     0.791 -62.37   0
         2   1022.2941     12.8142 300.5045879 +22.7052588     2048.937     63.19265      1.684     4.29     6.492572     20.31424     182.1211        27     1.466     1.137  82.07  24
         3    719.0624      6.4276 300.4120513 +22.6127541     620.0803     72.00303      1.516     3.69     6.112324     20.31424     72.49259        12     0.982     0.959  -9.94  16
         4    150.7764      5.3793 300.2354252 +22.4423878     3893.205     71.91127      1.866     3.49     6.576792     20.31424     367.6571        42     1.487     1.401  48.90  16
         5    178.9700    987.8436 299.9253372 +22.7330141     4283.198      72.0397      8.339    21.16     66.43436     20.31424     84.64249       267     4.898     4.699 -77.62   3
         6     66.3051   1011.0559 299.8827586 +22.7058653     5010.457     72.05803     15.176    76.98     76.14088     20.31424     163.7941      1838    16.691    10.238  42.04  27
         7    526.0616    993.5761 300.0314990 +22.8387618     2375.656     72.00303      2.203     5.28     4.941216     20.31424     124.9364        37     1.659     1.420   0.80   0
         8    210.3949   1002.0021 299.9305061 +22.7465044     1415.104      71.8194      3.002    12.20     68.35222     20.31424     50.44227        37     2.656     1.560  15.12   1
         9     56.5657    918.1406 299.9099448 +22.6762908     3280.641     72.02137     12.225    47.30     21.77522     20.31424     72.24155       704    10.067     6.167 -41.38  19
        10    613.5469    988.9953 300.0602432 +22.8636743     8216.913     71.98469      2.177     6.24     5.320926     20.31424     413.3428        30     1.560     1.376  53.15   3
        11    618.2662    986.7980 300.0624284 +22.8644580     9942.917     72.00303      2.485    14.12     5.303458     20.31424     504.8905        73     3.249     1.706 -11.31   3
        12    713.7919    989.4978 300.0913221 +22.8938659     523.9485     71.87453      1.811     4.29     5.109764     20.31424     38.96811         7     1.349     0.389 -78.65   2
        13    711.3973    989.0886 300.0907087 +22.8930307     447.7277     71.92963      1.548     4.07     5.109764     20.31424     40.61171         5     1.007     0.470 -84.50   3
        14    150.7937    997.3255 299.9134913 +22.7272802     3091.223     71.94799      6.769    24.94     79.62572     20.31424     70.46967       178     5.175     3.764  84.34  18
        15    147.2543    977.2706 299.9189128 +22.7204649     1916.167      72.0397      5.915    16.43     62.09525     20.31424     53.82504        55     3.121     2.404  69.84   2
        16    905.0491    973.1635 300.1562802 +22.9464822     822.2627     72.00303      2.337     7.37     5.423155     20.31424     44.55907        14     1.528     0.995  27.47   0
        17    477.6452    977.3362 300.0217020 +22.8195823     411.5062     72.02137      1.612     5.26      4.77779     20.31424     49.68605         8     1.285     0.608 -27.72   0
        18    125.9958    960.0798 299.9178929 +22.7091547     1602.277     71.91127      4.702     8.85     48.17456     20.31424      52.1256        19     1.913     1.143 -75.63   3
        19    121.8440    955.5222 299.9180840 +22.7066015     1731.163     71.98469      7.686    11.74     44.99474     20.31424     49.46587        33     2.299     1.669 -56.34   3
        20    335.0020   1000.2793 299.9698344 +22.7833900      723.399     71.91127      3.034     5.05     5.194162     20.31424     50.97371        11     1.203     0.848 -72.44   0
        21    630.9236    955.8300 300.0764440 +22.8593584     6845.044     71.98469      2.111     4.88      5.22037     20.31424     345.3014        54     1.643     1.568  31.92   0
        22    129.6239    953.4944 299.9211623 +22.7083540     918.1813     71.91128      4.705     5.05     42.02863     20.31424     42.26429         7     1.105     0.653 -14.18   1
        23    211.0225    949.9772 299.9476197 +22.7317654     953.0719     72.00303      5.368    11.25     27.81166     20.31424      45.5412        20     2.742     1.286  42.33   1
        24    510.6211    950.9694 300.0405462 +22.8218992     547.3744     72.00303      1.654     3.99      5.09489     20.31424     43.31512         8     1.162     0.488 -24.29   0
        25    539.3193    946.5621 300.0509181 +22.8292373     1526.089     71.96635      1.944     5.55     5.175089     20.31424     94.86613        24     1.346     1.285  32.31   0
        26    197.8096    986.6711 299.9315777 +22.7383300     5131.856     71.98469      8.990    26.68     60.14752     20.31424     95.61093       435     6.451     5.326 -61.04  19
        27    433.3435    942.9047 300.0191045 +22.7964136     963.4364     72.07635      1.949     6.27     5.133554     20.31424     63.90772        21     1.443     1.096  24.09   0
        28    363.9068    940.8057 299.9981714 +22.7749892     6604.701     71.89291      2.102     4.60     5.443081     20.31424     417.7338        52     1.656     1.513  -1.66   0
        29    102.1089    927.3787 299.9210990 +22.6926061     1165.708     71.92963     13.778    15.96     23.66212     20.31424     34.15541        27     3.436     2.060 -70.60   3
        30     98.6448    927.7109 299.9199140 +22.6916621     1078.782     72.02137      3.852     3.11     24.12971     20.31424     36.58859         5     0.779     0.552 -38.14   3
        31    396.2596    928.5312 300.0122331 +22.7811675     460.2569     72.02137      1.908     6.72     5.381111     20.31424     37.83394        12     1.317     0.961 -23.77   0
        32     58.9274    955.1242 299.8986542 +22.6876085     5403.104     72.07635     21.135    99.79     39.84785     20.31424     1163.516      3013    18.686    14.785  -6.13  19
        33     97.0065    919.1475 299.9221889 +22.6887138     1337.468     71.98469     10.362    10.75     22.42206     20.31424     39.46909        22     2.348     1.372  85.01   3
        34     90.0303    918.4062 299.9202611 +22.6864080     1110.113     72.00303     10.648    10.76     22.13623     20.31424     43.30764        18     2.043     1.580 -49.56   3
        35    910.4248    919.8392 300.1752988 +22.9327682     2077.989      72.0397      2.186     5.57      5.56797     20.31424     105.0058        36     1.579     1.481 -38.55   0
        36    560.4041    917.1986 300.0670341 +22.8271257      395.398      71.8194      1.872     6.48     5.225475     20.31424     33.22375         8     1.199     0.983 -72.54   0
        37    217.3220    975.2930 299.9413469 +22.7409192     7566.198      72.1313      7.812    30.74     45.60555     20.31424     160.9518       702    10.159     4.871  61.21  18
        38    699.0015    908.5554 300.1130338 +22.8661824     814.6594     72.00304      2.164     6.05     5.088891     20.31424     45.03669        15     1.264     1.121  44.48   0
        39    734.0039    902.7482 300.1258335 +22.8750027      1103.22     72.00303      2.076     6.35     5.072746     20.31424     68.58926        24     1.357     1.321 -73.66   0
        40    511.2109    903.8051 300.0560656 +22.8085330     343.4084     71.87453      1.814     6.39     5.239822     20.31424     28.80771         7     1.463     0.783  34.01   0
        41    156.0198   1000.5047 299.9140825 +22.7297604     1554.601     71.91128      3.847    11.63     83.20507     20.31424      56.0009        29     3.707     1.017  51.90   3
        42    756.0593    896.5791 300.1347156 +22.8798388     11265.17     71.94799      2.011     4.84     5.193017     20.31424     594.7686        59     1.610     1.537 -19.52   0
        43    947.0757    896.4854 300.1943285 +22.9370337     386.2311     72.11299      1.811     5.92     5.628116     20.31424     29.68212         7     1.192     0.828  78.93   0
        44    802.0175    896.9769 300.1489171 +22.8937226     446.2838     71.98469      1.604     5.16     5.502722     20.31424      36.3243         6     1.384     0.543   5.08   0
        45    185.2978    896.0060 299.9571662 +22.7085614     641.9816     71.89291      4.528     4.70     11.73875     20.31424      31.5878         5     1.254     0.500 -16.20   0
        46     68.2422    887.4713 299.9235446 +22.6709958     580.1584     71.96635      1.903     5.58      14.5148     20.31424     43.95942        10     1.237     0.710  80.53   0
        47    461.3978    885.4060 300.0465343 +22.7883162     476.9701      71.8194      1.888     3.41     5.348267     20.31424     27.54485         5     1.038     0.325 -21.95   0
        48    764.6624    878.6830 300.1432164 +22.8772743     1377.416     72.09467      1.931     4.98     5.269737     20.31424     82.28474        22     1.355     1.115  41.79   0
        49    617.1994    875.2645 300.0983629 +22.8321046     475.9402      72.0397      2.052     6.82     5.084928     20.31424     37.22915         8     1.240     1.051  70.46   0
        50    802.8755    871.9258 300.1573292 +22.8867811     848.3679     72.09467      2.327     7.39     5.599385     20.31424     63.63467        18     1.419     1.200  36.03   0
        51    910.9303    869.7734 300.1917346 +22.9185298      302.592     72.00303      1.728     6.17     5.720784     20.31424     34.26593         7     1.238     0.864 -41.69   0
        52    852.1127    863.6187 300.1753864 +22.8991433     538.7134     71.94799      2.062     3.85     5.713039     20.31424     49.27784         6     1.070     0.604 -82.23   0
        53    702.5639    862.5382 300.1291049 +22.8540295     770.0768     72.02137      2.085     5.51     5.052931     20.31424     52.69202        17     1.308     1.184 -23.37   0
        54    415.0776    858.5871 300.0408303 +22.7667286     4160.943     72.02137      1.926     4.21     5.702447     20.31424     330.4897        39     1.505     1.370  10.42   0
        55    713.9726    859.4111 300.1336779 +22.8565494       728.97     72.00303      2.017     6.68     5.073734     20.31424     55.79264        15     1.256     0.995 -16.35   0
        56    141.3509    844.1768 299.9603468 +22.6805056     738.7455     72.00303      2.103     5.62     8.782383     20.31424     54.41592        10     1.322     0.698  81.39   2
        57    117.5383    841.1699 299.9539198 +22.6724997     1582.793     72.02137      2.044     4.59     8.948936     20.31424     122.5767        27     1.490     1.258  -4.74   0
        58     49.4875    842.0267 299.9324862 +22.6523307     400.6586     71.98469      2.236     4.20     7.367915     20.31424     37.36897         5     0.764     0.657   5.16   0
        59    989.2409    830.6661 300.2288850 +22.9307396     2288.945     71.96635      2.167     5.57     5.615575     20.31424     107.6096        35     1.585     1.481  75.32   0
        60    648.7574    830.0942 300.1228803 +22.8285855     517.1301     72.02137      1.996     6.82     5.225717     20.31424     35.91975        10     1.332     0.979 -84.14   0
        61    943.6064    828.9999 300.2151849 +22.9165953     2140.882      71.8194      2.128     5.27     5.705942     20.31424     126.9454        35     1.611     1.399 -18.84   0
        62    726.9760    823.0381 300.1495547 +22.8499942     653.5742     72.02137      2.048     5.28     5.336379     20.31424      48.8408        14     1.381     1.194  18.04   0
        63    595.1547    816.7856 300.1105025 +22.8086995     4741.776     72.02137      1.828     3.99     5.281089     20.31424     346.6794        41     1.480     1.354 -21.15   0
        64    397.4485    814.1069 300.0497992 +22.7486713     658.9131      72.0397      1.762     3.43     5.768817     20.31424     69.06342        12     1.215     0.856  -2.23   0
        65    145.2560    810.4367 299.9725264 +22.6719941     1332.427     72.00303      2.025     4.39     6.749736     20.31424     114.9347        25     1.431     1.310  27.82   0
        66    615.5773    809.4180 300.1192606 +22.8127029     867.9241     72.00304      1.902     4.78     5.300073     20.31424     52.99868        16     1.330     0.951  12.00   0
        67    165.0836    807.2892 299.9797151 +22.6770377     413.7173     72.11299      1.765     4.76     6.539333     20.31424     47.05188         7     1.016     0.632   8.81   0
        68    987.9250    796.9282 300.2394401 +22.9206453     1065.674     72.05803      1.976     5.83     5.613945     20.31424     65.56615        24     1.393     1.260  24.46   0
        69    771.2131    796.5739 300.1719484 +22.8556414     4122.519     72.00303      1.858     4.27     5.582865     20.31424     262.6997        37     1.490     1.289 -34.75   0
        70    488.2509    789.0303 300.0862217 +22.7686881     600.4306      72.0397      1.676     5.16     5.630842     20.31424     45.67252        13     1.208     1.014  43.81   0
        71    179.3018    790.0458 299.9897403 +22.6763527     515.1017      72.0397      1.954     6.86     6.235309     20.31424     47.80547        10     1.549     0.853  14.12   0
        72    134.3015    786.6536 299.9768485 +22.6618827     963.6505     72.09467      1.877     7.37     6.198344     20.31424     78.05309        19     1.451     1.151  10.60   0
        73    284.2071    778.8662 300.0260071 +22.7046015     53474.04     72.02137      1.907     3.87     6.083636     20.31424       4399.5       100     1.637     1.541   7.37   0
        74    550.0593    782.9967 300.1074341 +22.7854790     522.6503     71.96634      1.706     4.82     5.378249     20.31424     49.98866         9     1.215     0.718  -5.38   0
        75    954.7877    777.5959 300.2353810 +22.9051647     798.1508     71.85616      1.903     7.19     5.674635     20.31424      54.5868        20     1.443     1.068  59.16   0
        76    542.0953    778.0454 300.1065622 +22.7816700     1707.566     72.02137      1.811     3.78     5.395705     20.31424     140.9872        26     1.323     1.209  45.45   0
        77    213.2501    777.5051 300.0043743 +22.6829338     403.7517     72.07635      2.270     2.43     6.219195     20.31424     44.73617         4     0.772     0.329  32.76   2
        78    570.9426    774.0389 300.1168508 +22.7891637     967.5093     72.00303      1.729     4.44     5.360468     20.31424     84.45306        17     1.194     1.086 -52.17   0
        79    582.4448    772.2192 300.1210257 +22.7920876     662.1843      72.0397      1.796     5.11     5.351155     20.31424     53.26556        13     1.199     1.048  39.96   0
        80    687.9508    769.3891 300.1548246 +22.8228861     458.2387     72.02137      1.556     4.39     5.371747     20.31424     43.47329         8     1.127     0.487   1.05   0
        81    725.0726    758.9711 300.1697819 +22.8310129      943.498     72.00303      1.909     5.18     5.385909     20.31424     72.57368        19     1.192     1.173  14.08   0
        82    333.9772    756.1281 300.0488832 +22.7129945     31479.33      72.0397      1.829     3.68     5.831689     20.31424     2591.728        76     1.551     1.457  18.88   0
        83    348.2371    756.6957 300.0531369 +22.7174325     1982.586     72.00303      1.891     3.59     5.788734     20.31424     184.3258        31     1.975     1.235  51.96   2
        84    346.0000    750.9014 300.0543232 +22.7150979     620.4279     71.87453      1.989     5.01     5.779644     20.31424     48.96421         9     1.184     0.599 -85.88   3
        85    857.2959    752.4867 300.2131225 +22.8687518     2870.455      72.1862      1.880     4.11     5.722621     20.31424     193.8618        36     1.475     1.373  50.55   0
        86    615.0298    748.4977 300.1388866 +22.7950357     904.5621     71.94799      1.920     5.05     5.329167     20.31424     58.54031        18     1.280     1.034  25.55   0
        87    451.5607    748.0296 300.0881186 +22.7459149      541.158     71.98469      2.220     7.56     5.685548     20.31424     46.38435        11     1.495     1.070 -39.94   0
        88    216.7889    747.8253 300.0151184 +22.6754748     734.4008     72.00303      1.725     3.34     6.179228     20.31424     80.22719        13     1.018     0.921  45.34   0
        89    509.1752    746.6713 300.1065025 +22.7627917     369.9561     72.00303      1.942     4.66     5.546257     20.31424     25.53811         6     1.332     0.463  -3.76   0
        90    462.3993    743.0811 300.0931015 +22.7477420     906.9662     71.89291      1.747     3.77     5.681582     20.31424     79.07331        15     1.197     0.836  -3.71   0
        91     22.4059    743.0980 299.9562147 +22.6158201     360.5076     71.89291      1.231     3.76     6.037108     20.31424     46.58374         6     0.832     0.489 -86.06   0
        92    862.9996    740.3162 300.2188563 +22.8669611     485.4629     71.87453      1.750     6.79     5.732548     20.31424     45.99542        12     1.396     1.056   5.91   0
        93    364.1740    739.4332 300.0637059 +22.7172527     350.0458     72.02137      1.458     3.36     5.722993     20.31424     34.79351         5     1.134     0.288 -54.97   0
        94    407.9978    737.7596 300.0778918 +22.7299082     414.7257     72.00303      1.437     3.65     5.699378     20.31424     47.16956         9     0.973     0.651  50.09   0
        95    616.5042    737.3650 300.1429631 +22.7922787     331.1407     72.00304      1.569     4.09     5.328294     20.31424     35.08161         6     1.088     0.440 -34.90   0
        96    840.7871    735.4614 300.2135050 +22.8589135     352.6523     71.96635      1.634     5.51      5.69243     20.31424     36.75489         9     1.216     0.704  22.96   0
        97    214.5046    732.1176 300.0195110 +22.6702803     522.7274     72.16791      1.640     4.88     6.163929     20.31424     51.16347        11     1.188     0.792   2.15   0
        98    537.4604    722.7456 300.1230862 +22.7643944     426.4965     72.05803      1.516     5.19     5.519855     20.31424     51.07139         8     1.078     0.706 -47.04   0
        99    506.9867    720.7979 300.1142269 +22.7547031     737.0397     71.83778      1.795     4.37     5.637615     20.31424     59.19871        15     1.092     1.016  15.98   0
       100    923.5851    717.7217 300.2450994 +22.8786062     4597.186     72.02137      1.891     4.09     5.728277     20.31424     282.5302        38     1.461     1.368 -43.58   0
       101    528.9856    718.5101 300.1218223 +22.7606380     1237.025     71.94799      1.598     3.52     5.575022     20.31424     132.2825        23     1.287     1.098 -22.40   0
       102    416.7904    720.1854 300.0863387 +22.7274960     306.9597     71.91127      1.414     3.10     5.645274     20.31424     32.61438         6     0.731     0.580 -43.81   0
       103    448.4606    718.7068 300.0966799 +22.7365631     354.1383     72.09467      1.722     3.35     5.686541     20.31424     39.61629         5     0.782     0.416 -65.53   0
       104    610.8878    713.5229 300.1489590 +22.7837451     427.3046      72.1496      1.749     4.78     5.464653     20.31424      30.3409         7     1.014     0.637 -49.16   0
       105    911.9765    709.0410 300.2442975 +22.8726344     1633.953      72.0397      1.825     4.58     5.724587     20.31424     113.0064        28     1.371     1.330  -9.32   0
       106    275.3446    702.8143 300.0479578 +22.6801079      882.166     71.98469      1.672     3.68     5.956999     20.31424      79.6972        15     1.106     0.943  50.97   0
       107    738.3069    700.3751 300.1929458 +22.8181356     2497.492     71.94799      1.747     3.82     5.442814     20.31424     195.5812        28     1.389     1.142  -4.90   0
       108    943.0936    699.5662 300.2570853 +22.8792263     1762.125     71.96635      1.967     4.23     5.682291     20.31424     109.4609        28     1.399     1.274  15.37   0
       109    123.8310    686.4864 300.0061341 +22.6299912     782.5383     71.98469      1.941     5.61     6.127636     20.31424     59.34593        15     1.431     1.145 -27.50   0
       110    820.2464    686.2805 300.2230760 +22.8386233     545.1476     71.98469      1.942     5.14     5.627983     20.31424     44.10999         9     1.358     0.842  18.93   0
       111    856.8459    677.2786 300.2374162 +22.8469944     148111.8     71.98469      1.795     3.79     5.695747     20.31424     11012.66       150     1.597     1.548 -41.18   0
       112   1003.8945    679.3484 300.2826292 +22.8916131     1179.193     72.07635      1.922     4.75     5.515552     20.31424     70.31836        22     1.349     1.176  77.87   0
       113    619.3862    681.4622 300.1620221 +22.7770779     502.5979     71.96635      1.944     3.24     5.639337     20.31424     37.74258         6     1.006     0.480   8.68   0
       114    709.4452    677.6304 300.1913363 +22.8029534     789.1705      72.0397      1.714     4.26     5.506936     20.31424      68.5213        16     1.192     1.019  -4.85   0
       115    543.1543    665.9363 300.1433138 +22.7497780     1545.741     72.02137      1.555     3.38     5.930542     20.31424      143.349        20     1.154     1.026  14.07   0
       116    724.3406    663.3501 300.2006184 +22.8033098     9485.296     72.05803      1.691     3.40     5.565696     20.31424     882.0045        45     1.361     1.312 -35.79   0
       117    225.7261    658.1111 300.0470405 +22.6523961     4981.741     72.16791      1.793     3.74     6.093623     20.31424     386.0439        42     1.446     1.361  11.12   0
       118    307.9685    656.3759 300.0731928 +22.6765516     1208.793     72.00303      1.636     3.34     5.777365     20.31424     106.8625        19     1.157     1.031  59.00   0
       119    183.9890    654.0179 300.0353874 +22.6387078     238.8905     71.96634      1.414     5.02     6.107846     20.31424     31.11265         7     1.087     0.655 -20.89   0
       120    516.1406    652.1407 300.1393798 +22.7377203     708.1529     72.07635      1.413     3.58     6.033259     20.31424     72.28134        15     1.231     0.765  -2.46   0
       121    507.7512    644.0497 300.1393945 +22.7328819     3233.312      72.0397      1.623     3.38     6.091955     20.31424     288.3313        30     1.260     1.186 -21.41   0
       122    328.8685    642.4226 300.0842285 +22.6788086     2195.469     72.02137      0.693     0.89     5.697769     20.31424     966.5089         8     0.543     0.469 -73.36   0
       123    498.0108    637.6772 300.1384303 +22.7281325     1514.441     72.00303      1.874     3.61     6.135976     20.31424     130.2214        25     1.350     1.158  32.53   0
       124    426.7926    637.7369 300.1162331 +22.7068098      345.795     71.96635      1.587     4.68     5.756495     20.31424     35.33504         7     1.091     0.715 -31.31   0
       125    892.1337    635.9085 300.2618621 +22.8456635     430.6288      72.1496      1.698     5.59     5.793362     20.31424      41.2468         9     1.094     0.803 -45.63   0
       126    161.7583    633.4844 300.0351416 +22.6261470     660.8633     71.96635      1.638     5.84     6.084828     20.31424       63.759        15     1.443     0.953 -35.11   0
       127    175.7445    632.8828 300.0396867 +22.6301675     684.8288     72.05803      1.759     5.04     6.065971     20.31424     57.68765         8     1.180     0.610  10.89   0
       128    945.1660    629.9461 300.2803461 +22.8598244     457.2118     72.02137      1.673     4.97     5.821653     20.31424      48.8598         7     1.035     0.675  11.34   0
       129    422.8310    627.4636 300.1183359 +22.7026712     1855.489     72.02137      1.717     3.65     5.786335     20.31424      159.623        23     1.223     1.156  82.26   0
       130    233.3701    628.9576 300.0588861 +22.6463160     332.9528      72.0397      1.527     3.84     5.962969     20.31424     34.71437         5     0.876     0.482  87.68   0
       131    201.0250    628.9811 300.0488168 +22.6366263     511.5558     72.00303      1.774     5.14     6.019978     20.31424     53.81887        10     1.152     0.887  13.37   0
       132    522.2595    627.9438 300.1491440 +22.7326008     340.6856     72.07635      1.164     3.06     6.209346     20.31424     54.71308         8     0.886     0.618  79.53   0
       133    998.4909    625.2776 300.2985051 +22.8744430     803.7082      72.1496      1.707     4.53     5.805216     20.31424     65.41752        18     1.277     1.041 -33.01   0
       134     76.6404    622.1517 300.0123552 +22.5973718     19786.65      72.0397      1.945     3.90     6.056374     20.31424      1609.63        69     1.626     1.531  20.32   0
       135    507.8288    622.7877 300.1463236 +22.7267958      1027.89     72.00303      1.656     4.15     6.246031     20.31424     93.52808        18     1.226     0.999  -0.74   0
       136    425.2566    619.3400 300.1217291 +22.7010642     250.0834     72.07635      1.475     4.88     5.843891     20.31424      29.7393         6     0.916     0.735   3.52   0
       137    591.5414    610.6611 300.1763402 +22.7483891      147.242     72.05803      1.252     3.44     6.106089     20.31424     30.44527         5     1.057     0.324 -67.89   0
       138    925.8941    609.3114 300.2810336 +22.8481207     1071.406      72.1862      1.819     4.28     5.893044     20.31424     92.62584        20     1.311     1.105   9.93   0
       139     22.7850    606.5379 300.0006844 +22.5767400     1429.689     71.96635      2.152     5.22     6.034976     20.31424     121.4841        30     1.587     1.352 -79.34   0
       140     89.3785    607.4268 300.0210966 +22.5969640     497.9217     71.98469      1.935     4.04     6.043551     20.31424     40.69686         5     0.975     0.479  84.87   0
       141    792.2379    607.3264 300.2399844 +22.8075358     470.3922     71.94799      1.686     4.34     5.748041     20.31424      56.0716         9     1.121     0.629  -6.08   0
       142    471.4976    603.5391 300.1412590 +22.7103796     330.4318     72.07635      1.335     4.49     6.271889     20.31424     47.97203         7     1.252     0.475  82.30   0
       143    865.3299    601.6529 300.2646247 +22.8277878     923.9645     72.00304      2.265     6.44     5.818215     20.31424     59.08293        20     1.689     1.008  20.78   2
       144    427.9467    595.5065 300.1303058 +22.6950228     689.6404     72.05803      1.623     3.28     5.956024     20.31424     77.16976        13     1.013     0.927 -85.79   0
       145    576.0523    594.3593 300.1768077 +22.7390641     435.6918     72.00303      1.462     4.10     6.258378     20.31424     59.02888        11     1.122     0.716 -34.98   0
       146    623.3291    592.8525 300.1920282 +22.7527918     560.3298     71.98469      1.631     4.85     6.022755     20.31424     50.78861         7     0.979     0.681  17.04   0
       147    593.6312    592.4310 300.1829109 +22.7437754     541.6772     72.02137      1.429     3.26     6.178108     20.31424     77.02608        13     1.110     0.821  44.35   0
       148    472.0496    591.7065 300.1452729 +22.7071451     1135.145     72.05803      1.890     3.47      6.28822     20.31424     110.5027        16     1.208     0.841  24.75   0
       149    906.1019    587.4176 300.2819675 +22.8358990     3293.027     71.92963      1.732     3.67     5.828516     20.31424     276.9998        32     1.332     1.236  16.56   0
       150    437.6675    587.0953 300.1360636 +22.6955187     1839.417      72.1496      1.608     3.21     6.050811     20.31424     173.0674        24     1.273     1.013   7.29   0
       151   1003.9921    585.8445 300.3130278 +22.8647458     652.3524     72.02137      1.785     5.35     5.906476     20.31424      47.2879        14     1.159     0.931  11.89   0
       152      1.2370    580.2427 300.0025246 +22.5627300     1551.572     55.54079      1.110     2.91     5.915541     20.31424     395.9785        13     1.275     0.466 -87.48  24
       153    300.9671    573.6318 300.0978824 +22.6506871     9200.358      72.0397      1.656     3.33     5.768782     20.31424     930.8478        46     1.350     1.318  -5.24   0
       154    423.5134    570.7841 300.1369524 +22.6865911     9131.477     71.94799      1.624     3.26     5.996961     20.31424     961.7554        43     1.316     1.237   0.12   0
       155    835.1722    564.9579 300.2671324 +22.8082065     1764.021     72.02137      1.618     3.36     5.776876     20.31424     144.0462        22     1.189     1.097 -38.12   0
       156    919.8768    562.4888 300.2943599 +22.8328519     12479.55      72.1496      1.718     3.44      5.77883     20.31424     1073.411        52     1.435     1.351 -33.52   0
       157    484.1174    560.3686 300.1592059 +22.7017552     11743.93     72.00303      1.565     2.98     6.372684     20.31424     1238.286        49     1.314     1.292  -3.92   0
       158    653.7183    556.6256 300.2132612 +22.7514794      513.738     71.98469      1.551     4.01     5.947501     20.31424     50.67582        10     0.999     0.854  14.37   0
       159    211.5839    555.7195 300.0758878 +22.6187524     1386.081     72.02137      1.641     3.18     5.932921     20.31424     161.0431        21     1.268     1.025  -9.14   0
       160    369.6115    555.3423 300.1251848 +22.6660037     335.9498     71.96635      1.248     3.17     5.827669     20.31424     48.40382         5     0.906     0.442 -12.53   0
       161    458.2441    553.2350 300.1534642 +22.6919540     418.6683     72.05803      1.656     4.50     6.237701     20.31424     40.78095         7     0.902     0.639 -52.13   0
       162    758.6812    548.8860 300.2484954 +22.7806842     866.4432      72.1496      1.640     4.21     5.818682     20.31424     77.30276        15     1.187     0.942  30.04   0
       163    415.7117    548.5516 300.1417410 +22.6778655     4485.002     72.00304      1.622     3.15     6.017571     20.31424     459.3354        37     1.393     1.174  34.20   0
       164    394.0579    546.9583 300.1355167 +22.6709198     1149.902     72.00303      1.499     3.36     5.935297     20.31424     118.6151        17     1.130     0.964 -32.32   0
       165    148.3444    546.1053 300.0593397 +22.5970350     752.4213     72.05803      1.674     4.06     6.036397     20.31424     80.46017        17     1.208     1.019   2.57   0
       166    835.6262    544.2901 300.2739841 +22.8023984     1703.696     71.96635      1.758     3.79     5.774568     20.31424     136.9543        27     1.342     1.185 -17.47   0
       167    532.4348    536.1563 300.1821157 +22.7092705     206159.3     72.05803      1.565     2.96     6.563326     20.31424     21161.14       191     1.565     1.444 -18.46   0
       168    716.1454    541.2833 300.2377016 +22.7657622     834.3188      72.0397      1.559     3.44     5.850162     20.31424     78.70004        14     0.999     0.964  21.64   0
       169    356.2155    542.3624 300.1252286 +22.6582604     317.4015     72.00303      1.449     3.33     5.787215     20.31424     46.68861         6     0.752     0.600 -43.82   0
       170    809.6249    538.5549 300.2677362 +22.7929652     275.3963     72.02137      1.783     4.19     5.773506     20.31424     29.47471         5     1.036     0.483  87.74   0
       171    218.5080    535.9094 300.0844725 +22.6151380     3446.772     72.16791      1.623     3.17     5.907935     20.31424     365.2484        32     1.310     1.208   7.58   0
       172    785.3519    532.9144 300.2619973 +22.7840764     577.7733     71.98469      2.322     5.63     5.786116     20.31424     51.76855        10     1.383     0.645   0.29   0
       173    564.4227    523.1678 300.1962972 +22.7151183     247.3256     72.00303      1.142     3.76     6.524715     20.31424     42.01765         5     1.099     0.497 -27.08   0
       174    423.0681    516.4001 300.1544683 +22.6708307     2906.931     71.94799      1.645     2.98      6.12353     20.31424     270.1188        31     1.267     1.236 -65.97   2
       175    267.5351    518.4124 300.1054049 +22.6248057     444.4701     71.94799      1.644     4.39     5.805169     20.31424     38.18457         9     0.935     0.903  43.27   0
       176    579.0051    514.2402 300.2037384 +22.7169194     354.2385     72.02137      1.699     3.81     6.457104     20.31424     27.75038         5     0.830     0.502  51.26   0
       177    834.8725    512.9147 300.2839344 +22.7931488     456.9725     72.11299      1.951     3.92     5.771283     20.31424     34.50479         6     0.762     0.577  46.87   0
       178    653.5588    511.8147 300.2277584 +22.7385487     201.0123     72.02137      1.254     4.13     6.150598     20.31424     33.26783         5     0.891     0.546 -39.46   0
       179    740.6703    504.8053 300.2571892 +22.7626159     458.0381     71.96635      1.655     5.93     5.790136     20.31424     38.35984        10     1.190     0.832 -55.17   0
       180    819.9758    502.8446 300.2825568 +22.7857932     1705.279      72.0397      1.540     3.22     5.768002     20.31424     149.4898        25     1.206     1.178 -72.44   0
       181    691.1286    500.4306 300.2431641 +22.7465250     2555.072     72.00303      1.532     3.03     6.057832     20.31424     257.6668        25     1.221     1.069  11.83   0
       182    935.3358    498.1464 300.3200717 +22.8189692     555.5135      72.0397      1.716     4.92      5.73291     20.31424     48.17936        10     1.054     0.736   3.92   3
       183    934.3271    493.7402 300.3211871 +22.8173996     825.5121      72.0397      1.887     4.51     5.731966     20.31424     65.56499        17     1.315     1.025  39.63   3
       184    596.8201    496.9813 300.2148913 +22.7172932     467.2002     72.00303      1.574     4.99     6.382446     20.31424     50.61209         7     1.269     0.593 -36.05   0
       185    478.3460    496.2984 300.1782063 +22.6816131     795.9355     72.09467      1.686     3.37     6.336314     20.31424     68.18726        15     1.016     0.966  85.46   0
       186    948.6423    494.6296 300.3253657 +22.8219395     1313.034      72.0397      1.710     3.85     5.726098     20.31424     124.0582        22     1.250     1.169  -5.20   0
       187    820.2336    492.8391 300.2858848 +22.7829926     2283.387      72.0397      1.821     4.19     5.766414     20.31424     207.7297        31     1.698     1.093  70.84   0
       188    573.4280    490.0270 300.2098599 +22.7082886     840.2097     71.96635      2.310     8.15     6.491211     20.31424     62.71075        18     2.036     0.912  86.33   0
       189    359.7381    490.5659 300.1431376 +22.6444336      294.015     72.02137      1.533     5.16      5.85967     20.31424     41.30999         7     1.198     0.629  36.55   0
       190    858.4988    487.9941 300.2993934 +22.7930524     4439.327     71.89291      1.622     3.18     5.773263     20.31424     413.8125        34     1.266     1.257 -15.67   0
       191    596.4764    484.5638 300.2188145 +22.7136204     280.3172     71.96635      1.366     4.02     6.392738     20.31424     42.33722         6     0.924     0.715 -13.01   0
       192    519.3495    483.7953 300.1950354 +22.6903010     444.2114     71.98469      1.572     3.99     6.502784     20.31424     41.75372         7     1.118     0.577 -35.64   0
       193    950.4600    478.6533 300.3311185 +22.8178868     803.0216     72.05803      1.636     4.17     5.706713     20.31424     84.16265        14     1.213     0.877 -30.35   0
       194     90.4141    477.8285 300.0634869 +22.5600621     893.1294     72.02137      1.713     5.35     6.018881     20.31424     68.61976        19     1.316     1.091 -33.13   0
       195    889.8928    476.2455 300.3130007 +22.7990687     189.9583     72.02137      1.201     3.76     5.756494     20.31424     31.15502         5     1.164     0.349  13.08   0
       196    412.0866    489.5652 300.1597590 +22.6598293     447.3967     71.98469      1.471     4.42     6.132191     20.31424     59.92022         8     1.088     0.619 -30.30   0
       197     83.0334    468.0150 300.0643767 +22.5550314     443.3087     71.98469      1.646     4.99     5.987319     20.31424     35.13651         8     0.982     0.717   2.04   0
       198    690.4397    462.3846 300.2552974 +22.7353785     483.7926     72.02137      1.616     5.12     6.175975     20.31424     50.89109         9     1.155     0.681   8.41   0
       199    579.7371    460.5259 300.2214000 +22.7016968      336.277      72.0397      1.421     3.44     6.419472     20.31424     32.51802         5     0.749     0.456  20.10   0
       200    631.8004    458.5041 300.2382796 +22.7167055     771.5217     71.87453      1.517     3.40     6.324725     20.31424     84.25237        13     0.994     0.854 -20.59   0
       201    946.3032    451.5536 300.3386164 +22.8088456     571.6282     72.02137      1.634     3.41     5.687006     20.31424     64.96184         9     1.017     0.628  22.69   0
       202    692.8707    450.6434 300.2598655 +22.7327298     893.6353     71.96635      1.507     3.44      6.16748     20.31424     101.8476        15     1.057     0.910   3.08   0
       203    849.9903    446.7493 300.3101250 +22.7786411     1094.468     72.00303      1.613     3.79     5.777981     20.31424     93.63944        17     1.111     1.025 -28.90   0
       204    834.0751    443.4028 300.3062465 +22.7729152     702.5032     71.91127      1.570     5.03     5.783142     20.31424     60.54041        12     1.090     0.910  70.71   0
       205    814.6498    443.5472 300.3001407 +22.7671428     300.4967      72.0397      1.411     4.53     5.787677     20.31424     42.93963         6     0.989     0.760 -45.65   0
       206    578.5829    441.0724 300.2273532 +22.6957582     3412.435     72.00303      1.521     3.04     6.376703     20.31424     366.7306        29     1.203     1.137  87.21   0
       207    939.3376    440.3814 300.3400683 +22.8035467     463.1855     71.96635      1.694     4.97     5.679227     20.31424     57.54742        10     1.341     0.842  73.25   0
       208    418.5461    428.1042 300.1817150 +22.6441006     365.9255     72.07635      1.306     2.49     6.182693     20.31424     54.73046         6     0.762     0.498 -89.80   0
       209    989.8943    420.5699 300.3622759 +22.8129725     1306.318     71.91127      1.720     3.68     5.655486     20.31424     104.1736        22     1.251     1.113 -11.06   0
       210    861.6756    420.4480 300.3223050 +22.7745716     543.0703     72.00304      1.483     3.63     5.776397     20.31424     50.61796        11     0.947     0.796  23.05   0
       211    948.1555    419.0952 300.3497275 +22.8000601     878.0155     72.02137      1.616     3.91     5.656991     20.31424     83.28102        16     1.168     0.989 -51.15   0
       212    689.1006    415.0486 300.2702405 +22.7213646     1093.341      72.0397      1.544     3.24     6.213966     20.31424     102.3722        18     1.123     0.973 -86.03   0
       213    485.2577    415.8398 300.2064686 +22.6605562     507.8611     71.98469      1.578     2.57     6.303605     20.31424     57.83381         6     0.741     0.538 -25.95   0
       214    193.1273    413.1258 300.1164232 +22.5722616     687.1317     72.05803      1.505     4.30     6.033748     20.31424      70.2795        16     1.200     1.008 -75.36   0
       215    255.4589    408.8358 300.1372061 +22.5897060     3844.497     72.02137      1.645     2.97      5.96309     20.31424     410.4781        34     1.353     1.176  23.98   0
       216     33.3203    411.4161 300.0672869 +22.5238753     306.6606     72.02137      1.277     3.34     5.845811     20.31424     42.93949         5     0.748     0.433  22.77   0
       217    988.7189    407.6422 300.3661038 +22.8089005     4271.424     71.96635      1.716     3.70     5.703145     20.31424     363.1928        37     1.382     1.310 -65.55   0
       218    202.6304    403.4605 300.1225149 +22.5723324     7780.479      72.0397      1.733     3.28     6.036082     20.31424     811.8455        44     1.405     1.311  20.89   0
       219    968.5800    398.5922 300.3627544 +22.8002709     1815.407     71.96635      1.742     4.02     5.733993     20.31424      155.787        28     1.367     1.220  88.91   0
       220    343.5081    397.8441 300.1681729 +22.6129262     4864.259     71.98469      1.556     2.89      6.16749     20.31424     556.8915        31     1.209     1.170  53.74   0
       221    587.7267    394.6521 300.2452641 +22.6851490     18641.73     72.02137      1.535     2.89     6.327058     20.31424     2160.877        52     1.298     1.247  73.11   0
       222    604.9473    394.9577 300.2505309 +22.6903928     755.9626     72.00303      1.785     6.33     6.336537     20.31424     58.48027        16     1.506     0.796 -27.36   0
       223    435.1843    396.6536 300.1970998 +22.6400441     239.3747     71.96635      1.325     3.58     6.244712     20.31424     35.28719         6     0.725     0.651  72.45   0
       224    784.6261    385.1905 300.3097121 +22.7413695     174.3885     72.00303      1.394     3.66     5.935579     20.31424     43.06762         5     1.002     0.385   4.79   0
       225    581.7047    403.2664 300.2405929 +22.6858229     245.9857      72.1313      1.218     3.90     6.323713     20.31424     35.13388         5     0.879     0.495 -44.31   0
       226    921.6620    377.6659 300.3549018 +22.7802114     873.4581      72.0397      1.777     5.03       5.7571     20.31424     69.36793        15     1.214     0.967 -41.42   0
       227    458.4266    376.5680 300.2108535 +22.6412312     341.2954     72.00304      1.445     5.46     6.300596     20.31424     40.67587         8     1.016     0.828  -1.46   0
       228    142.2755    374.5428 300.1131240 +22.5459389     2081.779      72.0397      1.711     3.56     5.988743     20.31424     221.8556        28     1.387     1.147   4.64   0
       229    631.1808    375.5752 300.2649942 +22.6926730     273.5192     72.02137      1.221     3.47     6.203813     20.31424     31.45344         5     0.792     0.439 -20.15   0
       230    941.9758    364.8163 300.3654096 +22.7825913     1158.982     72.00303      1.587     3.36     5.816251     20.31424     116.9916        19     1.204     0.991 -31.09   0
       231    528.3702    364.0556 300.2366974 +22.6585787     6801.282     72.02137      1.501     2.86     6.310932     20.31424     666.4261        36     1.241     1.180  68.73   0
       232    243.3666    363.2580 300.1482294 +22.5729868     640.0887     72.02137      1.720     3.56     6.104075     20.31424     73.43582         9     0.981     0.828 -24.08   0
       233    101.4198    356.6161 300.1062344 +22.5285458     385.0341     71.98469      1.464     3.62     5.967765     20.31424     53.58275         7     0.996     0.557 -64.02   0
       234    642.2069    354.3070 300.2753299 +22.6898572     613.3165     71.91127      1.586     4.17     6.038524     20.31424      54.2686        12     0.992     0.943 -67.56   0
       235    732.7966    353.3995 300.3038636 +22.7167120     1152.425     71.78262      1.602     3.01     5.992226     20.31424     124.3233        16     1.135     0.891 -35.17   0
       236    435.0058    350.2569 300.2120951 +22.6266533     6300.085     71.96635      1.507     2.94     6.313846     20.31424     662.1707        39     1.262     1.216  21.10   0
       237    924.3885    345.0667 300.3663280 +22.7716458     649.5848     71.98469      1.634     5.19       5.8416     20.31424     53.81982        13     1.229     0.883  51.41   0
       238    827.1196    344.6899 300.3361039 +22.7424340     1515.052     72.11299      1.703     3.65     5.982142     20.31424     125.1343        25     1.254     1.236  25.90   0
       239    420.0570    339.1688 300.2110369 +22.6189889     437.9699     72.02137      1.379     2.68     6.305321     20.31424     75.76402         6     0.890     0.423 -49.80   0
       240    502.3415    336.9827 300.2373712 +22.6430007     541.4061     71.94799      1.731     3.71     6.336321     20.31424     51.98296        10     1.006     0.866 -81.05   0
       241    799.7476    332.7237 300.3314480 +22.7308003     561.1403     72.00304      1.494     4.50     6.115428     20.31424       56.256        11     1.110     0.765 -22.54   0
       242    322.5185    329.4659 300.1838203 +22.5869866     2534.213     72.11299      1.574     2.89     6.270811     20.31424     282.8689        29     1.321     1.109  45.85   0
       243     41.1081    326.9385 300.0971095 +22.5019462     1064.501     72.09467      1.688     3.95      6.18705     20.31424     101.3363        19     1.343     1.021 -33.86   0
       244    291.8644    318.7981 300.1777402 +22.5747384     30299.75     72.00303      1.622     3.15     6.291159     20.31424      2961.85        73     1.424     1.362  50.05   0
       245    826.6718    316.7209 300.3450361 +22.7342523      1347.82     72.11299      1.539     3.90     6.166387     20.31424     146.7508        18     1.201     0.944 -25.14   0
       246    782.5193    314.5003 300.3319857 +22.7204016     367.3008      72.1313      1.532     3.18     6.211648     20.31424     44.01363         5     1.109     0.539 -32.59   0
       247    741.8445    305.8438 300.3221096 +22.7057389     480.8675      72.0397      1.402     3.11     6.259758     20.31424     59.09841        10     0.899     0.778  56.16   0
       248    166.2789    305.5511 300.1429656 +22.5333093      367.596     72.00304      1.309     3.61     6.257654     20.31424     46.54936         7     0.934     0.494   3.89   0
       249    390.6317    304.3380 300.2131720 +22.6001636     547.2922     72.02137      1.505     3.24     6.285576     20.31424     63.79443         7     0.847     0.623 -15.24   0
       250    702.5458    298.8233 300.3121340 +22.6919582     2012.233     72.02137      1.624     3.09     6.122189     20.31424     196.9174        26     1.230     1.174  81.45   0
       251    917.5502    291.8196 300.3814645 +22.7542753      731.079     71.98469      1.740     4.75     6.054983     20.31424     64.56366        15     1.161     1.034   7.73   0
       252    364.0480    283.2392 300.2117382 +22.5861369      2099.44      72.0397      1.686     3.31     6.281313     20.31424     202.4075        27     1.431     1.069  56.28   0
       253    576.5261    282.4073 300.2781815 +22.6495164     145.5184     71.94799      1.103     3.17     6.342026     20.31424     40.72439         5     0.909     0.514 -45.89   0
       254    803.3343    276.4695 300.3508111 +22.7156870     496.2574     72.05803      1.382     3.35     6.350634     20.31424     66.12297        12     1.027     0.909 -58.24   0
       255    685.5394    274.0345 300.3148711 +22.6797371     452.2217     72.02137      1.517     5.11      6.11538     20.31424     45.11553        10     1.100     0.793 -64.53   0
       256    653.6976    273.0640 300.3052605 +22.6699281     230.0455     72.11299      1.307     5.14     6.151718     20.31424     31.75692         7     1.016     0.734 -13.17   0
       257    440.0821    262.7609 300.2420513 +22.6030175     1202.431     71.96635      1.434     2.78     6.368271     20.31424     135.8708        18     1.151     0.912  -0.37   0
       258    951.6037    259.3241 300.4026293 +22.7551080     352.9182     71.91128      1.403     4.02     6.112904     20.31424       59.798         6     0.937     0.655 -25.62   0
       259    684.9520    254.7368 300.3209455 +22.6740096     2253.298     72.02137      1.519     2.85     6.159213     20.31424     245.3952        24     1.195     1.041 -79.48   0
       260    946.2943    249.1869 300.4042594 +22.7506018     3122.284     71.92963      1.696     3.30     6.155134     20.31424     318.0488        32     1.385     1.202 -55.49   0
       261   1015.7191    237.2515 300.4297990 +22.7679290     1606.477     72.02137      1.725     3.49     6.089498     20.31424     156.9307        25     1.310     1.157 -73.02  16
       262    392.8391    238.8055 300.2351085 +22.5819838     663.7933     72.02137      1.552     3.61     6.387639     20.31424     70.63118        11     1.122     0.682  14.62   0
       263     99.1006    232.6865 300.1457000 +22.4922454     697.8039     72.16791      1.979     3.30      7.03673     20.31424     67.93426         9     0.989     0.733 -40.88   0
       264     67.1741    232.6903 300.1357724 +22.4826810      1790.78     71.92963      2.320     8.83     7.104274     20.31424      423.176        28     1.982     1.098 -25.53   0
       265    961.7749    230.1595 300.4152602 +22.7497544     550.0884      72.0397      1.794     2.80      6.19658     20.31424     64.67161         7     0.985     0.461  25.96   0
       266    342.4099    227.2513 300.2231558 +22.5635612      7207.75     72.02137      1.000     4.79     6.420417     20.31424     2451.941        20     1.277     0.509  33.43   0
       267    805.6903    226.6214 300.3677090 +22.7020468     388.5513     71.92963      1.542     3.10     6.350663     20.31424     43.84061         5     0.722     0.460  16.05   0
       268    152.6673    224.7598 300.1649275 +22.5060153      467.799     71.96635      1.590     3.23     6.959509     20.31424     61.70518         6     0.851     0.775  27.49   0
       269    947.3178    222.5172 300.4132260 +22.7432304     372.4037      72.1313      1.453     3.74     6.243514     20.31424     37.62984         6     0.973     0.413 -18.59   0
       270    828.4161    219.2080 300.3772009 +22.7067119     370.2396     71.92963      1.607     3.74     6.351762     20.31424     44.57299         6     0.898     0.711  62.99   0
       271    756.7883    216.3954 300.3557737 +22.6844731     662.0857     71.87453      1.349     2.50     6.340391     20.31424     90.56691        10     0.920     0.712  27.24   0
       272     23.3213    215.8335 300.1276047 +22.4646983     3861.405     71.98469      0.668     1.28     7.263198     20.31424     1779.999         9     0.628     0.398  17.91   0
       273    347.1655    215.6135 300.2284088 +22.5616393      348.533     71.98469      1.422     3.42      6.41014     20.31424     33.85954         5     0.749     0.452 -17.57   0
       274    847.8002    209.1690 300.3865022 +22.7096212     378.2343     71.96634      1.576     4.56     6.355367     20.31424     32.97936         8     0.857     0.689  45.27   0
       275    854.7422    205.3636 300.3899014 +22.7106025     2158.672     72.00304      1.597     3.06     6.357345     20.31424     242.5299        23     1.198     1.077  69.46   0
       276    273.2199    202.1582 300.2097570 +22.5356271     2214.218      72.0397      1.683     3.16     6.514877     20.31424     237.0727        28     1.319     1.150  80.80   0
       277    351.0707    197.3729 300.2355374 +22.5575642     1095.955     71.98469      1.649     3.40     6.378813     20.31424     106.2053        21     1.150     1.100 -23.20   0
       278    752.8765    196.9569 300.3608556 +22.6777089     596.2808     71.98469      1.479     3.51     6.343319     20.31424     60.23168        11     0.916     0.844 -54.42   0
       279    860.2711    194.5107 300.3951446 +22.7091324     303.6161     72.16791      1.395     6.08      6.36144     20.31424     33.37671        12     1.275     0.815  14.11   0
       280    168.1081    189.5240 300.1811517 +22.5005138     753.4388      72.1496      1.496     3.49     6.927921     20.31424     77.25386        11     1.109     0.740 -20.73   0
       281    705.8027    186.6599 300.3495162 +22.6606613     1743.144     71.98469      1.536     2.86     6.304613     20.31424     208.9717        25     1.169     1.138  28.56   0
       282    770.6304    186.1647 300.3698903 +22.6799146     529.9454     72.02137      1.395     3.28     6.347457     20.31424     64.80952        10     0.934     0.805 -76.54   0
       283    189.7261    182.8222 300.1900482 +22.5050627     581.3793     72.02137      1.819     4.53      6.81389     20.31424     66.06029        11     1.231     0.836 -58.05   0
       284    977.2256    179.2125 300.4365992 +22.7397069     877.4064     72.00303      1.627     4.00     6.216091     20.31424     85.68719        17     1.177     1.085  74.81   0
       285    709.8314    178.2572 300.3534960 +22.6594488     767.9871     72.02137      1.646     3.16     6.316056     20.31424     77.24142        12     0.979     0.870  24.04   0
       286    479.2571    179.0215 300.2813989 +22.5906641     266.9595     72.02137      1.374     3.18     6.269968     20.31424     47.24058         7     0.843     0.694  24.80   0
       287    630.4569    177.2132 300.3290923 +22.6353974     1336.152     71.98469      1.559     3.03     6.290473     20.31424     141.2387        21     1.228     0.989 -59.16   0
       288    451.4235    173.8735 300.2743991 +22.5808515       382.92      72.0397      1.389     2.94     6.293215     20.31424     46.96303         7     0.839     0.599 -14.96   0
       289    825.9302    168.9519 300.3927171 +22.6915033     1517.952     71.98469      1.593     3.31     6.359039     20.31424      130.937        23     1.185     1.116 -63.99   0
       290    556.7236    169.1647 300.3087251 +22.6110158     1043.215     71.96635      1.535     3.20     6.233186     20.31424     102.7671        16     1.040     0.983 -80.74   0
       291    837.7805    167.9755 300.3967300 +22.6947669     960.7191     72.02137      1.687     3.99     6.363292     20.31424     94.16571        16     1.271     0.936  84.18   0
       292    998.8495    158.9831 300.4499062 +22.7403481     1666.098      72.0397      1.686     3.44     6.183977     20.31424     139.3071        24     1.324     1.099 -60.29   0
       293    954.5703    158.5385 300.4362295 +22.7269794     1180.572     72.02137      1.528     3.28     6.288995     20.31424     132.6182        20     1.282     0.976  23.15   0
       294    188.5090    150.6790 300.2000873 +22.4954589     794.5054      72.1496      1.634     4.30      6.84846     20.31424     78.08191        14     1.233     0.904 -79.54   0
       295     50.5553    145.4645 300.1588780 +22.4526382     2274.961     72.02137      1.880     3.74     7.230558     20.31424     236.4256        31     1.493     1.229  74.51   0
       296    873.4876    143.3047 300.4158656 +22.6983449     735.9553      72.1862      1.408     3.27     6.372154     20.31424     74.88512        11     1.016     0.696  16.42   0
       297    207.9055    139.0113 300.2099022 +22.4979139     5572.848     71.94799      1.674     3.16     6.745423     20.31424     509.0168        41     1.382     1.322  82.21   0
       298   1006.9289    127.0153 300.4627892 +22.7335581     18390.56     72.00303      1.788     3.48     6.364676     20.31424     1799.698        64     1.564     1.427 -78.60   0
       299    191.2651    129.9668 300.2076567 +22.4903304     606.0615     72.00303      1.592     3.76     6.801962     20.31424     71.67079        10     0.967     0.774 -63.89   0
       300    852.0801    120.9137 300.4164436 +22.6854962     3485.533      72.1679      1.638     3.24       6.3733     20.31424     366.7086        32     1.366     1.200 -61.63   0
       301    955.6893    119.9281 300.4490924 +22.7161965     2816.285     72.16791      1.738     3.29     6.370896     20.31424      280.684        30     1.305     1.215 -42.46   0
       302    401.6615    116.1981 300.2775958 +22.5493674     697.7802     71.96635      1.573     3.77     6.464755     20.31424     69.64361        10     1.068     0.696 -29.81   0
       303    327.4988    107.3706 300.2573692 +22.5246267     863.1297     71.92963      2.468     6.51     6.520597     20.31424     85.09882        15     2.284     0.521 -20.04   0
       304     91.7899    104.9941 300.1848120 +22.4533590     626.5614     71.85616      1.832     4.82     7.048192     20.31424     55.01643        12     1.290     0.706  10.13   0
       305    452.9326    103.3020 300.2977397 +22.5610050     1834.756     72.09467      1.543     2.90     6.173286     20.31424      207.787        23     1.174     1.095 -38.89   0
       306    380.9741    104.0765 300.2750828 +22.5396883     408.0093     72.02137      1.343     3.13     6.502944     20.31424     61.93371         9     1.029     0.609 -17.80   0
       307    514.6954    102.6867 300.3171760 +22.5793131     438.4142      72.1862      1.713     4.42     6.061567     20.31424     50.13339         6     0.898     0.705   7.76   0
       308    196.6195     98.7576 300.2194351 +22.4829619     605.7052     72.02137      1.678     3.54     6.726895     20.31424     68.05122        10     1.181     0.682 -23.94   0
       309    887.2706     87.3464 300.4383000 +22.6863558     392.9403     72.02137      1.560     5.90     6.400465     20.31424     38.16068         8     1.216     0.866  63.78   0
       310   1017.2368     84.4168 300.4798114 +22.7243715         3712     72.00304      1.863     3.41     6.565185     20.31424     329.3519        44     1.825     1.378 -31.52  16
       311    226.8694     82.8406 300.2340028 +22.4874439     5871.222     71.98469      1.699     3.35     6.456522     20.31424     520.6913        44     1.481     1.309  65.69   0
       312     78.0417     82.5015 300.1878249 +22.4427762     774.9066     71.98469      2.219     5.51     7.045604     20.31424      57.1886        11     1.393     0.735 -13.42   0
       313    856.0639     81.0412 300.4306069 +22.6752082     288.2448     71.96634      1.298     3.68     6.435467     20.31424     29.97031         5     0.991     0.394  29.48   0
       314    198.7690     77.1573 300.2271021 +22.4773955      304.915      72.0397      1.511     4.73     6.543037     20.31424     33.97184         6     0.919     0.690 -19.86   0
       315    733.5026     84.0885 300.3913944 +22.6394286     346.2492      72.1862      1.412     4.77     6.328815     20.31424     44.79422         7     0.999     0.646 -40.23   0
       316    473.0413     68.4089 300.3153079 +22.5569859     6337.477     72.00303      1.560     2.90     5.927736     20.31424     711.2328        41     1.341     1.224 -80.66   0
       317    358.6109     68.2616 300.2797250 +22.5226933     637.4097     71.94799      1.473     3.56     6.234621     20.31424     79.14193        11     1.024     0.708 -19.35   0
       318    530.2040     63.0111 300.3348623 +22.5725392     266.4263     71.83778      1.477     3.76      6.19971     20.31424     33.27052         5     0.813     0.500 -37.83   0
       319    725.5364     58.7151 300.3971315 +22.6297421      814.055     72.09467      1.536     2.79     6.246055     20.31424     85.72356        10     0.959     0.636   1.01   0
       320    818.2332     57.3035 300.4264969 +22.6570603     377.0141     72.00303      1.301     2.99     6.525914     20.31424     58.50009         8     0.862     0.685  -8.98   0
       321    166.2536     52.0605 300.2251184 +22.4604435     477.6049     72.05803      1.656     4.83     6.645714     20.31424     44.07076         7     1.055     0.627 -66.18   0
       322    601.4601     48.5709 300.3617423 +22.5897048     6269.866     72.02137      1.636     3.11     6.344717     20.31424     658.2466        42     1.383     1.258  86.42   0
       323    524.3019     51.1194 300.3368762 +22.5673516     378.9993      72.1313      1.295     5.09     6.186373     20.31424     51.88951         8     1.058     0.693 -20.42   0
       324    376.3835     47.2450 300.2920663 +22.5219683     1491.205     72.02137      1.659     3.31     6.024186     20.31424     166.8671        23     1.195     1.153 -40.00   0
       325    642.6860     46.1872 300.3753627 +22.6013525     987.5203     71.94799      1.791     4.41     6.263686     20.31424     99.88811        16     1.219     1.088  21.01   0
       326    658.6301     42.1715 300.3816332 +22.6049664     681.9112     72.00303      1.842     3.58     6.221972     20.31424     64.99278        12     1.197     0.713  -5.76   0
       327    967.5921     39.7528 300.4787856 +22.6966660     362.8069     72.02137      1.677     3.47     6.508874     20.31424     42.09862         6     0.871     0.667   5.21   0
       328    928.3306     40.0670 300.4664306 +22.6850185     525.2825     72.05803      1.573     2.92     6.499324     20.31424     54.22189         9     0.950     0.616  35.78   0
       329    125.7600     39.7332 300.2165177 +22.4447735     662.2342     71.96635      1.646     4.79     6.766391     20.31424     72.59042        10     1.391     0.591 -53.99   0
       330    697.2516     37.8338 300.3950779 +22.6152710     424.0993     72.02137      1.367     2.18     6.184363     20.31424     54.26278         6     0.725     0.524 -32.57   0
       331    645.7363     33.5188 300.3804173 +22.5986189      2810.23     72.11299      1.652     2.93     6.266141     20.31424     315.0058        29     1.272     1.161 -75.50   0
       332    660.8277     32.1930 300.3855507 +22.6027518     912.5108     72.00303      2.048     4.85     6.216953     20.31424     76.37907        16     1.389     1.048  62.24   0
       333    286.4291     34.2692 300.2682704 +22.4913091     432.4252     71.98469      1.475     4.25     5.848469     20.31424     51.47507         6     0.741     0.694 -19.89   0
       334    732.0793     25.2150 300.4100242 +22.6220557     1638.174     72.02137      1.642     3.06     6.153565     20.31424     174.6747        25     1.295     1.127  42.20   0
       335    892.4489     24.3424 300.4603279 +22.6697619     157.1867     72.05803      1.436     3.78     6.603376     20.31424     41.24177         5     0.933     0.497  88.44   0
       336    670.4522     18.4065 300.3930167 +22.6016626     556.4483     72.00304      1.383     3.56       6.1807     20.31424      84.7726        11     0.923     0.899 -58.18   0
       337    475.8599     17.6268 300.3326365 +22.5432193     1129.777     72.00303      1.685     3.16     5.872152     20.31424     129.4053        15     1.063     0.922 -29.82   0
       338    274.9995   1014.0587 299.9466820 +22.7693454     506.0123     71.96634      1.600     5.40     19.81777     20.31424      68.7285        18     1.496     1.261  17.34  16
       339    379.4645     15.8030 300.3032105 +22.5138463     831.5466     72.00303      1.535     3.31     5.713543     20.31424     100.0877        16     1.220     0.865  -4.27   0
       340    761.9163     14.6739 300.4227426 +22.6279447     389.7067     72.09467      1.563     3.49     6.340989     20.31424     42.33418         6     0.815     0.632  32.87   0
       341    111.1372   1009.6688 299.8971466 +22.7189214     1780.103     72.05803      3.654    14.13     90.13493     20.31424      55.4752        54     2.949     1.883 -33.13  16
       342    181.5256   1005.1584 299.9205007 +22.7387483      2200.72     71.98469      3.829    28.12     79.91414     20.31424     67.40292       163     5.103     4.301 -24.36  19
