#   1 NUMBER                 Running object number                                     
#   2 X_IMAGE                Object position along x                                    [pixel]
#   3 Y_IMAGE                Object position along y                                    [pixel]
#   4 ALPHA_J2000            Right ascension of barycenter (J2000)                      [deg]
#   5 DELTA_J2000            Declination of barycenter (J2000)                          [deg]
#   6 FLUX_APER              Flux vector within fixed circular aperture(s)              [count]
#   7 FLUXERR_APER           RMS error vector for aperture flux(es)                     [count]
#   8 FLUX_RADIUS            Fraction-of-light radii                                    [pixel]
#   9 FWHM_IMAGE             FWHM assuming a gaussian core                              [pixel]
#  10 BACKGROUND             Background at centroid position                            [count]
#  11 THRESHOLD              Detection threshold above background                       [count]
#  12 FLUX_MAX               Peak flux above background                                 [count]
#  13 ISOAREA_IMAGE          Isophotal area above Analysis threshold                    [pixel**2]
#  14 A_IMAGE                Profile RMS along major axis                               [pixel]
#  15 B_IMAGE                Profile RMS along minor axis                               [pixel]
#  16 THETA_IMAGE            Position angle (CCW/x)                                     [deg]
#  17 FLAGS                  Extraction flags                                          
         1    568.2800     18.9494 300.3422585 +22.5346677     477.4731     72.57037      1.341     2.95      4.46804     20.47431     70.31956         8     0.918     0.618 -24.36   0
         2    810.7878     13.3481 300.4195985 +22.6056524     841.3395     72.60734      1.325     3.01     4.757725     20.47431      98.1461        14     1.045     0.818 -13.94   0
         3    518.1761     11.7345 300.3290019 +22.5175908     409.4083     72.55189      1.503     4.25     4.499219     20.47431     44.31245         9     1.046     0.810  49.32   0
         4    430.8800      7.0923 300.3033442 +22.4901134     149.3474      72.6812      1.067     3.35     4.496548     20.47431     36.18316         6     0.759     0.562 -51.47   0
         5    395.4914      2.6334 300.2937808 +22.4782329     384.8584     63.41618      1.526     3.94     4.473231     20.47431     48.18726         6     0.925     0.481   2.44  16
         6    805.8722   1020.3655 300.0910939 +22.8934749     692.0626     71.05735      1.950     6.47     3.066847     20.47431     39.78844        16     1.336     1.075  15.95  16
         7    619.3705   1023.4074 300.0320256 +22.8384031     1143.859     57.93325      1.420     3.92     3.048961     20.47431      171.236        16     1.325     0.704   1.32  24
         8    247.9738   1021.3572 299.9171777 +22.7263456     2557.387     67.79192      9.606    33.60     52.44751     20.47431     71.13258       184     8.123     3.858 -40.35  27
         9    293.2510   1018.2940 299.9322467 +22.7390613     7133.102     72.64428      9.035    42.45     31.43541     20.47431     638.5441       552     9.757     5.125  32.48  27
        10    272.0654   1019.6829 299.9252099 +22.7330989     6009.624      72.5149      7.900    21.80      41.3182     20.47431     111.6999       305     5.521     4.845  44.01  27
        11    310.7005   1008.0676 299.9409978 +22.7413685     9443.369     72.66274     10.508    32.02     21.63804     20.47431      186.318       886    11.806     5.345  58.83  19
        12    149.6969    949.0146 299.9101745 +22.6761050     3648.915     72.47789     23.551    54.77     15.65184     20.47431     87.69225       898    11.165     7.456 -24.65   3
        13     27.7523    992.7132 299.8580900 +22.6520048     294.0758     72.55189      1.164     3.94     4.197542     20.47431     46.15073         7     1.027     0.530 -64.17   0
        14    200.3651    990.5616 299.9124021 +22.7032252     1200.278     72.64428      5.693     7.92     46.26356     20.47431     38.07031        15     1.574     1.113  31.87   0
        15    724.0866    986.8603 300.0765202 +22.8593318     6802.484     72.66274      1.878     3.96     3.126108     20.47431     407.0549        47     1.481     1.422  23.25   0
        16    134.0580    992.2307 299.8912598 +22.6837931     4300.937     72.58886      9.943    27.91     28.81596     20.47431     87.17112       233     5.190     4.305 -33.89  19
        17    145.7506   1017.4804 299.8866778 +22.6945394      3268.13     72.60734     17.093    54.35     49.60778     20.47431     91.34999       715    16.527     4.959  23.44  27
        18    632.4922    977.4307 300.0510684 +22.8291516      1486.74      72.5149      1.796     4.83     3.025725     20.47431     105.4963        24     1.353     1.209  42.73   0
        19    810.1979    974.9722 300.1072103 +22.8817461     286.9317      72.5149      1.832     6.07     3.236499     20.47431      29.0628         7     1.307     0.794 -44.13   0
        20    526.2667    973.8965 300.0191574 +22.7962680     1108.071      72.6812      1.825     4.25     2.974116     20.47431     84.97949        19     1.189     1.092   2.34   0
        21    456.9617    972.1280 299.9981711 +22.7749644     6612.125     72.53339      1.834     3.72     2.973109     20.47431     521.2737        46     1.491     1.366 -28.31   0
        22    109.7040   1022.7443 299.8737689 +22.6852222     700.9226     61.63549      6.118     7.64     17.14391     20.47431      36.6329        12     1.390     1.176  -9.88  27
        23     54.5046   1005.5865 299.8622087 +22.6637280      792.124      72.4964      4.164     4.57     4.312373     20.47431     62.91765        13     1.353     0.825  43.19   0
        24    490.2426    959.0297 300.0127851 +22.7811951     550.4625     72.60734      1.878     6.05     2.923362     20.47431     36.32241        11     1.327     0.775  87.74   2
        25      3.2998    955.8608 299.8624852 +22.6341029     1580.311     66.43274      1.912     4.36     3.639273     20.47431     120.0548        25     1.407     1.285  71.65  24
        26    348.7712    954.9699 299.9701060 +22.7375747     166.4826     72.57037      1.314     3.82     4.875838     20.47431     28.14457         5     0.832     0.504  30.95   0
        27   1003.0594    950.7495 300.1752012 +22.9326151      2120.31     72.62581      2.098     5.07     3.448244     20.47431     112.4389        35     1.644     1.379  73.12   0
        28    190.7091    951.4378 299.9221278 +22.6891133     916.7607     72.55189      6.172     7.10     21.78941     20.47431     35.95914        11     1.601     0.883  61.38   1
        29    185.2354    950.1633 299.9208416 +22.6871046     1080.865     72.64428     10.820    10.14     20.68904     20.47431     36.79782        19     2.092     1.370 -87.57   1
        30    652.6014    948.0408 300.0668891 +22.8267524     439.4602     72.57037      2.078     4.23     3.011076     20.47431     30.42532         5     0.809     0.631  -5.52   0
        31    685.8372    944.9810 300.0782325 +22.8358434      377.459     72.57037      1.704     5.66     3.038171     20.47431     36.81939         8     1.168     0.771  51.50   0
        32    792.0579    939.4552 300.1131125 +22.8661136     842.0126     72.62581      1.993     5.27     3.324412     20.47431      57.4134        18     1.245     1.144  58.06   0
        33    826.9439    933.8928 300.1257905 +22.8749779      966.302     72.62581      1.736     4.31     3.390558     20.47431     73.13286        20     1.295     1.061 -87.95   0
        34    150.5806    982.9049 299.8994258 +22.6860823      4831.71     72.47789     23.733    67.89     35.05166     20.47431     98.78329      2259    16.068    13.187  34.27  27
        35    216.2869    988.6098 299.9179842 +22.7074464     1486.135      72.4964      4.062    11.35     45.19709     20.47431     43.88298        29     2.272     1.581 -55.49   2
        36    999.0092   1003.5135 300.1567724 +22.9465492     669.3251      72.4964      2.112     6.85      3.16684     20.47431     39.41118        13     1.246     1.077  24.73   0
        37    895.0303    927.7686 300.1489995 +22.8936336     605.8627     72.57037      1.969     6.56     3.425991     20.47431     40.77398        15     1.210     0.997  75.09   0
        38     36.8954    930.6984 299.8810988 +22.6369835     654.1773     72.75499      1.797     5.25      3.51564     20.47431     58.34266        10     1.257     0.702  58.30   0
        39    160.0709    919.0215 299.9231516 +22.6706238     1300.798     72.58886      7.530     7.64     4.549181     20.47431     52.02189        28     1.597     1.483  10.53   0
        40    900.8323    915.6682 300.1547435 +22.8918994     281.8533     72.57037      1.492     4.76      3.41967     20.47431     26.00321         6     0.959     0.671  76.66   0
        41    554.3303    915.8812 300.0467603 +22.7880473     495.1152      72.6812      1.939     5.41     3.015121     20.47431     39.84644         8     1.179     0.700  20.53   0
        42    857.7520    909.8142 300.1432217 +22.8773036     1437.496     72.58886      1.909     4.38     3.420915     20.47431     80.50098        24     1.265     1.198   9.87   0
        43    151.6461    910.5434 299.9232914 +22.6656645     791.6729     72.60734      3.415     4.46     4.360898     20.47431     45.25901         7     1.016     0.556  60.38   0
        44    849.1447    927.6315 300.1347446 +22.8798373     11333.74     72.58886      1.829     3.89     3.417963     20.47431     677.1032        59     1.477     1.470  -7.48   0
        45    709.7052    906.6221 300.0981410 +22.8319952       657.66      72.4779      1.953     4.08     3.143558     20.47431     48.86178        10     0.980     0.890 -22.16   0
        46    895.4890    903.1158 300.1571606 +22.8866941     981.4313     72.69965      2.019     5.45     3.412822     20.47431     60.53265        19     1.314     1.131  43.62   0
        47    235.3251    902.9111 299.9517730 +22.6885979     516.5336      72.7181      3.080     5.38     8.352708     20.47431     38.64877         7     1.677     0.487  47.50   0
        48   1002.8195    900.6042 300.1914368 +22.9181450     242.7961     72.53339      1.278     3.62     3.570564     20.47431     37.98699         5     1.001     0.377 -85.21   0
        49    944.4658    894.9913 300.1750690 +22.8990430     459.7871     72.53339      1.539     4.90     3.441537     20.47431     30.57233         7     1.319     0.515 -25.81   0
        50    227.1174    893.1780 299.9523873 +22.6833439     1614.645     72.53339      0.562     3.65     7.593328     20.47431     798.8844        12     0.706     0.542 -71.84   0
        51    795.4732    893.4657 300.1291341 +22.8539384     618.5068     72.60734      1.652     3.63     3.496773     20.47431     68.28253        12     1.036     0.891  -2.05   0
        52    508.1651    889.7820 300.0408826 +22.7667110     4110.784     72.57037      1.662     3.32     3.129257     20.47431     343.0192        35     1.366     1.240  76.56   0
        53    807.1287    890.2709 300.1338042 +22.8565161     540.8777     72.64428      1.753     5.28     3.515381     20.47431     42.69579         9     1.049     0.751 -51.08   0
        54    169.8253    877.9684 299.9395312 +22.6617854     519.8504     72.57037      2.327     5.79     4.204551     20.47431     39.35509         7     1.138     0.828  51.27   0
        55    286.8002    878.2091 299.9758038 +22.6969667     358.0958     72.38529      1.490     3.50     4.282684     20.47431     32.94147         5     1.015     0.348  44.92   0
        56    233.6546    875.5929 299.9601367 +22.6802650     909.8004     72.57037      1.781     3.07     5.259114     20.47431     97.87765        13     1.091     0.835 -59.18   0
        57    210.5036    872.4165 299.9539754 +22.6724051     1790.452      72.4779      1.913     3.97     4.676447     20.47431     130.9702        30     1.464     1.239  46.35   0
        58    142.6202    873.7629 299.9324471 +22.6524127     422.3703     72.58886      1.632     3.39      3.83668     20.47431     42.79486         5     0.748     0.445  71.18   0
        59     85.5236    862.5981 299.9183428 +22.6320706     383.8273      72.4779      1.174     4.01     3.562222     20.47431     50.75228         5     1.076     0.442 -55.22   0
        60    742.1546    860.6649 300.1231918 +22.8285368     367.4302     72.58886      1.688     5.97      3.45067     20.47431     35.21615         8     1.105     0.909  -4.65   0
        61    819.9817    853.6953 300.1497023 +22.8498706     692.1021     72.47789      1.653     4.35     3.554256     20.47431     60.26245        13     1.155     0.853 -67.10   0
        62    242.9092    853.2610 299.9702736 +22.6766403     497.5721     72.66274      1.900     6.14     3.914305     20.47431     43.42609         7     1.094     0.969  13.87   0
        63    688.1748    847.8665 300.1105425 +22.8086772     4882.457     72.55189      1.588     3.17     3.194689     20.47431     399.2454        35     1.269     1.257  39.67   0
        64    177.8989    847.8837 299.9518208 +22.6555851     449.4952     72.73655      1.848     7.07     3.777376     20.47431     41.75396         8     1.468     0.955 -83.22   0
        65    490.2724    844.9567 300.0498908 +22.7484848     596.0004     72.55189      1.452     3.99     3.296921     20.47431     72.42599        13     1.092     0.858 -18.13   0
        66    238.3239    841.4493 299.9726887 +22.6718776     1484.066     72.57037      1.885     4.00     3.862035     20.47431     135.0448        22     1.241     1.203  37.25   0
        67    708.7903    840.3578 300.1194036 +22.8127041     810.5904     72.57037      1.763     3.94     3.333919     20.47431     63.07666        18     1.225     0.980  31.38   0
        68    506.8940    839.6224 300.0567966 +22.7519408     321.0712      72.4964      1.612     4.34     3.190557     20.47431     29.79409         5     1.134     0.473   5.85   0
        69    257.6260    838.6225 299.9796065 +22.6768603     684.8506     72.53339      2.400     3.07     3.831295     20.47431     60.12988        10     0.977     0.725  66.61   0
        70    864.2189    827.6622 300.1719509 +22.8556581     4241.798     72.55189      1.691     3.41     3.461689     20.47431     327.5476        39     1.359     1.302 -43.73   0
        71    272.5266    821.7925 299.9897090 +22.6765065     525.3553     72.53339      1.791     4.65     3.712774     20.47431      40.5594         6     1.091     0.562 -60.92   0
        72    581.2444    819.9957 300.0863146 +22.7686111     684.4019     72.58886      1.526     3.84     3.097126     20.47431     63.59409        16     1.133     0.991 -24.65   0
        73    227.5242    817.9202 299.9769814 +22.6618901     1005.842      72.6812      1.631     3.91     3.776607     20.47431     95.22554        15     1.064     0.983  38.12   0
        74    642.9922    813.5178 300.1076418 +22.7852705     394.9254      72.4964      1.437     3.71     3.294221     20.47431     54.95258         9     0.994     0.653  52.73   0
        75    377.2164    810.1556 300.0260393 +22.7045839     53556.62     72.58886      1.596     3.05     3.455687     20.47431     5195.687        95     1.455     1.413  47.96   0
        76    635.0656    809.2119 300.1065738 +22.7816577     1694.306      72.5149      1.535     2.98     3.308162     20.47431     152.5991        23     1.165     1.089  73.32   0
        77    305.7433    808.5403 300.0043421 +22.6826745     393.3273     72.64428      1.640     2.79     3.575039     20.47431     56.93241         7     0.952     0.617  89.02   0
        78    664.0502    805.4154 300.1168320 +22.7892598     860.3458     72.58886      1.523     3.71     3.387389     20.47431     97.12698        15     1.155     0.933 -10.06   0
        79     63.7686    804.8563 299.9303573 +22.6089896     710.2477     72.58886      2.254     4.17     3.438112     20.47431      64.1888        12     1.195     0.998 -14.62   0
        80     30.4863    804.6921 299.9200761 +22.5989502     768.8383     72.73655      2.105     3.55     3.246306     20.47431     74.85882        11     1.116     1.037  37.58   0
        81    674.7855    803.7795 300.1207064 +22.7920094     646.0667     72.55189      1.507     3.48     3.414792     20.47431     73.13686        11     1.016     0.814   6.96   0
        82    780.5571    799.9200 300.1549031 +22.8226141     469.1743     72.55189      1.599     3.57     3.579718     20.47431     46.64019         8     0.958     0.733  64.40   0
        83    818.1249    790.0771 300.1698068 +22.8310501     831.3096     72.66274      2.024     4.79     3.572425     20.47431     62.27769        13     1.197     0.934  22.85   0
        84    441.2065    787.9905 300.0531458 +22.7174237     1965.042     72.42235      1.562     3.04     3.349565     20.47431     195.2174        24     1.247     1.046 -60.07   0
        85    426.9429    787.4048 300.0488995 +22.7129768     31406.79     72.53339      1.544     2.99     3.343416     20.47431     2825.096        69     1.362     1.322 -45.04   0
        86    950.1236    783.3958 300.2131173 +22.8686936     2843.282     72.47789      1.747     3.66      3.38347     20.47431     213.1331        30     1.328     1.219 -23.51   0
        87    438.0588    781.9728 300.0541226 +22.7147531     616.9735     72.57037      1.775     4.68      3.35039     20.47431     62.95419        11     1.151     0.719  22.43   0
        88    707.7594    779.4315 300.1388890 +22.7949077     1036.692     72.62581      1.602     3.68      3.48966     20.47431     98.78237        16     1.194     0.953  58.18   0
        89    309.4648    779.1492 300.0150523 +22.6753623     930.3428     72.60734      1.621     3.69     3.527235     20.47431     96.61386        17     1.125     1.084 -88.30   0
        90    544.3536    779.0000 300.0881597 +22.7457835      455.342     72.55189      1.480     4.53     3.118918     20.47431     41.11639         9     0.907     0.722  26.01   0
        91    113.9890    774.7433 299.9557417 +22.6154336     609.5582     72.53339      1.925     5.41     3.624628     20.47431     45.29978        13     1.432     0.902 -19.23   0
        92    555.2656    774.0313 300.0931706 +22.7476304     1026.524     72.57037      1.587     3.54       3.1901     20.47431     101.9174        16     1.219     0.934 -29.49   0
        93    956.2593    771.2029 300.2189935 +22.8670305     519.9575     72.53339      1.675     5.50     3.379489     20.47431     44.47076        12     1.066     0.971  31.86   0
        94    412.9077    770.0146 300.0501865 +22.7037777     393.7151      72.4964      1.540     4.49     3.347756     20.47431     47.02254         8     1.025     0.652 -63.36   0
        95    456.9157    770.6681 300.0636626 +22.7171666     276.1499      72.6812      1.326     2.93     3.368555     20.47431     39.78416         5     0.752     0.425  18.99   0
        96    708.0866    769.8509 300.1421050 +22.7922557     2384.415     72.57037      0.398     2.15     3.496279     20.47431     1973.406         7     0.653     0.217 -55.74   0
        97    501.0354    768.8947 300.0779650 +22.7298916     401.6109     72.57037      1.205     3.16       3.3261     20.47431     52.63585         9     0.904     0.763  -9.62   0
        98    142.9665    768.3026 299.9668362 +22.6222851     506.9176     72.55189      1.554     3.51     3.625051     20.47431     60.21185        11     0.943     0.851  41.36   0
        99    933.1711    766.4535 300.2133397 +22.8587477     399.7556     72.58886      1.429     3.40      3.39075     20.47431     43.13442         5     0.795     0.420  23.35   0
       100    307.1794    763.5127 300.0194239 +22.6701920     571.0685      72.4964      1.625     4.32     3.525356     20.47431     58.24517        10     0.975     0.799  71.12   0
       101    630.6035    753.7830 300.1232016 +22.7644118     500.5182      72.4964      1.459     3.17     3.484769     20.47431     60.65859         9     0.906     0.748  47.22   0
       102    600.1072    752.1860 300.1142273 +22.7548088     529.8018      72.4964      1.374     3.44     3.456484     20.47431     65.67081        10     0.909     0.766  88.02   0
       103    509.6849    751.5712 300.0862865 +22.7275152     395.2403     72.57037      1.602     4.32     3.364966     20.47431     38.80009         7     0.965     0.550  53.47   0
       104   1016.5035    748.6768 300.2450995 +22.8786116     4475.497     72.69965      1.777     3.57     3.341558     20.47431     336.6946        40     1.409     1.335 -38.84  16
       105    621.9420    749.6589 300.1218455 +22.7606310     1516.549     72.64428      1.542     3.33     3.492913     20.47431     131.9248        20     1.137     1.030  50.02   0
       106    541.7288    749.5424 300.0969171 +22.7365434     318.0148     72.58886      1.307     3.09     3.332182     20.47431     46.07461         7     0.833     0.641 -73.25   0
       107    703.3947    744.7738 300.1487943 +22.7836504     330.6946     72.55189      1.348     2.57     3.515855     20.47431      36.8728         5     0.704     0.462 -72.63   0
       108   1004.9283    740.0736 300.2442861 +22.8726723     1704.448     72.62581      1.704     3.58     3.345773     20.47431     124.8183        23     1.241     1.110  33.43   0
       109    367.7644    733.8761 300.0478921 +22.6798681     874.4636     72.53339      1.434     3.63     3.429075     20.47431     98.99795        15     1.067     0.982 -19.75   0
       110    831.4497    731.3395 300.1930499 +22.8181787     2467.905     72.62581      1.649     3.32     3.520806     20.47431     225.7119        30     1.456     1.074   4.58   0
       111     53.7226    721.4142 299.9543549 +22.5820552     820.8567     72.58886      1.790     3.99     3.562008     20.47431     74.26173        17     1.327     0.905  50.92   0
       112    913.5903    717.2287 300.2232345 +22.8387425      556.613     72.57037      1.743     3.41     3.533702     20.47431     60.43618        10     1.166     0.732  19.47   0
       113    217.0739    717.4855 300.0063751 +22.6299544      590.751     72.69965      1.594     3.91     3.665617     20.47431      55.2576        12     1.007     0.853 -73.16   0
       114    949.7491    708.2692 300.2374178 +22.8470037     146686.9     72.57037      1.641     3.17     3.499889     20.47431     12242.04       168     1.557     1.510 -74.21   0
       115    712.0287    712.0488 300.1621180 +22.7768441     243.9258     72.58886      1.292     3.66     3.577331     20.47431     43.87279         7     0.894     0.517  43.25   0
       116    801.8804    708.5056 300.1912574 +22.8027595     683.3214     72.69965      1.477     4.06     3.521726     20.47431      88.2727        13     1.112     0.934  69.38   0
       117    982.9672    701.2880 300.2500430 +22.8549509     546.0352     72.53339      1.525     4.32     3.393471     20.47431     68.65326        11     1.027     0.871 -36.64   0
       118    635.9723    697.2149 300.1432559 +22.7497845     1636.736     72.58886      1.428     2.77     3.825498     20.47431     181.4164        19     1.043     0.976 -62.68   0
       119    817.2104    694.3776 300.2006244 +22.8032971     9450.506     72.57037      1.499     2.81     3.566432     20.47431     915.2397        44     1.270     1.212  89.14   0
       120    227.4883    694.2766 300.0171525 +22.6264233     365.2245     72.69965      0.730     0.81     3.718827     20.47431     206.4153         5     0.614     0.405 -24.35   0
       121    318.6587    689.4383 300.0470631 +22.6523890      4874.54     72.58886      1.512     2.80      3.59011     20.47431     494.3574        34     1.205     1.162  83.83   0
       122     32.2930    687.6737 299.9586629 +22.5659500     1786.588     72.69965      1.936     3.71     3.529848     20.47431     173.5492        31     1.542     1.374  71.59   0
       123    400.6981    687.5395 300.0731902 +22.6764539      1126.58     72.64428      1.369     2.87     3.416946     20.47431     138.9842        15     1.021     0.868  46.90   0
       124    276.2580    685.1456 300.0352769 +22.6384371     507.7827     72.62581      1.297     2.65     3.725883     20.47431     61.31996         8     0.798     0.662 -40.11   0
       125    609.0991    683.0900 300.1394795 +22.7376730     775.6924     72.73655      1.342     3.19     4.002975     20.47431     93.95255        14     1.033     0.902  19.97   0
       126    600.6838    675.2512 300.1394068 +22.7328998      3143.19     72.58886      1.386     2.55     4.006466     20.47431     372.4365        25     1.132     1.028  50.84   0
       127    590.8297    668.9083 300.1384003 +22.7281246     1336.677     72.53339      1.355     2.53     3.960216     20.47431     188.2013        16     0.973     0.903 -41.60   0
       128    519.5833    667.9502 300.1165384 +22.7064869     205.6617     72.58886      1.263     4.58     3.570591     20.47431     32.19763         5     1.064     0.561 -12.56   0
       129    984.4562    666.6196 300.2617721 +22.8454375     520.6971     72.55189      1.696     5.72     3.470948     20.47431     42.73847        10     1.023     0.915 -76.30   0
       130    254.3840    665.0381 300.0350104 +22.6261069     731.4373     72.58886      1.645     3.26     3.771124     20.47431      79.9698        13     1.088     0.789   8.88   0
       131    268.3595    663.8312 300.0397463 +22.6299536     687.7307     72.60734      1.628     3.90     3.773419     20.47431     72.89237        10     0.972     0.812  25.35   0
       132    154.4963    663.7676 300.0043841 +22.5957713     298.3091     72.53339      1.804     4.58     3.641731     20.47431     37.49757         5     0.813     0.732  54.94   0
       133    294.2082    660.3165 300.0489230 +22.6367001     483.7907      72.5149      1.364     3.50     3.760752     20.47431     63.98262        10     0.995     0.758  74.76   0
       134    614.8403    659.1107 300.1490575 +22.7325108     484.1188     72.57037      1.319     3.93     4.143336     20.47431     53.94564         9     1.042     0.672  75.26   0
       135    324.9716    660.2510 300.0585082 +22.6459098     428.6168     72.58886      1.485     4.69     3.637268     20.47431     39.26772         7     0.959     0.667   2.86   0
       136    515.6564    658.4542 300.1184015 +22.7025840     1757.995     72.62581      1.448     2.71      3.62111     20.47431     209.5577        20     1.079     1.006 -62.01   0
       137    169.6360    653.5831 300.0123961 +22.5973935     19657.75     72.57037      1.636     3.08     3.672882     20.47431     2097.949        71     1.416     1.384  28.11   0
       138     90.7302    655.2028 299.9873587 +22.5741795      638.251      72.5149      1.524     3.59     3.642662     20.47431     62.49047        12     1.129     0.766 -40.19   0
       139    635.9310    653.1755 300.1575515 +22.7371299      307.347     72.57037      1.556     4.60      4.16071     20.47431     33.31975         7     0.989     0.608  77.61   0
       140    600.5513    654.0879 300.1462412 +22.7267851     873.3606     72.57037      1.331     2.95     4.116584     20.47431     132.9882        13     1.055     0.735  -6.28   0
       141    971.8854    649.5670 300.2633930 +22.8367725     247.7822     72.53339      1.583     5.22     3.674746     20.47431     35.67287         6     1.236     0.622  39.08   0
       142    354.3078    645.9492 300.0722755 +22.6506064     238.0082     72.62581      1.228     4.33      3.59972     20.47431     31.61849         7     0.772     0.691 -70.38   0
       143   1018.6990    640.3871 300.2809727 +22.8481583     963.4631      72.4779      1.583     3.42     3.658344     20.47431     89.73015        16     1.135     0.902   4.73  16
       144    115.4535    637.7458 300.0007084 +22.5765930     1658.894     72.60734      1.992     4.97     3.677992     20.47431     111.5829        30     1.653     1.204 -78.91   0
       145    966.3535    639.1907 300.2650393 +22.8321342     186.2884     72.58886      1.405     3.69     3.771714     20.47431       28.142         5     1.014     0.386  -4.41   0
       146    885.2902    638.4399 300.2400138 +22.8076321     387.3644     72.57037      1.267     3.06     3.807805     20.47431     71.40289         8     0.881     0.748  74.77   0
       147    181.9681    638.2535 300.0212073 +22.5966973     517.0998     72.58886      1.599     5.08     3.713475     20.47431     48.20684        11     1.146     0.774  27.03   0
       148    563.9489    634.7437 300.1411326 +22.7102584     471.7388     72.60734      1.293     2.90     3.986029     20.47431     58.99832        10     0.876     0.819  41.17   0
       149    957.8632    632.8094 300.2644653 +22.8277573     1071.104     72.53339      2.113     7.38     3.821197     20.47431     77.49556        21     2.078     0.938  -8.14   0
       150    356.4191    633.7292 300.0769015 +22.6477336     228.2176     72.60734      1.188     3.46     3.659719     20.47431     38.32339         5     0.736     0.471 -74.87   0
       151    703.0827    631.3267 300.1855587 +22.7509860     230.9297     72.69965      1.147     4.17     4.190484     20.47431     34.86942         6     0.784     0.632 -64.00   0
       152    520.6411    626.9354 300.1301915 +22.6950323     644.7558     72.53339      1.362     3.11     3.814313     20.47431     84.82332        12     1.081     0.710  -3.20   0
       153    668.6259    625.7335 300.1766458 +22.7390519     439.5781     72.55189      1.186     2.55     4.474712     20.47431     61.33001         5     0.684     0.477  80.46   0
       154    715.9153    624.1781 300.1918773 +22.7527795     403.0612      72.5149      1.327     3.61     4.164258     20.47431     46.54316        11     1.047     0.714 -17.78   0
       155    686.5679    623.7172 300.1828876 +22.7438510     589.7474     72.55189      1.379     3.65     4.399014     20.47431     75.01048        13     1.135     0.808  10.28   0
       156    565.0178    622.6870 300.1453817 +22.7071179     979.3872      72.5149      1.481     2.50     4.078408     20.47431     127.9513        16     1.143     0.858 -18.52   0
       157    998.6895    618.1297 300.2819635 +22.8357694     3336.846     72.73655      1.583     3.19     3.956465     20.47431     288.4777        31     1.300     1.171 -80.23   0
       158    530.4448    618.1746 300.1360879 +22.6954571     1667.419     72.58886      1.353     2.65     3.922391     20.47431     199.6705        20     1.049     0.982  30.52   0
       159    895.6624    615.5731 300.2506749 +22.8041710     351.1784     72.57037      2.266     5.16     3.839286     20.47431     34.14064         6     1.276     0.589  39.36   0
       160     92.3809    611.7947 300.0019708 +22.5622273       5181.2     72.53339      1.642     2.98     3.704762     20.47431     584.9336        39     1.363     1.330 -67.34   0
       161    505.6636    613.1617 300.1300050 +22.6865880     242.1672     72.55189      1.324     3.50     3.798136     20.47431     33.76629         5     0.801     0.442 -75.50   0
       162    751.7105    622.3878 300.2036078 +22.7629934     190.1388      72.5149      1.116     3.44     3.952081     20.47431     32.27635         5     0.747     0.457 -16.51   0
       163    393.9056    604.8784 300.0979299 +22.6506980     9074.721     72.69965      1.433     2.65      3.67081     20.47431     1111.981        49     1.276     1.220  24.33   0
       164    516.3309    601.9583 300.1369631 +22.6865706     8825.447     72.55189      1.387     2.47     3.913746     20.47431      1085.78        40     1.175     1.142  42.44   0
       165    281.8209    598.9896 300.0649924 +22.6153906     298.0173     72.55189      1.441     3.82     3.853652     20.47431     29.11049         5     0.828     0.506  28.99   0
       166    160.3208    598.0790 300.0275300 +22.5786796      288.604     72.69965      1.110     3.36      3.75615     20.47431     37.93635         5     0.952     0.344 -47.69   0
       167    927.9766    595.8476 300.2671547 +22.8081850      1916.39     72.58886      1.539     3.23     3.913098     20.47431      182.035        22     1.155     1.053 -82.55   0
       168   1012.6864    593.3909 300.2943640 +22.8328533     12456.54      72.4964      1.602     3.03     4.086628     20.47431     1137.177        51     1.369     1.266 -67.23   0
       169    576.8824    591.5732 300.1591804 +22.7017429     11543.73     72.55189      1.374     2.44       4.2637     20.47431     1533.878        45     1.201     1.123  72.65   0
       170    496.2001    590.4479 300.1344377 +22.6772309     3605.793     72.55189      0.797     1.34     3.825895     20.47431     1220.125        11     0.658     0.528  48.65   0
       171    746.5076    587.6222 300.2132794 +22.7514500     544.9279      72.4964      1.512     3.71     4.063498     20.47431     54.73324         9     0.995     0.710 -19.18   0
       172    304.2708    587.0168 300.0758597 +22.6186894      1461.95     72.58886      1.495     2.94     3.857334     20.47431     156.9877        18     1.087     0.952  42.62   0
       173    551.2649    584.5769 300.1534796 +22.6920547     505.0459     72.55189      1.505     3.54     4.195318     20.47431      54.8589        10     0.934     0.857  62.80   0
       174      5.3692    583.8513 299.9840257 +22.5281025     2460.563      72.4964      1.819     3.41     3.732481     20.47431     272.4932        31     1.337     1.252  12.08  16
       175    508.5074    579.7272 300.1417489 +22.6778436     4428.731     72.69965      1.372     2.32     3.954904     20.47431      626.027        32     1.158     1.117   7.46   0
       176    851.3388    579.7501 300.2484968 +22.7806007      781.614     72.62581      1.339     2.78      3.81318     20.47431     93.01031        13     0.918     0.890   1.27   0
       177    486.9907    578.2327 300.1355394 +22.6709634     1196.499     72.57037      1.381     2.83     3.817031     20.47431     155.6844        18     1.104     0.941  31.93   0
       178    241.0569    577.5674 300.0592791 +22.5970169     719.0452     72.58886      1.440     3.43     3.838859     20.47431     77.47472        13     1.014     0.878 -19.03   0
       179    928.5570    575.1863 300.2740463 +22.8024227     1695.934     72.58886      1.614     3.64     3.959542     20.47431     146.9068        26     1.401     1.039 -46.51   0
       180    174.7217    575.6151 300.0392994 +22.5765568     236.7309     72.58886      1.068     3.86     3.826674     20.47431     35.66054         6     0.872     0.500 -44.62   0
       181    625.1921    567.2821 300.1821075 +22.7092500       198846      72.4964      1.371     2.44     4.458964     20.47431     22838.08       202     1.456     1.441  59.00   0
       182    808.7961    572.1987 300.2376931 +22.7656850     641.3588     72.34822      1.326     3.21     3.832154     20.47431     86.35349        11     1.010     0.736  69.13   0
       183    448.8099    573.5750 300.1251739 +22.6581785     286.0931     72.57037      1.010     2.19     3.707216     20.47431     56.38329         5     0.709     0.427  26.10   0
       184    311.1992    567.2312 300.0844390 +22.6150904     3357.901     72.53339      1.432     2.78      3.86604     20.47431     346.7334        26     1.158     1.065  71.58   0
       185    877.4084    563.3164 300.2619584 +22.7836899     502.2634      72.5149      1.647     3.40     3.841664     20.47431      48.5006         9     0.976     0.730 -12.31   0
       186    515.7818    547.8788 300.1543550 +22.6708819     2803.003     72.57037      1.487     2.62     4.129244     20.47431     339.6595        27     1.461     0.989 -86.68   0
       187    360.1921    549.7649 300.1053439 +22.6247716     474.5076     72.57037      1.234     3.10     3.783221     20.47431     65.30932         9     0.923     0.774  57.62   0
       188    927.4999    544.0314 300.2838346 +22.7931544     414.7209     72.55189      1.711     5.45     4.017277     20.47431     38.09606         8     1.207     0.695 -60.67   0
       189    846.7953    544.1378 300.2586464 +22.7690089     753.3973     72.55189      0.595     0.90      3.82483     20.47431     460.8216         6     0.493     0.392 -30.63   0
       190    746.7170    543.4060 300.2277042 +22.7388134     230.7208      72.4964      1.364     3.45     4.029106     20.47431     35.72743         5     0.733     0.470 -14.50   0
       191    833.1398    536.2307 300.2569588 +22.7626462     395.8179     72.60734      1.338     4.51      3.85883     20.47431     42.53589         8     0.871     0.663 -43.05   0
       192    912.8600    533.9007 300.2825608 +22.7858582     1641.775     72.66274      1.402     2.66     3.982162     20.47431     209.6932        21     1.097     1.011  48.06   0
       193     42.9726    532.6497 300.0123270 +22.5247041     874.9981     72.58886      1.718     4.19     4.093015     20.47431     74.09578        12     1.078     0.814  73.04   0
       194    783.9894    531.4680 300.2431915 +22.7465524     2457.488     72.57037      1.353     2.35     3.948036     20.47431      350.195        23     1.049     1.018  32.69   0
       195    143.1342    531.2375 300.0438953 +22.5543506     238.3871     72.55189      1.263     3.53     4.010737     20.47431     38.45213         5     0.836     0.636  47.18   0
       196    688.8266    528.2275 300.2146031 +22.7171065     526.0182     72.53339      1.340     3.57     4.564475     20.47431     61.40183         9     0.927     0.632  61.02   0
       197    993.4536    528.3438 300.3094916 +22.8084003     236.5996     72.62581      1.250     3.48     4.047931     20.47431     37.58627         5     0.770     0.453  70.66   0
       198    571.1982    527.4307 300.1782408 +22.6816233     619.9669     72.53339      1.242     2.34     4.384967     20.47431     98.49242         8     0.780     0.654  55.46   0
       199    913.0143    523.9661 300.2858348 +22.7830499     2269.823     72.55189      1.663     3.37      3.99342     20.47431     241.6797        28     1.526     1.039  77.26   0
       200    666.2463    521.9299 300.2096166 +22.7085310     705.1119     72.55189      1.797     3.12     4.694254     20.47431     75.05324        11     1.047     0.731  72.74   2
       201    451.9756    521.7772 300.1429783 +22.6442598     281.5926     72.53339      1.286     5.25     3.905495     20.47431     55.03938         8     1.245     0.626  -8.84   0
       202    951.2649    518.9709 300.2993810 +22.7930713     4195.385     72.58886      1.430     2.74     4.038419     20.47431     476.2238        32     1.197     1.131 -84.97   0
       203    504.9820    520.8065 300.1597849 +22.6598723     273.8192     72.53339      1.161     3.15     4.142075     20.47431     54.15998         8     0.929     0.694  10.32   0
       204    689.1398    516.0468 300.2186557 +22.7137020     252.6602     72.60734      1.399     4.25     4.579105     20.47431      38.6054         5     0.773     0.676 -78.62   0
       205    611.6008    514.7697 300.1949280 +22.6900976     295.9513     72.53339      1.293     2.46     4.552928     20.47431     63.85119         7     0.874     0.512  33.04   0
       206    183.3272    509.3118 300.0635015 +22.5601179     858.5464     72.73655      1.368     3.09     4.002873     20.47431     107.7635        15     1.130     0.826 -24.22   0
       207    844.3348    503.1942 300.2711742 +22.7565087     352.0474     72.55189      1.402     4.32     3.954888     20.47431     52.71727         7     1.254     0.423  43.31   0
       208    175.7227    499.7892 300.0642300 +22.5551049     438.8463     72.57037      1.484     5.54     4.049395     20.47431     46.33658         8     1.209     0.717 -52.29   0
       209    783.6885    493.6599 300.2553736 +22.7356012     420.8933     72.64428      1.339     3.48      4.05435     20.47431     57.35075         6     0.703     0.666  78.71   0
       210    672.2834    491.2325 300.2214631 +22.7015238     362.3929     72.53339      1.270     2.90     4.730389     20.47431     45.28767         6     0.735     0.566  44.24   0
       211    392.2287    491.4377 300.1342442 +22.6176376     210.6033     72.58886      1.600     3.43     3.920063     20.47431     29.65642         5     0.777     0.438  21.24   0
       212    724.7973    489.3629 300.2384241 +22.7167223     781.9384     72.60734      1.341     2.81     4.341886     20.47431     99.94361        11     0.995     0.683  50.88   0
       213    703.8162    487.3999 300.2325270 +22.7098718     224.8622     72.45938      1.544     4.31     4.503358     20.47431      33.7869         5     1.091     0.485 -57.90   0
       214    513.1899    486.8967 300.1733481 +22.6525972     241.9639      72.4964      1.376     4.14     4.256621     20.47431     37.74148         6     1.194     0.593 -49.80   0
       215     83.3948    483.7633 300.0407508 +22.5228106     414.9198     72.58886      2.055     5.16     4.168993     20.47431     24.74988         5     1.046     0.721 -11.08   0
       216    785.3145    481.7826 300.2597361 +22.7326761     824.7324     72.53339      1.317     2.58     4.084834     20.47431     107.3923        12     0.924     0.774  17.52   0
       217    942.6150    477.8728 300.3100279 +22.7786699     1052.613     72.57037      1.490     2.71     4.055894     20.47431      120.704        14     0.925     0.896  37.56   0
       218    926.8530    474.4073 300.3062392 +22.7729534     565.4139     72.57037      1.250     2.84     4.071036     20.47431     74.04786         9     0.804     0.755  78.36   0
       219    907.3330    474.3592 300.3001701 +22.7670933     208.1659     72.55189      1.025     3.82     4.064242     20.47431      46.8465         5     0.837     0.510  45.52   0
       220    671.2045    472.1996 300.2273060 +22.6957339     3128.819     72.38529      1.315     2.37     4.663263     20.47431     390.7855        25     1.116     0.962  69.17   0
       221    147.4603    463.6289 300.0671871 +22.5362530     399.3962     72.58886      1.468     3.51     4.266912     20.47431     45.93541         7     0.849     0.669 -25.43   0
       222    676.7183    460.0374 300.2329710 +22.6938927     288.2862     72.53339      1.354     2.51     4.546581     20.47431     51.33296         7     0.720     0.651 -61.60   0
       223    442.8323    459.8907 300.1602247 +22.6237528     224.8735      72.5149      1.570     5.00     4.113833     20.47431      30.5478         6     1.216     0.580  71.34   0
       224    511.4596    458.9593 300.1818787 +22.6440570     467.2018     72.57037      1.384     3.74     4.302751     20.47431     56.68991         9     1.131     0.606 -19.99   0
       225    954.5958    451.2280 300.3224128 +22.7746000     398.3722     72.53339      1.046     2.31     4.108456     20.47431      72.5674         7     0.766     0.567  64.31   0
       226    690.8552    447.8611 300.2413258 +22.6946310     333.0654     72.64428      1.210     4.23     4.406562     20.47431     60.43906         8     1.144     0.479  45.38   0
       227    781.8483    446.1815 300.2702132 +22.7214095      1108.33     72.60734      1.307     2.72     4.188289     20.47431     153.4316        14     0.988     0.817  65.14   0
       228    577.6621    446.8766 300.2064040 +22.6604292     374.4239     72.62581      1.167     2.43      4.42182     20.47431       82.247         9     0.842     0.725  42.47   0
       229    285.9786    444.2764 300.1165158 +22.5722427     614.8926     72.57037      1.384     2.47     4.006758     20.47431      84.4968        10     0.857     0.779  72.69   0
       230    348.2022    440.0161 300.1372444 +22.5896772     3733.249     72.44086      1.357     2.42     4.007667     20.47431     449.5085        29     1.103     1.078 -64.07   0
       231    295.3598    434.7980 300.1225085 +22.5723354     7596.586     72.57037      1.416     2.47     4.013767     20.47431     973.2509        38     1.226     1.142  47.61   0
       232    436.1255    429.0625 300.1681445 +22.6128916     4989.619     72.60734      1.380     2.38     4.148194     20.47431       606.32        32     1.165     1.042  56.80   0
       233    680.3848    425.7588 300.2452391 +22.6851449     18419.23     72.58886      1.323     2.26     4.283582     20.47431     2495.308        63     1.306     1.149  68.04   0
       234    697.8350    426.0251 300.2505869 +22.6904496     861.2114     72.58886      1.881     5.97      4.26557     20.47431     68.52668        16     1.629     0.761 -46.81   0
       235    527.8031    427.2064 300.1972708 +22.6398377     447.8094     72.38529      1.563     3.68     4.338068     20.47431     38.39655         8     0.821     0.686  49.30   0
       236    673.7844    434.4816 300.2403526 +22.6856729     327.3046     72.55189      1.381     2.40      4.35343     20.47431     47.13053         5     0.703     0.479 -16.22   0
       237    924.5363    422.2312 300.3224538 +22.7572642       197.08     72.58886      1.198     3.40     4.248287     20.47431     32.59813         5     0.743     0.449 -68.48   0
       238    539.1523    422.5390 300.2023176 +22.6418988     451.3894     72.62581      2.469     5.93     4.328678     20.47431     33.43924         6     1.324     0.748  -3.63   0
       239    877.2176    415.8814 300.3097654 +22.7412685     372.0169     72.55189      1.334     3.42     4.269355     20.47431     61.29243         9     1.047     0.637 -44.40   0
       240    300.4467    412.4064 300.1313569 +22.5674338     383.5605     72.58886      1.291     3.52     4.092348     20.47431     54.21104         8     0.901     0.795  83.59   0
       241   1014.2292    408.2323 300.3549630 +22.7800971     855.0289     72.57037      1.757     3.40     4.075194     20.47431     93.44844        14     1.051     0.911 -54.43   0
       242    235.0240    405.8883 300.1131359 +22.5459459     2080.646      72.5149      1.438     2.55     4.248005     20.47431     259.8549        27     1.247     1.131 -55.03   0
       243    723.6514    407.0752 300.2647775 +22.6927399     275.1908     72.58886      1.056     3.43     4.243897     20.47431     34.46443         5     0.794     0.428 -71.71   0
       244    550.8206    407.4532 300.2108449 +22.6410633     240.7542     72.55189      1.213     2.75      4.32381     20.47431     50.60132         6     0.725     0.633  60.60   0
       245    351.7880    404.4650 300.1498972 +22.5805472     1672.859      72.5149      0.733     1.16     4.200486     20.47431     593.7999         5     0.593     0.398 -77.81   0
       246    358.6268    398.3705 300.1540015 +22.5808478     2479.978     72.57037      0.774     1.00     4.279431     20.47431     1164.192         7     0.636     0.389 -50.47   0
       247    620.9973    395.1789 300.2366726 +22.6585669     6737.129      72.5149      1.296     2.33     4.320068     20.47431     874.2186        33     1.157     1.040  74.06   0
       248    335.9623    394.3629 300.1482544 +22.5729027     676.0936     72.64428      1.421     3.45      4.31767     20.47431     74.87264        14     1.057     0.979  48.31   0
       249    193.3082    387.6674 300.1060846 +22.5282072     535.6851     72.69965      1.571     3.30     4.471611     20.47431     64.92155         8     0.930     0.621 -13.05   0
       250    881.0862    387.2718 300.3202561 +22.7342046     337.6685      72.6812      1.417     2.77     4.385808     20.47431      56.2434         6     0.951     0.410 -11.65   0
       251    824.2258    383.9012 300.3036301 +22.7162071     1586.924      72.5149      2.051     7.15     4.395238     20.47431     409.8837        18     1.808     0.793  27.23   0
       252     40.5427    385.3385 300.0593853 +22.4817207     1378.618     72.62581      1.675     3.53     4.808784     20.47431     132.3428        20     1.134     1.078  80.75   0
       253    735.1556    385.1013 300.2754919 +22.6898729     569.8242     72.57037      1.686     5.11     4.304743     20.47431     51.11725         9     1.076     0.687 -28.39   0
       254      9.8005    383.1006 300.0505655 +22.4718567     1375.688     72.40382      1.933     5.16     4.971819     20.47431     96.08103        24     1.670     0.950 -52.23  16
       255    527.6663    381.3804 300.2121000 +22.6266365     6142.012     72.53339      1.267     2.29     4.401602     20.47431     870.8192        32     1.139     1.010  72.03   0
       256   1016.9966    376.3884 300.3661605 +22.7717708     492.2278     72.38529      1.332     3.44     4.424747     20.47431     60.03424        10     0.968     0.707  38.93   0
       257    919.5965    375.9120 300.3359463 +22.7424715     1443.026      72.4964      1.429     2.56      4.45179     20.47431     163.3912        16     0.978     0.904 -82.08   0
       258    309.0082    383.8464 300.1432865 +22.5618028     246.5648     72.58886      1.436     4.42     4.417126     20.47431     30.95762         6     1.039     0.534 -78.68   0
       259    512.3481    369.8903 300.2110616 +22.6187461     422.0428     72.58886      1.241     3.64     4.502094     20.47431     62.30575         9     0.915     0.756 -58.79   0
       260    594.7991    368.1954 300.2372730 +22.6429662     492.6928     72.38529      1.433     3.79     4.342885     20.47431     57.70897         7     0.916     0.555 -30.37   0
       261     39.2137    366.6906 300.0650231 +22.4759721     963.9561      72.5149      1.483     2.81     4.984361     20.47431     139.6865        15     1.116     0.876  46.45   0
       262    575.5399    366.1867 300.2319299 +22.6366185     175.3502     72.53339      1.051     2.71     4.338701     20.47431     37.71573         5     0.719     0.475 -73.90   0
       263    892.4399    363.7259 300.3314357 +22.7308369     581.3281     72.55189      1.447     2.49     4.486084     20.47431     75.11648         8     0.828     0.649  85.50   0
       264    415.1909    360.7020 300.1838162 +22.5869888     2380.372     72.47789      1.285     2.44     4.751335     20.47431     308.6772        22     1.033     0.967  32.06   0
       265    133.6582    357.9254 300.0972012 +22.5017837     1041.093     72.62581      1.457     3.13     4.598479     20.47431     124.3489        15     1.019     0.950  76.88   0
       266    763.3829    355.5660 300.2938686 +22.6898414     145.3884     72.55189      1.128     3.65     4.430585     20.47431     43.98199         6     0.959     0.400 -19.66   0
       267    362.1985    353.7725 300.1695833 +22.5691148     174.0409      72.5149      1.374     4.95     4.835886     20.47431     30.52044         6     1.120     0.619  76.38   0
       268    384.5364    350.0667 300.1777325 +22.5747467     29218.02     72.62581      1.353     2.35     4.840478     20.47431     3827.366        68     1.284     1.177  63.33   0
       269    919.3309    347.6961 300.3450192 +22.7342813     1275.589     72.69965      1.283     2.53     4.532817     20.47431     172.3798        16     1.021     0.890  44.45   0
       270    874.7633    345.6006 300.3318075 +22.7203339     340.9385     72.57037      1.240     3.32     4.489511     20.47431     42.67385         5     0.716     0.482   9.58   0
       271     80.8412    337.8997 300.0872916 +22.4801971     4924.269     72.55189      1.546     2.91     4.747068     20.47431      535.728        36     1.281     1.199  62.91   0
       272    957.5219    337.2625 300.3603108 +22.7427164     358.6057     72.64428      1.717     4.72     4.474903     20.47431     42.45004         6     0.985     0.642 -13.77   0
       273    834.5177    336.7813 300.3221267 +22.7057473     492.7403     72.53339      1.316     2.51     4.462517     20.47431     71.74245         8     0.820     0.630  27.40   0
       274    258.7057    336.0558 300.1431548 +22.5330030     536.5734     72.62581      1.575     2.90     4.650213     20.47431     74.40258         7     0.891     0.782  76.65   0
       275    483.0488    335.3288 300.2131585 +22.6000398     486.8967     72.55189      1.231     2.40     4.680119     20.47431      62.2345         7     0.693     0.665  26.20   0
       276    795.1111    329.9278 300.3120717 +22.6919763     1886.715     72.73655      1.350     2.61     4.458601     20.47431      261.776        20     1.056     0.933  47.78   0
       277    603.0475    324.1524 300.2541305 +22.6327857     275.6542     72.60734      1.098     2.39     4.356822     20.47431     54.04346         5     0.621     0.567 -83.50   0
       278   1010.1357    322.8456 300.3813942 +22.7543223     656.3282     72.58886      1.501     4.00     4.252871     20.47431     52.81358        11     0.903     0.853  16.70   0
       279      3.2260    322.7174 300.0681140 +22.4525616     528.6574     66.08858      1.598     2.95     5.465601     20.47431     56.97869         8     0.884     0.640 -11.63  16
       280    456.6976    314.5196 300.2117109 +22.5861667     2104.182     72.69965      1.514     2.89     4.666854     20.47431     277.0909        24     1.271     0.973  68.46   0
       281    669.0377    313.4616 300.2781447 +22.6494832       286.32     72.58886      1.244     2.55     4.354007     20.47431     52.55238         6     0.775     0.495   6.07   0
       282    895.8370    307.5031 300.3507361 +22.7156927     638.2646     72.57037      1.411     3.15     4.345548     20.47431      87.8481        13     1.015     0.885  83.06   0
       283    888.5884    307.9971 300.3483165 +22.7136644     262.4001     72.38529      1.409     3.11     4.343732     20.47431       33.373         5     0.760     0.581   0.41   0
       284    795.1027    305.1804 300.3200976 +22.6848612     272.0617      72.4964      1.154     3.34     4.416339     20.47431     43.76744         6     0.850     0.579 -87.26   0
       285     29.4554    304.5934 300.0821374 +22.4552287     767.1831     72.57037      2.189     4.51     5.242018     20.47431     63.80293        11     1.337     0.976  60.96   2
       286    778.1460    305.2717 300.3147851 +22.6798094     367.4203     72.58886      1.270     2.80     4.400922     20.47431     55.95353         7     0.726     0.657 -15.18   0
       287    746.5642    303.8092 300.3054212 +22.6699307     218.5965     72.57037      1.127     3.23     4.372014     20.47431     45.95149         5     0.729     0.478  76.04   0
       288    532.1275    293.4850 300.2420048 +22.6027277     1628.523      72.6812      1.695     6.87     4.459521     20.47431     386.2678        20     1.387     0.953  62.51   0
       289    339.7399    293.9757 300.1819981 +22.5452141     280.0574     72.55189      1.511     4.07     4.701106     20.47431     38.13591         5     0.844     0.560   2.58   0
       290    105.4563    293.4889 300.1093434 +22.4748348     387.1832     72.60734      1.675     3.99     4.595767     20.47431     30.93641         5     1.068     0.425  74.67   0
       291    777.4453    285.7081 300.3209131 +22.6739769      2087.88     72.55189      1.301     2.43     4.364128     20.47431     290.3311        22     1.118     0.920  63.33   0
       292     10.5761    271.0571 300.0871522 +22.4399437     72113.24     72.57037      1.663     3.08     5.415765     20.47431     7275.133       116     1.604     1.425  55.70  16
       293    485.7658    269.4302 300.2353804 +22.5819268      701.314     72.58886      1.333     2.97     4.516559     20.47431      87.0852        12     0.960     0.811 -88.83   0
       294    191.2745    263.6276 300.1456911 +22.4919957     674.2902     72.57037      1.357     3.36     4.531695     20.47431     91.33293        13     1.140     0.778 -22.41   0
       295    160.7134    263.5611 300.1362165 +22.4828139     1390.334     72.55189      1.671     3.07     4.539697     20.47431     146.3218        22     1.318     1.060 -30.79   0
       296    244.4243    255.4536 300.1648602 +22.5055827     561.5369     72.58886      1.390     3.34     4.568359     20.47431     58.59909        10     0.955     0.767  84.24   0
       297    920.9125    249.1608 300.3774773 +22.7064265     419.9867     72.55189      1.403     4.69     4.068636     20.47431     44.26936         8     0.946     0.677 -82.67   0
       298    849.1115    247.0834 300.3557715 +22.6843336     606.3842      72.6812      1.294     2.53     4.303063     20.47431     101.0771        10     0.870     0.764  49.20   0
       299    439.5969    246.8538 300.2283386 +22.5616080     410.0714     72.53339      1.340     4.02     4.552874     20.47431      46.1705         7     0.865     0.615   9.78   0
       300    940.0886    240.1938 300.3863637 +22.7095886     476.9202      72.4779      1.466     3.33     3.954573     20.47431     41.71729         5     1.009     0.318 -44.19   0
       301    947.3319    236.3594 300.3898655 +22.7106542     2056.168     72.55189      1.378     2.60      3.92736     20.47431     253.7158        19     1.060     0.925 -86.86   0
       302    365.7934    233.4084 300.2097434 +22.5356301     2095.774     72.42235      1.321     2.32     4.536964     20.47431     284.6857        18     1.002     0.901  64.70   0
       303    443.7581    228.4806 300.2355915 +22.5575775     1045.357     72.55189      1.452     2.69     4.520628     20.47431     128.2491        19     1.114     0.949 -25.21   0
       304    845.6801    227.7169 300.3609830 +22.6777386     472.0038      72.7181      1.223     2.53     4.280841     20.47431     76.92411        10     0.839     0.787 -44.97   0
       305    260.4060    220.7176 300.1810922 +22.5004001     741.7546      72.4964      1.423     2.81     4.567787     20.47431     104.8268        11     1.038     0.656 -25.14   0
       306    378.6954    220.4002 300.2179741 +22.5357606     290.1102     72.44086      1.217     4.07     4.514067     20.47431      30.0194         6     0.880     0.539  41.52   0
       307    863.2284    217.5452 300.3697506 +22.6800679     515.7673     72.57037      1.269     3.24     4.429073     20.47431     66.67314         9     0.882     0.724 -75.35   0
       308    798.2977    217.7022 300.3494662 +22.6606732     1758.755     72.77342      1.370     2.46     3.910293     20.47431     230.1345        17     0.991     0.930 -30.41   0
       309    281.8071    214.1395 300.1898779 +22.5049258     508.2342     72.55189      1.327     3.02     4.576111     20.47431     62.76688         9     0.842     0.724  22.28   0
       310    802.2986    208.9801 300.3535412 +22.6593638      913.996      72.4964      1.517     2.74     3.893224     20.47431     118.7892        16     1.084     0.894  70.10   0
       311    722.8690    208.3289 300.3290082 +22.6353931     1112.579     72.60734      1.315     2.42     4.488305     20.47431     169.9572        17     1.058     0.887 -87.43   0
       312    571.6469    209.6733 300.2814865 +22.5904886     126.0197     72.57037      1.061     3.56     4.463806     20.47431     55.56842         6     0.994     0.448 -56.12   0
       313    544.0725    204.8661 300.2744628 +22.5808474     304.0214     72.60734      1.106     3.02     4.458435     20.47431     51.63679         5     0.635     0.575   7.82   0
       314    918.4054    199.8046 300.3927020 +22.6914841     1440.852     72.42235      1.383     2.51      4.07471     20.47431     169.2364        20     1.164     0.950 -59.54   0
       315    649.0698    200.1643 300.3086730 +22.6109457     1038.565     72.57037      1.373     2.53     4.493261     20.47431     129.9541        13     0.962     0.786 -48.86   0
       316    930.5016    199.0752 300.3967094 +22.6948951     887.4119     72.69965      1.434     2.98       3.9984     20.47431     97.55685        14     1.029     0.868  16.14   0
       317    976.7189    198.0520 300.4114509 +22.7084339      248.249     72.60734      1.272     2.79     3.911521     20.47431     48.95385         7     0.834     0.589  61.26   0
       318     20.7448    188.4382 300.1170997 +22.4192841      206.462     72.57037      1.155     3.21     5.237257     20.47431     35.36881         5     0.721     0.464 -18.47   0
       319     70.7704    186.1786 300.1333680 +22.4336354     449.4044     72.57037      1.385     2.95     4.789956     20.47431     60.71106         9     0.852     0.745  -5.56   0
       320    281.0393    182.3123 300.1999586 +22.4955563     646.6566     72.55189      1.270     3.25     4.521998     20.47431     89.23779        12     1.089     0.709  77.43   0
       321    234.0578    178.4745 300.1865990 +22.4803733     123.9717     72.62581      1.023     4.06     4.497946     20.47431     35.11974         5     0.768     0.616  81.60   0
       322    143.0647    177.0014 300.1588006 +22.4526750     2232.772     72.58886      1.450     2.77     4.374032     20.47431     256.9498        27     1.224     1.069  79.22   0
       323    966.2581    174.0209 300.4159812 +22.6983918     772.1182     72.55189      1.448     3.31     3.981098     20.47431     103.9159        13     1.011     0.903 -50.84   0
       324     92.5615    174.2155 300.1440148 +22.4367347      420.001     72.58886      1.603     2.54     4.544185     20.47431     69.27337         6     0.879     0.411  -0.50   0
       325    300.4418    170.2701 300.2098948 +22.4979128     5597.944     72.53339      1.453     2.49     4.500658     20.47431     657.9442        39     1.305     1.130  70.45   0
       326     84.6230    164.5654 300.1446774 +22.4315846     1353.752     72.58886      1.661     2.89     4.582509     20.47431     162.7734        18     1.203     0.986 -86.90   0
       327    283.8457    161.1350 300.2076967 +22.4903158     493.0634     72.57037      1.258     2.73     4.487495     20.47431     77.12399         8     0.783     0.676  63.04   0
       328    944.5939    151.9847 300.4163711 +22.6855704     3609.552      72.4779      1.438     2.54     4.123787     20.47431      410.583        31     1.223     1.077  88.54   0
       329    494.2232    147.2778 300.2776209 +22.5493684     617.2363     72.55189      1.293     3.44      4.47583     20.47431     82.01112        13     1.130     0.776 -45.76   0
       330    418.1549    138.6793 300.2567424 +22.5241101     696.4603     72.55189      1.377     3.26     4.485981     20.47431      95.2058        10     0.919     0.758  86.29   2
       331    422.3704    136.9489 300.2586146 +22.5248759     430.9627     72.58886      1.488     4.11     4.484952     20.47431     50.97772         6     0.948     0.510  13.10   2
       332    184.0832    136.1950 300.1847739 +22.4532546     496.0031      72.4964      1.254     2.40     4.427436     20.47431     97.48734         8     0.909     0.544  53.86   0
       333    545.4396    134.4008 300.2977337 +22.5610093     1686.776     72.58886      1.244     2.30     4.486924     20.47431     210.5476        19     1.032     0.919  67.48   0
       334    473.4351    134.9091 300.2751621 +22.5395875     469.9651     72.53339      1.408     3.00     4.467634     20.47431     63.97477        11     0.994     0.729  39.81   0
       335    607.2805    133.8318 300.3171677 +22.5793668     334.1263     72.57037      1.287     2.63     4.688572     20.47431      50.6789         7     0.807     0.600  56.18   0
       336    293.4990    133.2850 300.2197257 +22.4852103     1560.314     72.73655      0.757     1.08     4.532906     20.47431     674.6974         6     0.612     0.393  28.33   0
       337    761.9558    127.8779 300.3672671 +22.6239694     149.8155     72.55189      1.355     4.49     4.666357     20.47431     33.81838         5     1.188     0.482 -70.44   0
       338    833.8198    123.7271 300.3910037 +22.6442888     301.1152     72.57037      1.150     2.78      4.45997     20.47431     56.40709         7     0.822     0.589  81.08   0
       339    681.5781    120.1803 300.3447268 +22.5976913     245.7219     72.57037      1.259     4.10     4.747001     20.47431      33.3112         7     1.236     0.389 -74.98   0
       340    979.8157    118.3751 300.4382487 +22.6864440     318.0809     72.58886      1.369     2.70     4.213487     20.47431     40.14014         5     0.740     0.431 -21.59   0
       341    319.3938    114.1689 300.2339729 +22.4874792      5976.07     72.57037      1.433     2.57     4.513777     20.47431     636.2927        39     1.301     1.145  68.81   0
       342    825.9219    114.9749 300.3913796 +22.6394080     253.6163     72.57037      0.993     2.43     4.545865     20.47431     49.65176         5     0.913     0.357  30.60   0
       343    170.6740    113.6369 300.1879189 +22.4427582      744.439      72.5149      1.782     3.86     4.498763     20.47431     98.58149        15     1.284     0.853  49.30   0
       344    948.8290    111.8634 300.4306978 +22.6752983     454.5157     72.58886      1.636     4.21     4.208826     20.47431     51.16715         6     0.804     0.630  -7.62   0
       345     14.3050    110.3208 300.1404219 +22.3949319     764.6207      72.6812      1.637     3.69     5.216952     20.47431     68.45007        13     1.014     0.943  27.31   0
       346    291.3961    108.3674 300.2271485 +22.4774235     473.5251     72.57037      1.456     3.57     4.577595     20.47431     46.96804         6     0.836     0.521 -49.97   0
       347    334.8396    105.2631 300.2416621 +22.4895490     380.3574     72.57037      1.408     2.90      4.48349     20.47431     47.08298         6     0.859     0.602  72.11   0
       348     81.4166    104.5417 300.1631372 +22.4133923     444.1109     72.55189      1.163     3.15     4.684689     20.47431      49.4677         6     0.886     0.426 -71.37   0
       349    565.5189     99.5930 300.3152658 +22.5570199     6182.632      72.4964      1.342     2.29     4.585798     20.47431     790.2159        34     1.151     1.071  76.99   0
       350    450.9963     99.3208 300.2797163 +22.5226406      745.159     72.47789      1.406     2.67     4.463758     20.47431     101.1231        13     0.943     0.849  50.34   0
       351    585.9705     93.8238 300.3235018 +22.5614864     223.6486     72.57037      1.017     1.86     4.671736     20.47431     62.71294         5     0.736     0.441  57.02   0
       352    817.8725     89.5567 300.3971101 +22.6296894     818.5493     72.55189      1.404     2.85     4.760179     20.47431      117.591        13     0.958     0.870 -74.66   0
       353    910.7276     88.0760 300.4265298 +22.6570542     507.1523     72.64428      1.527     3.47     4.244478     20.47431     74.67231        12     1.090     0.865 -17.44   0
       354    258.2590     83.0731 300.2250448 +22.4602290      416.843     72.60734      1.153     3.44     4.655906     20.47431     67.36817        10     0.981     0.843  24.77   0
       355    693.8178     79.5956 300.3616929 +22.5896889     6328.703      72.5149      1.384     2.38      4.76763     20.47431     907.3884        32     1.214     1.034  86.39   0
       356    617.0543     81.9898 300.3370139 +22.5673931     516.5321     72.57037      1.372     2.92     4.717189     20.47431     62.79441         9     0.870     0.688 -10.10   0
       357    468.6398     78.6129 300.2919168 +22.5219753     1472.715     72.57037      1.377     2.69     4.460283     20.47431      192.981        18     1.077     0.906  72.50   0
       358    734.9957     76.9343 300.3753808 +22.6012514      830.992     72.57037      1.374     3.35     4.883738     20.47431     120.3842        13     1.091     0.830  86.22   0
       359    804.5803     75.0414 300.3976727 +22.6215367     457.3468     72.60734      1.670     3.26     4.847923     20.47431     58.99356         7     0.938     0.742  46.21   0
       360    750.8071     72.9806 300.3815875 +22.6048479     641.0568     72.53339      1.345     3.50     4.887969     20.47431     92.67639        10     1.058     0.726  38.89   0
       361    217.8410     70.8716 300.2164361 +22.4446130     787.3049     72.55189      1.469     4.29     4.834838     20.47431     81.49585        13     1.176     0.870 -65.72   0
       362     63.9673     72.0961 300.1682323 +22.3988467     316.3338     72.55189      1.366     3.78     4.632416     20.47431     36.22974         5     0.682     0.602  88.26   0
       363   1021.0310     70.9960 300.4664585 +22.6851463     428.7921     68.91057      1.356     2.92     4.488812     20.47431     63.48299         7     0.853     0.525 -39.95  16
       364    789.7269     68.6692 300.3951099 +22.6152583     479.8781     72.64428      1.473     3.54     4.883423     20.47431     68.43974         8     1.056     0.639 -62.86   0
       365    753.2692     63.3020 300.3854911 +22.6028019     1094.809     72.69965      1.893     5.37     4.888238     20.47431     88.59737        19     1.586     0.944  52.01   0
       366    738.0074     64.5216 300.3803417 +22.5985840     2832.309      72.4964      1.380     2.46     4.889749     20.47431      375.916        24     1.101     1.035  77.40   0
       367    379.2790     65.0865 300.2685026 +22.4913210     334.6364      72.7181      1.378     4.07     4.459756     20.47431     41.73056         7     1.000     0.590 -71.38   0
       368     31.4100     58.7246 300.1624540 +22.3852483     873.8192     72.55189      1.705     5.35     4.489814     20.47431     78.85323        16     1.341     0.966  49.92   0
       369    824.4088     56.1969 300.4099584 +22.6220522     1452.324     72.38529      1.272     2.38     4.657635     20.47431     182.3343        17     1.001     0.907  84.78   0
       370    984.8398     54.6479 300.4604702 +22.6696149     232.3997     72.60734      1.239     3.83     4.358461     20.47431     47.38457         5     0.900     0.530 -50.10   0
       371    902.7384     50.4086 300.4362469 +22.6438291      405.455      72.5149      1.875     4.47     4.174139     20.47431     47.91236         5     1.079     0.527  40.05   0
       372    762.5413     49.4250 300.3928766 +22.6015871     783.7065     72.57037      1.446     2.92     4.888454     20.47431     79.84249        11     0.908     0.765 -36.45   0
       373    568.2579     48.5540 300.3326590 +22.5431707     1159.354     72.62581      1.491     2.55     4.517913     20.47431     132.1131        14     0.940     0.911  89.74   0
       374    140.9348     48.9215 300.1996508 +22.4152619     568.0389     72.66274      1.483     3.69     4.886665     20.47431     54.91887         9     0.920     0.735  12.06   0
       375    471.9116     46.8648 300.3032230 +22.5138320     789.3514     72.69965      1.227     1.97     4.481626     20.47431     135.8315        10     0.927     0.668  43.94   0
       376    854.1907     45.5736 300.4226820 +22.6279102     467.4203     72.57037      1.406     3.33     4.316976     20.47431     63.62927         7     0.924     0.621  49.81   0
       377    243.3338     36.7414 300.2354190 +22.4424491     3880.615     72.60734      1.510     2.69     4.975779     20.47431     417.6518        33     1.371     1.063  56.46   0
       378    811.4636     37.4397 300.4120029 +22.6127834     615.1508     72.55189      1.284     2.89     4.773554     20.47431      86.6002        10     0.909     0.795  85.49   0
       379     35.7321     36.9261 300.1708592 +22.3802857     433.3232     72.64428      1.570     4.38     4.181487     20.47431     46.24741         7     0.978     0.558 -69.08   0
       380    804.6368     29.4639 300.4124601 +22.6084464     765.9988     72.57037      1.244     2.54     4.841743     20.47431     106.6209        10     0.906     0.684  34.64   0
       381    359.4038     28.9425 300.2740332 +22.4749827     1098.714     72.53339      1.337     2.67     4.442914     20.47431     153.2808        14     1.015     0.872 -46.65   0
       382    770.8304     28.5324 300.4022290 +22.5980603     413.3706     72.55189      1.367     5.27     4.890316     20.47431     42.66084        10     1.144     0.685 -24.67   0
       383    586.5482     25.8689 300.3457031 +22.5421267     229.1344     72.55189      1.498     4.15     4.469697     20.47431     29.54855         5     0.903     0.545 -42.61   0
       384    842.5870     24.2113 300.4259879 +22.6182934     762.4352     72.47789      1.593     3.76     4.359159     20.47431     72.90487        13     1.130     0.817  65.30   0
       385    766.0060     23.9602 300.4022075 +22.5953014     487.0532     72.60734      1.251     3.13     4.890737     20.47431     67.73204         8     0.985     0.527 -54.85   0
       386    862.5633     20.4302 300.4334387 +22.6231839     2400.655     72.58886      1.516     2.42     4.084675     20.47431     282.9998        23     1.091     1.073  49.78   0
       387    705.6280   1019.7496 300.0600713 +22.8632310     8630.943     72.36676      1.963     4.40     3.100536     20.47431     464.2216        48     1.529     1.467  45.09  19
       388    711.3000   1017.6147 300.0625323 +22.8643199      9256.55      72.4779      1.968     4.32     3.108169     20.47431     527.2599        55     1.583     1.491  15.30  19
       389    238.8140   1009.1794 299.9182930 +22.7201052     2525.519     72.53339      6.969    24.21     50.53518     20.47431     71.35632       146     5.572     2.921  75.44  19
       390    107.3222   1018.8327 299.8743017 +22.6833862     918.6169     72.55189      7.179    11.57     13.75226     20.47431     42.79613        17     2.675     1.393 -61.66  19
       391    246.0206     15.6965 300.2430726 +22.4372092      937.186     72.47789      1.426     2.61     5.068917     20.47431     134.9727        12     1.017     0.743 -51.86   0
