#   1 NUMBER                 Running object number                                     
#   2 X_IMAGE                Object position along x                                    [pixel]
#   3 Y_IMAGE                Object position along y                                    [pixel]
#   4 ALPHA_J2000            Right ascension of barycenter (J2000)                      [deg]
#   5 DELTA_J2000            Declination of barycenter (J2000)                          [deg]
#   6 FLUX_APER              Flux vector within fixed circular aperture(s)              [count]
#   7 FLUXERR_APER           RMS error vector for aperture flux(es)                     [count]
#   8 FLUX_RADIUS            Fraction-of-light radii                                    [pixel]
#   9 FWHM_IMAGE             FWHM assuming a gaussian core                              [pixel]
#  10 BACKGROUND             Background at centroid position                            [count]
#  11 THRESHOLD              Detection threshold above background                       [count]
#  12 FLUX_MAX               Peak flux above background                                 [count]
#  13 ISOAREA_IMAGE          Isophotal area above Analysis threshold                    [pixel**2]
#  14 A_IMAGE                Profile RMS along major axis                               [pixel]
#  15 B_IMAGE                Profile RMS along minor axis                               [pixel]
#  16 THETA_IMAGE            Position angle (CCW/x)                                     [deg]
#  17 FLAGS                  Extraction flags                                          
         1    234.8581     24.4949 300.2354411 +22.4423914     3869.276     72.45966      1.546     2.78     4.945153     20.42227     440.6846        36     1.361     1.155  56.10   0
         2    350.7478     16.6081 300.2740237 +22.4748595     1208.557     72.38594      1.400     2.32     5.285171     20.42227      183.727        18     1.095     0.897  72.45   0
         3    833.9011     11.9089 300.4259416 +22.6182311     510.5368     72.57008      1.487     3.49     5.195821     20.42227     57.18912        11     1.028     0.787  59.13   0
         4    757.4474     11.9263 300.4021166 +22.5953448     477.1852     72.38594      1.338     3.73     5.303825     20.42227      57.5407         8     0.948     0.618  48.24   0
         5    854.0479      8.2980 300.4333897 +22.6232238     2203.849     72.42281      1.458     2.44     5.122148     20.42227      299.249        26     1.324     0.948  72.23  16
         6    559.1737      6.5629 300.3421185 +22.5344201     348.3625     72.40437      1.317     2.98     4.922017     20.42227     63.65968         8     0.951     0.677  89.15  16
         7    237.4580      3.6016 300.2430189 +22.4371672     1021.907     67.42197      1.626     3.32     4.947062     20.42227      106.603        17     1.126     0.946  46.98  24
         8    802.4927      1.3655 300.4195717 +22.6057940     576.1328     56.50146      0.947     2.12     5.372491     20.42227     120.7432         8     0.879     0.482   0.09  24
         9    797.2148   1008.3423 300.0909460 +22.8935937     635.8069     72.34906      1.773     6.98      3.12282     20.42227     55.22724        16     1.208     1.130  22.70   0
        10    294.2780   1021.3903 299.9302076 +22.7463586     1455.035     67.48132      8.150    13.20     65.96545     20.42227     55.96313        48     3.247     1.494   3.72  27
        11    264.0257   1007.3685 299.9253678 +22.7332520     3774.292     72.38594      6.359    24.57     64.44888     20.42227     82.01381       190     4.623     3.625 -48.50  19
        12    283.1821   1006.1686 299.9317117 +22.7386616     4728.116      72.3675     10.424    41.18     61.40029     20.42227     94.86533       466     9.376     5.020 -43.96  19
        13    139.0658    977.6715 299.8962060 +22.6872023       4796.6     72.42281     24.171    82.91     33.05428     20.42227     99.20265      3301    18.279    15.852 -37.21  19
        14    191.5482    974.1545 299.9136532 +22.7019596     1524.569     72.40437      5.815     6.38     43.86725     20.42227     54.15219        17     1.675     1.029  65.25   2
        15     18.7672    980.0195 299.8580871 +22.6517317     467.4873     72.38594      1.835     4.35    0.9661815     20.42227     42.09003         6     0.951     0.567  62.05   0
        16    715.4598    974.6129 300.0764584 +22.8593818     7017.871      72.3675      1.892     4.01     3.155457     20.42227     417.3405        50     1.538     1.443  21.57   0
        17    140.3875    937.4652 299.9096951 +22.6760736     3316.353      72.3306     15.716    43.62      15.8245     20.42227     77.78317       698     9.077     6.612 -36.44   3
        18    236.8131   1017.2078 299.9137100 +22.7278991     3093.837     72.27523      5.827    22.74     74.63185     20.42227     64.03658       182     4.392     3.864  70.26  24
        19    990.0166    991.4572 300.1565242 +22.9465809     791.4666     72.34906      2.213     8.20     2.440521     20.42227     45.57113        17     1.586     1.184  65.39   0
        20    595.2328    969.1843 300.0407966 +22.8217437     420.5514      72.3675      2.015     2.96     2.699347     20.42227     46.06255         6     0.734     0.574  33.96   0
        21    308.4644    968.3498 299.9518739 +22.7354103    -172.4753     72.44123      0.750     0.55     25.50199     20.42227     239.9152         6     0.917     0.465 -42.32   0
        22    230.1296    994.8123 299.9189199 +22.7194709     1385.427     72.40437      4.594    11.46      60.4814     20.42227     55.74932        28     2.809     1.301  77.36   2
        23    623.8561    965.4840 300.0509094 +22.8292725     1595.707     72.47807      1.821     4.27     2.835008     20.42227      110.866        24     1.323     1.199   7.75   0
        24    517.7404    962.0132 300.0190158 +22.7964264     1083.416      72.3675      2.058     4.73     2.763534     20.42227     76.26024        21     1.299     1.207  57.23   0
        25    448.3919    959.7550 299.9981778 +22.7749603      6377.22     72.40438      1.803     3.87     2.944671     20.42227     478.6383        45     1.423     1.381  31.73   0
        26    451.2885    990.9766 299.9889213 +22.7847857     1270.392     72.31216      0.550     0.83     2.705681     20.42227     831.9936         6     0.457     0.372 -13.45   0
        27    480.8046    946.5344 300.0125605 +22.7808981     364.1708     72.38594      1.708     6.15     2.913881     20.42227     39.99512         9     1.527     0.753  32.90   0
        28    994.7527    938.7419 300.1751520 +22.9328619      2229.49     72.44123      2.051     4.97      2.74864     20.42227     110.7991        35     1.598     1.340 -21.34   0
        29    423.2043    990.8314 299.9802340 +22.7763119      12158.4      72.3675      0.821     1.82     2.803971     20.42227      4359.85        15     0.776     0.517  44.86   0
        30    644.7356    935.3513 300.0672114 +22.8268910     397.4987     72.40438      1.876     4.06     3.092122     20.42227      33.2688         6     0.927     0.508  40.64   0
        31    783.2778    926.7661 300.1131453 +22.8659948     751.4553      72.3675      2.114     3.98     3.178493     20.42227     57.06713        12     1.022     0.882  75.03   0
        32    818.4481    921.6919 300.1257519 +22.8750885     993.8641     72.42281      1.750     4.28     3.220608     20.42227     70.22174        18     1.120     1.103   1.85   0
        33    302.0565    994.8538 299.9412595 +22.7410860     7357.819     72.44123      8.375    35.02     43.34244     20.42227     159.8091       678    11.002     4.500  65.75  18
        34    595.4021    922.1545 300.0561483 +22.8082990     351.0832     72.38594      1.394     4.98     3.076778     20.42227     36.91207         7     1.155     0.607 -34.68   0
        35    975.8134    920.2191 300.1752730 +22.9218625     393.2122     72.34906      1.930     3.74     2.892555     20.42227     43.11457         5     1.040     0.387  87.48   0
        36     28.5267    918.4225 299.8811524 +22.6370105     297.9518     72.44123      1.432     4.51     3.661719     20.42227      53.8259         8     1.268     0.666  58.58   0
        37    840.6359    915.3450 300.1347291 +22.8799216      11374.6     72.40438      1.842     4.03     3.266603     20.42227     691.3099        59     1.505     1.461 -89.37   0
        38    886.8134    915.3005 300.1491324 +22.8937592     314.0663     72.29369      1.373     3.12     3.188039     20.42227     50.60882         6     0.772     0.578 -53.45   0
        39    973.1207    909.1425 300.1780366 +22.9178737     363.1944     72.42281      1.683     4.37     2.966276     20.42227     31.86079         5     0.787     0.692 -34.95   0
        40    151.9105    906.7509 299.9232639 +22.6707292     909.3457     72.38594      2.715     7.52     11.08826     20.42227      48.2517        17     1.492     1.090  16.46   0
        41    546.0375    903.9166 300.0467181 +22.7882503      351.305      72.3675      1.442     4.44     3.131408     20.42227     43.38584         8     1.078     0.704   0.46   0
        42    848.9838    897.3868 300.1431713 +22.8772690     1336.248      72.3306      1.751     4.35     3.378517     20.42227      83.2645        23     1.286     1.157 -64.24   0
        43     46.5289    993.5844 299.8622930 +22.6639609     467.2549     72.38594      1.815     4.61     6.028635     20.42227     38.15168         7     0.902     0.670  84.20   0
        44    699.7924    895.2988 300.0973805 +22.8319150     688.5496     72.25676      1.502     0.34     3.303148     20.42227     232.9577         6     1.521     0.459 -33.39   0
        45    887.6031    890.8846 300.1573201 +22.8869845     845.9381     72.31216      1.959     3.78     3.357252     20.42227       71.258        13     1.047     0.860 -16.71   0
        46    935.9236    882.2689 300.1751823 +22.8990010     480.6726     72.47807      1.653     4.96     3.337718     20.42227     51.90767        12     1.088     0.871  16.69   0
        47    787.1560    881.3220 300.1291345 +22.8541110     742.0606      72.3675      1.757     4.50     3.534144     20.42227     55.96222        15     1.198     0.914  10.73   0
        48    499.5899    877.5555 300.0408399 +22.7667457     4143.245     72.40438      1.685     3.39     3.293308     20.42227     345.7709        34     1.274     1.233  82.92   0
        49     46.7370    879.7433 299.8993846 +22.6313943     319.3575     72.44123      1.358     4.70      3.76053     20.42227     43.71204         7     1.008     0.623  78.32   0
        50    798.2831    878.2447 300.1336014 +22.8565651      635.158     72.34906      1.716     5.34     3.581297     20.42227     53.41381        15     1.270     1.060 -73.66   0
        51    277.7808    866.0892 299.9755965 +22.6968694     359.2949      72.3306      1.439     4.86     4.748308     20.42227     37.70648         7     1.147     0.583  67.96   0
        52    543.1469    865.8871 300.0581865 +22.7764696      391.656     72.42281      1.700     5.84     3.351754     20.42227     42.65283         7     1.269     0.756  -3.99   0
        53    224.6798    863.2469 299.9600188 +22.6801093     1008.275     72.40438      2.336     4.64     4.669824     20.42227     62.57521        19     1.361     0.960  64.61   0
        54    142.3501    865.2247 299.9337982 +22.6559515     267.2795     72.40438      1.511     2.56     4.385715     20.42227     40.39303         5     0.823     0.613  38.41   0
        55    134.2511    861.8973 299.9323645 +22.6525650     467.9386     72.45966      1.862     4.54     4.251345     20.42227     47.03234         5     0.954     0.637 -19.49   0
        56    201.9748    860.1866 299.9539592 +22.6724134     1670.316     72.38594      1.825     3.94      4.64362     20.42227     142.1867        23     1.355     1.133   7.25   0
        57     77.1018    849.3232 299.9187043 +22.6317946     454.7444     72.53329      2.235     6.44     3.661317     20.42227     36.49384         9     1.406     0.828  47.00   0
        58    733.4061    848.5211 300.1230605 +22.8285700     640.4351     72.31216      2.422     6.76     3.554143     20.42227     39.34425        10     1.420     0.903 -46.46   0
        59    504.0266    847.2016 300.0520908 +22.7593670     342.0678      72.3306      2.055     4.75     3.388612     20.42227     24.87673         5     0.948     0.676  26.38   0
        60    811.7930    841.6979 300.1496951 +22.8501230     593.6993     72.25676      1.556     4.30     3.707249     20.42227     54.79565        14     1.133     0.856  29.26   0
        61    234.2055    841.8664 299.9699308 +22.6768379     420.8783     72.38594      1.555     3.28     4.526799     20.42227     51.77673         9     0.916     0.718 -80.10   0
        62    679.6589    835.6210 300.1105189 +22.8087429     4803.952      72.3675      1.618     3.29     3.449821     20.42227     436.5746        35     1.265     1.220 -20.77   0
        63    481.9210    832.5176 300.0499884 +22.7485190     678.4133     72.51489      1.693     4.27     3.436465     20.42227     65.54995        13     1.190     0.775  77.71   0
        64    700.0961    828.3248 300.1192548 +22.8127792      699.115     72.53329      1.511     5.27     3.523637     20.42227     56.32954        13     1.179     0.907 -39.99   0
        65    229.7629    829.3551 299.9726181 +22.6719156     1372.161     72.42281      1.644     3.94      4.43826     20.42227     112.4194        22     1.301     1.061   9.81   0
        66    248.8777    826.5175 299.9794806 +22.6768412     479.9314     72.47807      1.621     6.03     4.424638     20.42227     37.82657        11     1.270     0.806  28.83   0
        67    616.8624    819.1415 300.0963279 +22.7851723     335.6421     72.44123      1.310     3.78     3.474737     20.42227     34.90002         6     0.759     0.565 -34.67   0
        68    855.7057    815.4346 300.1719165 +22.8557500     4215.314      72.3675      1.676     3.44     3.728089     20.42227     344.5633        35     1.293     1.239  47.32   0
        69    264.2904    809.4969 299.9898040 +22.6765867     398.6922     72.57008      1.545     4.71     4.302045     20.42227     36.95514         8     1.160     0.542  71.34   0
        70    572.8301    807.7911 300.0863137 +22.7687028     542.8155      72.3675      1.484     3.02     3.424031     20.42227     69.87746        12     0.962     0.834 -52.96   0
        71    218.8558    805.7374 299.9769071 +22.6618668     931.3683     72.44123      1.587     3.60     4.277011     20.42227      107.364        18     1.125     1.029 -10.98   0
        72    368.6770    797.8834 300.0260289 +22.7045918     53138.12     72.49648      1.604     3.15     3.888014     20.42227     5348.378        98     1.446     1.403  36.42   0
        73    634.5771    801.5862 300.1075498 +22.7854475     496.5952      72.3675      1.573     5.07     3.518118     20.42227      46.2986        11     1.190     0.711  25.51   0
        74    626.6789    797.1027 300.1065488 +22.7817908     1598.825     72.49648      1.548     2.96     3.524889     20.42227     168.5453        21     1.164     1.010  56.16   0
        75    297.4192    796.0963 300.0044572 +22.6826886     325.7005     72.29369      1.207     3.93     4.217186     20.42227     56.15672         8     0.909     0.630 -38.34   0
        76    655.5018    793.1075 300.1168204 +22.7892907     873.0563     72.57008      1.533     3.61     3.537617     20.42227      81.4421        15     1.129     0.880 -50.96   0
        77     54.9197    792.5638 299.9302689 +22.6088586     937.2231      72.3306      2.062     4.04     3.380611     20.42227     80.35579        13     1.183     0.884 -59.16   0
        78     22.0860    792.5196 299.9200891 +22.5989841     821.9149     72.55169      2.140     5.57     3.184743     20.42227     65.27689        17     1.299     1.047  18.02   0
        79    666.3137    791.4006 300.1207413 +22.7920440     502.8829     72.27523      1.512     3.85     3.545522     20.42227     60.38386        12     1.021     0.899 -13.76   0
        80    772.0587    787.8112 300.1548382 +22.8227314     414.0175      72.3306      1.407     4.35     3.780471     20.42227     45.22233         8     1.111     0.760  60.92   0
        81    566.3023    785.0470 300.0916763 +22.7602157     337.0279     72.42281      1.523     5.20     3.447747     20.42227     36.81925         6     1.089     0.702  -0.68   0
        82    809.7442    778.1177 300.1697289 +22.8312494     789.1963     72.44123      1.535     4.60     3.835228     20.42227     70.56049        14     1.221     0.836  77.87   0
        83    418.4040    775.1541 300.0488810 +22.7129952     31119.28      72.3675      1.570     2.92       3.7067     20.42227     3199.807        80     1.390     1.357  48.38   0
        84    432.7263    775.7230 300.0531504 +22.7174568      1994.78     72.49648      1.602     3.17     3.706772     20.42227     190.4333        26     1.208     1.174 -45.67   0
        85    941.5646    771.1432 300.2130746 +22.8687713     2712.548     72.40437      1.626     3.39     3.925464     20.42227     223.9895        28     1.223     1.198 -86.45   0
        86    971.0540    769.8436 300.2226899 +22.8772386     409.0453     72.40437      2.040     4.70     3.919593     20.42227     37.70654         6     1.128     0.625 -12.43   0
        87    429.5563    769.7775 300.0540972 +22.7147992     718.6354     72.44123      1.819     3.00     3.753622     20.42227     69.41552         9     1.011     0.729 -48.14   0
        88    699.5881    767.2648 300.1389478 +22.7950952      898.825      72.3306      1.484     3.28     3.704377     20.42227     91.03387        16     1.062     0.977  85.42   0
        89    300.8232    766.9407 300.0149926 +22.6753462      885.095     72.38594      1.541     3.63     4.203928     20.42227     94.42137        14     1.026     0.937 -73.62   0
        90    536.3925    766.8687 300.0882782 +22.7460236     393.8514      72.3675      1.451     3.37     3.509769     20.42227     56.69722         6     0.887     0.664  81.34   0
        91    546.6592    761.9069 300.0930858 +22.7476797     942.9427     72.45966      1.559     2.85     3.476554     20.42227      107.715        16     1.025     0.943  43.11   0
        92    105.6620    762.2719 299.9558723 +22.6154115     602.5928     72.42281      2.114     6.06     3.706158     20.42227     48.93327        10     1.225     0.842  25.48   0
        93    947.4490    758.6838 300.2189592 +22.8669559     494.6678      72.3675      1.563     4.22     3.988818     20.42227     56.59084        13     1.176     0.786  49.15   0
        94    448.4124    758.4086 300.0636574 +22.7171953     227.4063     72.27523      1.140     3.45      3.86478     20.42227     40.68889         6     0.846     0.523 -45.23   0
        95    404.3116    757.8138 300.0501348 +22.7037897     284.9637      72.3306      1.439     4.27     3.883427     20.42227     35.19177         6     0.782     0.665   7.39   0
        96    492.3537    756.8604 300.0778295 +22.7299368     439.3256     72.42281      1.539     3.27     3.829139     20.42227     49.69305         9     0.895     0.696  22.06   0
        97    134.2237    756.0474 299.9667665 +22.6222031     566.8492     72.40437      1.760     4.17     3.941346     20.42227     68.57381        10     1.134     0.789  13.28   0
        98    925.4253    753.8017 300.2136812 +22.8589507     390.9815      72.3306      1.452     3.30     4.012139     20.42227     42.90238         5     1.076     0.293  35.12   0
        99    298.8598    751.4862 300.0194055 +22.6703230     395.2953     72.49648      1.451     4.62     4.210268     20.42227     51.17673         8     1.114     0.689 -25.97   0
       100    621.9884    741.8032 300.1230648 +22.7645076      450.896     72.20133      1.453     3.89     3.572081     20.42227     46.21645         8     0.852     0.728 -25.12   0
       101    591.6293    740.0739 300.1141773 +22.7549038     642.6951     72.40437      1.501     3.80     3.542781     20.42227     68.43416        14     1.035     0.976   5.62   0
       102    500.8774    738.8003 300.0863514 +22.7273106     320.4284     72.25676      1.248     4.62      3.89648     20.42227     43.23877         8     0.988     0.710  82.28   0
       103   1007.9855    736.4131 300.2450715 +22.8787035     4578.951     72.31216      1.710     3.47     4.108634     20.42227     350.1123        37     1.347     1.305  -3.75   0
       104    613.5074    737.3704 300.1218657 +22.7606907     1354.765     72.34906      1.391     2.80     3.557659     20.42227     147.5912        19     1.123     0.955 -61.47   0
       105    533.5959    737.1161 300.0970787 +22.7366440     271.9179     72.31216      1.169     3.14     3.637037     20.42227      55.2727         8     0.897     0.625  36.37   0
       106    996.4781    727.9957 300.2442195 +22.8728355     1618.069     72.29369      1.655     3.54     4.108634     20.42227     128.9904        26     1.276     1.125  26.30   0
       107    359.4109    721.5231 300.0479678 +22.6799000     810.0457     72.38594      1.507     3.30     4.071003     20.42227     93.05608        14     1.025     0.928 -84.34   0
       108    822.8018    719.1779 300.1929553 +22.8182358      2736.62      72.3306      1.624     3.26      3.93698     20.42227     224.0993        31     1.330     1.226  -3.91   0
       109     45.3221    709.0356 299.9544357 +22.5820248     846.1691     72.34906      1.787     3.78     3.420706     20.42227     91.59369        15     1.270     0.968  24.62   0
       110    207.7130    705.3597 300.0060697 +22.6297285     590.9669      72.3675      1.734     5.92     4.149936     20.42227     65.94408        12     1.285     0.912  47.50   0
       111    905.1349    705.0082 300.2232164 +22.8388494     560.4606      72.3675      1.556     5.13     4.037283     20.42227     49.07499         9     0.948     0.786  -4.84   0
       112    941.2183    696.0526 300.2373738 +22.8470928       148115      72.3675      1.610     3.12     4.108634     20.42227     12080.18       169     1.543     1.518  43.06   0
       113    704.0792    699.6967 300.1623075 +22.7770389     282.9268     72.49648      1.345     4.40     3.921429     20.42227     42.77584         7     0.881     0.625 -79.75   0
       114    793.6012    696.4698 300.1912383 +22.8029573     826.6293      72.3306      1.564     2.69     3.936077     20.42227     78.20348        13     0.923     0.849 -56.40   0
       115    974.1117    689.1799 300.2498615 +22.8549774     476.7676     72.31216      1.574     5.11     4.108634     20.42227     41.07731        10     1.015     0.866  42.49   0
       116    627.4564    684.8210 300.1432856 +22.7497864     1609.734     72.42281      1.355     2.58     4.034366     20.42227      206.781        17     1.082     0.860  55.70   0
       117    808.7159    682.1400 300.2006036 +22.8033729     9515.824     72.49648      1.471     2.80     3.927501     20.42227     909.0854        45     1.268     1.203 -61.92   0
       118    290.3274    683.7322 300.0387717 +22.6483218     260.4921     72.44123      1.402     3.84     4.113066     20.42227     36.50821         5     0.920     0.460 -43.91   0
       119    310.1595    677.1847 300.0470639 +22.6523953     4871.904     72.40437      1.449     2.85      4.09052     20.42227     488.4212        30     1.183     1.132  75.48   0
       120     23.9012    675.6815 299.9586225 +22.5660271     1805.025     72.53329      1.883     3.54     3.426846     20.42227     156.4067        32     1.459     1.317  30.05   0
       121    392.2092    675.3151 300.0731818 +22.6764817     993.3063      72.3306      1.210     2.51     4.074708     20.42227     127.5942        13     0.950     0.790 -70.40   0
       122    267.8339    673.2906 300.0351731 +22.6385744     496.2807      72.3675      1.516     4.98     4.100102     20.42227     49.69709         9     0.898     0.782 -64.92   0
       123    600.3889    670.7965 300.1394173 +22.7376405     819.7294     72.20133      1.444     3.96     4.178884     20.42227     107.1887        15     1.256     0.798  20.03   0
       124    592.1680    662.9509 300.1394079 +22.7329219     3066.475     72.42281      1.378     2.54     4.189175     20.42227     382.0064        27     1.101     1.085  17.18   0
       125    582.4659    656.7605 300.1383996 +22.7282343     1458.317     72.34906      1.370     2.56     4.197773     20.42227      180.701        19     1.049     0.978  41.99   0
       126    511.3349    655.8087 300.1165740 +22.7066239     176.2081      72.3675      1.335     4.32     4.211555     20.42227      32.9989         5     0.978     0.543  40.57   0
       127    778.1356    655.3453 300.1997840 +22.7865068     221.6768     72.44123      1.259     4.47     3.958093     20.42227     41.58707         5     0.851     0.668 -27.04   0
       128    975.8941    654.3959 300.2617204 +22.8455155     475.5283     72.29369      1.585     4.16     4.093798     20.42227     51.11352         6     0.781     0.633  54.29   0
       129    493.0997    654.0840 300.1114611 +22.7006583     284.3905     72.55169      1.365     3.76     4.211583     20.42227     34.69425         5     0.982     0.414  44.54   0
       130    245.7302    652.9244 300.0349205 +22.6260964     641.9118     72.45966      1.385     2.87     4.093322     20.42227     93.78426        14     1.119     0.771 -53.66   0
       131    260.0208    651.1914 300.0399248 +22.6298883     547.7808      72.3675      1.296     5.25     4.080257     20.42227     68.40225        10     1.323     0.589  44.88   0
       132    606.4042    647.1017 300.1489885 +22.7326407     426.6482     72.27523      1.438     4.47     4.197342     20.42227     41.17078         9     0.865     0.814 -39.02   0
       133    316.6391    648.3177 300.0584571 +22.6460559     213.8643     72.34906      1.087     3.77     4.045504     20.42227     42.25376         8     0.944     0.654   2.09   0
       134    285.5532    647.9930 300.0488996 +22.6366335     431.0179     72.40438      1.432     3.17     4.055361     20.42227     72.47952        10     0.929     0.882  30.07   0
       135    507.2138    646.3947 300.1183505 +22.7026848     1834.546     72.25676      1.408     2.56     4.214699     20.42227     204.5769        20     1.073     0.944  49.91   0
       136    161.1410    641.3379 300.0124016 +22.5973811     19733.03     72.44123      1.582     2.97     4.021171     20.42227     2020.244        63     1.432     1.298  33.12   0
       137    591.9318    641.8404 300.1461933 +22.7267891     1070.072     72.34906      1.419     2.67     4.205582     20.42227     131.5429        14     0.980     0.856 -74.22   0
       138     82.1120    642.7520 299.9873955 +22.5740612     746.7623     72.38594      1.947     3.88     3.822075     20.42227     68.15513        12     1.104     0.817  23.97   0
       139    627.6503    641.0131 300.1575801 +22.7372643     414.8625     72.44123      1.369     3.39     4.198888     20.42227      48.4319         7     0.835     0.610 -63.69   0
       140    345.4831    633.3224 300.0722960 +22.6504081     200.4059     72.49648      0.986     3.90     4.014463     20.42227     44.41821         7     0.944     0.532  27.90   0
       141    674.5950    629.4178 300.1759624 +22.7480125     287.0945     72.34906      1.312     3.63     4.241272     20.42227      40.9305         6     0.962     0.852 -46.66   0
       142   1010.0397    627.8767 300.2809831 +22.8481266     907.4418      72.3675      1.641     4.48     4.143771     20.42227     71.97572        19     1.221     1.142   7.93   0
       143    876.4940    626.0339 300.2399524 +22.8075722     547.0248     72.34906      1.523     3.87     3.905239     20.42227     68.17593        11     1.082     0.887  -5.07   0
       144    107.1677    625.3436 300.0008321 +22.5765899     1334.914     72.40437      1.725     4.26     3.868539     20.42227     128.9803        23     1.427     1.033  87.62   0
       145    555.4496    622.7102 300.1410542 +22.7103535     405.2853     72.38594      1.261     3.28     4.224647     20.42227      56.2477         9     0.982     0.661 -41.03   0
       146    950.4499    620.7433 300.2647221 +22.8282183     816.6023     72.44123      1.888     3.17     4.005932     20.42227     82.45411        15     1.044     0.931   0.13   2
       147    348.2372    621.4444 300.0770109 +22.6478253     202.8826     72.45966      1.219     4.23     3.994509     20.42227      39.2025         6     0.777     0.656 -30.99   0
       148    694.6830    619.1510 300.1855526 +22.7510873     102.4821     72.38594      1.073     3.03     4.238288     20.42227     41.21692         5     0.870     0.463  86.45   0
       149    512.2729    614.7330 300.1302105 +22.6951119     706.4443     72.42281      1.302     2.75     4.225385     20.42227     93.01421        10     0.908     0.695  51.06   0
       150    660.1984    613.0616 300.1767936 +22.7389976      413.248     72.34906      1.265     2.52     4.299545     20.42227     56.98641         8     0.797     0.691 -84.86   0
       151    707.4184    611.7206 300.1919322 +22.7527717     433.9895     72.38594      1.108     2.58     4.237708     20.42227     79.42402        10     0.897     0.718  36.95   0
       152    677.7797    611.3716 300.1828166 +22.7437842     567.0417     72.38594      1.291     2.70     4.314352     20.42227      71.4362        10     0.825     0.784  19.35   0
       153    556.5197    610.5021 300.1453531 +22.7071688     1053.998     72.51489      1.491     2.64     4.230373     20.42227     112.4391        15     1.100     0.787  38.12   0
       154    990.2555    606.0527 300.2819045 +22.8359251     3357.711     72.42281      1.597     3.11     4.092778     20.42227     309.1623        32     1.325     1.200  87.26   0
       155    521.9818    605.8897 300.1361041 +22.6954850     1743.276     72.31216      1.369     2.67     4.234466     20.42227     217.7592        23     1.045     1.041 -52.84   0
       156     83.8758    599.4789 300.0019997 +22.5621777      5000.95     72.49648      1.668     3.19     3.921669     20.42227     495.9101        42     1.383     1.315  48.68   0
       157    551.1187    596.6243 300.1481803 +22.7015638       337.88     72.34906      1.615     5.33     4.262011     20.42227     40.95464        10     1.159     0.796 -58.84   0
       158    385.3542    592.6290 300.0979122 +22.6506910     8805.734     72.42281      1.411     2.48     4.042706     20.42227     1147.908        38     1.216     1.116  54.27   0
       159    507.8162    589.7715 300.1369322 +22.6866078     8989.701     72.38594      1.355     2.38     4.257106     20.42227     1269.862        41     1.187     1.118  44.70   0
       160    273.2121    586.8922 300.0649117 +22.6153952     262.6355      72.3306      1.400     3.84     4.008576     20.42227     32.73702         6     0.753     0.578 -46.31   0
       161    754.3480    586.2556 300.2148199 +22.7595268      357.089     72.42281      1.595     3.50     4.223318     20.42227     39.76963         5     0.774     0.456  77.40   0
       162    919.4729    583.7800 300.2670739 +22.8083113     1910.102     72.38594      1.464     2.51     3.899171     20.42227     221.2418        21     1.142     0.939  80.53   0
       163   1004.1665    581.1838 300.2943206 +22.8329452     12468.97      72.3675      1.555     2.95     4.063106     20.42227      1223.25        55     1.342     1.312 -35.77   0
       164    568.3814    579.3361 300.1591681 +22.7017765     11573.08     72.34906      1.326     2.36      4.30798     20.42227     1321.535        43     1.162     1.132  42.10   0
       165    737.7505    575.1531 300.2132567 +22.7513612     504.7539     72.42281      1.331     3.23     4.396803     20.42227     76.21254        11     1.103     0.637  27.26   0
       166    295.8567    574.7446 300.0758957 +22.6187040     1388.198     72.44123      1.453     2.64     3.996209     20.42227     174.4364        17     1.020     0.913  21.10   0
       167    453.8992    573.9705 300.1252910 +22.6658978     252.7443     72.31216      1.214     3.83     4.246177     20.42227     40.22061         5     0.815     0.517 -32.77   0
       168    542.7233    572.3506 300.1534522 +22.6920752     408.4658     72.38594      1.359     2.46     4.323686     20.42227     62.00089         6     0.802     0.507  48.97   0
       169    842.9583    567.7883 300.2484232 +22.7807830     826.1388     72.38594      1.433     3.44     3.854103     20.42227     104.8915        15     1.202     0.850  55.15   0
       170    500.0828    567.4761 300.1417676 +22.6778862     4571.328     72.49648      1.356     2.42     4.283916     20.42227     560.0937        33     1.191     1.073  65.30   0
       171    478.3611    565.9842 300.1354944 +22.6709424     1216.093     72.40437      1.280     2.36      4.26297     20.42227     157.2977        17     1.008     0.883  56.94   0
       172    232.6795    565.4568 300.0592764 +22.5970799     675.1452     72.42281      1.334     3.55     4.005088     20.42227      87.8549        11     1.017     0.792 -57.14   0
       173    919.9863    563.0140 300.2739791 +22.8024969     1542.232     72.31216      1.543     3.13     3.886511     20.42227     139.2829        22     1.189     1.043 -20.36   0
       174    616.6938    555.0632 300.1820889 +22.7092933     199746.1     72.47807      1.354     2.34     4.402146     20.42227      27251.1       213     1.465     1.442  37.79   0
       175    166.6552    562.9393 300.0395793 +22.5765424     289.7774     72.45966      1.320     3.44     3.956339     20.42227     41.39977         5     0.794     0.430  72.33   0
       176    800.3336    560.0698 300.2376498 +22.7657886     825.7233     72.42281      1.326     2.90     3.938346     20.42227     112.8304        14     1.091     0.783 -38.80   0
       177    440.3351    560.9282 300.1253077 +22.6580843     359.6058     72.42281      1.185     3.73     4.302359     20.42227     48.20258         6     0.775     0.599  27.88   0
       178   1003.9363    557.2334 300.3020283 +22.8259913     224.8636     72.38594      1.328     4.33     3.996367     20.42227     39.82515         5     0.862     0.620 -36.11   0
       179    302.8192    554.9942 300.0844743 +22.6151243     3530.097     72.34906      1.435     2.56     3.996616     20.42227     478.9113        27     1.141     1.048  73.69   0
       180    868.5338    551.1092 300.2618099 +22.7836553     529.9653     72.51489      1.526     4.42     3.789743     20.42227     51.61554        11     1.004     0.828  -3.62   0
       181    647.8176    541.7184 300.1961118 +22.7147926     244.6231     72.34906      1.344     4.61     4.581842     20.42227     43.46088         7     1.040     0.579 -20.94   0
       182    507.2498    535.6499 300.1543335 +22.6708965     2841.954     72.42281      1.491     2.50     4.320256     20.42227     296.2754        33     1.499     1.041  86.16   0
       183    351.8496    537.6388 300.1053535 +22.6248530     438.5905     72.40437      1.346     2.77     4.052079     20.42227     71.15865         9     0.865     0.728  74.45   0
       184    956.8422    535.2529 300.2944842 +22.8055617     214.5542     72.38594      1.245     4.73     3.921901     20.42227      36.2524         6     0.968     0.655  27.17   0
       185    918.8291    531.6705 300.2837981 +22.7931412     397.0466     72.38594      1.369     3.85     3.902041     20.42227     48.94144         7     0.920     0.566  53.98   0
       186    824.8364    524.1710 300.2569425 +22.7628170     511.7194     72.40437      1.483     2.89     4.066602     20.42227      52.9265         8     0.788     0.679  48.12   0
       187    904.3875    521.4581 300.2826134 +22.7858781     1720.834     72.34906      1.493     2.69     3.956219     20.42227     202.8872        21     1.094     1.029 -83.90   0
       188    775.4834    519.2617 300.2431616 +22.7466136     2545.092     72.47807      1.308     2.37     4.348151     20.42227     306.2711        22     1.069     0.957  60.96   0
       189     34.6218    520.0391 300.0125029 +22.5246023     704.0021     72.42281      1.457     2.99     4.192655     20.42227     88.48708        11     0.952     0.774  -8.17   0
       190    135.1254    519.5559 300.0438723 +22.5546305     265.7617      72.3675      1.176     3.43     3.986586     20.42227     37.11011         5     0.776     0.439 -21.39   0
       191    680.1976    516.0674 300.2145233 +22.7171317     395.7803      72.3675      1.343     2.97     4.702891     20.42227     64.77052         9     0.909     0.685   9.26   0
       192    562.8077    515.0408 300.1783141 +22.6816391      741.098     72.40437      1.309     3.20     4.409775     20.42227     111.4024        11     1.040     0.750  65.73   0
       193   1018.6437    512.5966 300.3211109 +22.8175652      955.712     72.40438      2.104     2.95     3.968972     20.42227     73.63431        12     0.968     0.778  45.50  16
       194    904.5861    511.5392 300.2858963 +22.7830866     2227.475     72.34906      1.666     4.32      3.99461     20.42227      219.666        27     1.494     1.044  76.76   0
       195    657.9576    509.5613 300.2097114 +22.7085949     559.4286     72.47807      1.388     3.13     4.691971     20.42227     84.33977        10     1.026     0.641  86.34   2
       196    657.4062    505.5491 300.2108425 +22.7072769     281.0224      72.3675      1.296     2.77     4.699169     20.42227     48.37419         5     0.721     0.466  20.71   2
       197    942.8275    506.7216 300.2993807 +22.7931607     4398.451     72.40437      1.444     2.74     3.923926     20.42227     496.6792        33     1.251     1.121 -71.52   0
       198    496.3828    508.4123 300.1597972 +22.6598153     536.0068     72.34906      1.317     2.64     4.291593     20.42227     63.67924         7     0.766     0.654  61.36   0
       199    584.1494    506.1618 300.1878393 +22.6854883     282.1037     72.38594      1.777     5.14     4.518395     20.42227     30.40368         5     1.164     0.641  20.67   0
       200    680.3085    503.3255 300.2186953 +22.7135042     150.4519     72.53329      1.115     3.81     4.713849     20.42227     36.52308         5     0.902     0.462  45.30   0
       201    603.4260    502.2954 300.1950947 +22.6901577     349.0052      72.3306      1.172     3.41     4.634947     20.42227     37.25382         5     0.728     0.461  71.54   0
       202    174.8614    496.9051 300.0635710 +22.5600556     921.0723     72.47807      1.404     2.92     4.025484     20.42227      113.141        17     1.052     0.970 -64.31   0
       203    836.0052    491.0297 300.2711841 +22.7566397     255.9948      72.3675      1.256     2.47     4.371079     20.42227     53.99526         7     0.858     0.498  51.07   0
       204    441.2743    489.8814 300.1486705 +22.6379657     216.9337     72.49648      1.109     3.98     4.349208     20.42227     38.57158         6     1.100     0.412  80.32   0
       205    167.7214    487.1914 300.0645064 +22.5551251      398.633     72.34906      1.288     2.72     4.036116     20.42227      62.4184         8     0.870     0.622   6.77   0
       206    775.1525    481.1170 300.2554444 +22.7355529     346.3879     72.38594      1.265     2.93     4.557544     20.42227     52.13995         8     0.803     0.660 -52.39   0
       207    664.2073    478.9980 300.2215810 +22.7016877     370.0966     72.20133      1.254     2.18     4.738443     20.42227     66.75524         5     0.756     0.466 -34.23   0
       208    716.1746    477.0627 300.2383913 +22.7167100     698.4758     72.38594      1.246     2.29     4.688463     20.42227     115.9938        10     0.819     0.756  -7.57   0
       209    504.7539    475.3736 300.1731287 +22.6528370     231.9961     72.40438      1.213     3.50     4.289105     20.42227     31.77802         5     0.764     0.462 -13.62   0
       210     77.0414    470.8330 300.0416504 +22.5232168     284.4852     72.44123      1.660     6.05      4.09061     20.42227     30.64153         5     1.384     0.744   1.63   0
       211    777.0831    469.5259 300.2598091 +22.7328005     806.8013     72.49648      1.435     2.86     4.536654     20.42227      95.6383        13     0.986     0.823 -87.73   0
       212    934.2231    465.5445 300.3100686 +22.7787451     1054.526     72.42281      1.483     3.10     4.065585     20.42227     125.2358        15     1.029     0.957 -70.21   0
       213    899.1348    462.8163 300.3000175 +22.7674476     218.4801      72.3675      1.326     4.41      4.27332     20.42227     28.64489         5     0.775     0.713  29.51   0
       214    918.4043    461.7088 300.3063831 +22.7729028      691.922     72.29369      1.469     3.85     4.165093     20.42227      89.0148        11     1.131     0.711  71.81   0
       215    662.7320    460.0177 300.2272838 +22.6957921     3252.161     72.38594      1.283     2.21     4.661045     20.42227     481.4327        25     1.063     0.976  78.36   0
       216   1022.9230    458.7703 300.3399228 +22.8033705     424.7402     60.44993      1.312     2.93     4.145273     20.42227     60.74756         9     0.876     0.694 -70.43  24
       217    138.6341    451.3621 300.0671015 +22.5361136     414.2993     72.42281      1.592     5.22     4.175921     20.42227      49.5136         7     1.167     0.703 -89.03   0
       218    502.6666    447.1063 300.1816560 +22.6440921     260.4228     72.53329      1.080     2.22     4.332855     20.42227     58.53862         5     0.717     0.433 -71.03   0
       219    434.6957    447.1584 300.1604941 +22.6237236     219.0297     72.40437      1.316     3.79     4.421204     20.42227     46.25814         6     0.830     0.652 -71.24   0
       220    946.0479    438.9542 300.3223873 +22.7746431     684.7338     72.42281      1.543     3.52     4.303642     20.42227     67.00905        10     1.006     0.722 -86.67   0
       221    773.3971    433.8787 300.2702335 +22.7214508     1009.348     72.29369      1.230     2.05     4.494235     20.42227     169.3217        16     0.940     0.860  68.31   0
       222    569.5104    434.6008 300.2065160 +22.6605424     515.8544     72.29369      1.411     3.04     4.465981     20.42227     58.47848         8     0.806     0.741 -27.35   0
       223    277.5641    432.2068 300.1164895 +22.5722991     651.6224     72.40437      1.255     2.81     4.575856     20.42227     80.00677        11     0.946     0.706 -10.19   0
       224    339.7604    427.8423 300.1372413 +22.5897030     3717.693     72.47807      1.353     2.45     4.676748     20.42227     502.7259        29     1.213     0.982  65.15   0
       225    116.7876    430.5951 300.0670561 +22.5235977     196.3391     72.25676      1.230     3.43     4.239609     20.42227     30.65243         5     0.729     0.466  16.10   0
       226    286.8878    422.5659 300.1225169 +22.5723282      7595.72     72.34906      1.415     2.53     4.647599     20.42227     986.6347        42     1.281     1.107  48.71   0
       227    427.7394    416.8395 300.1681718 +22.6129300     4848.755     72.38594      1.316     2.28     4.487223     20.42227     738.7491        31     1.145     1.037  65.18   0
       228    671.8403    413.5092 300.2452172 +22.6851587     18712.41     72.38594      1.321     2.29     4.435054     20.42227     2897.588        61     1.345     1.153  55.31   0
       229    689.5287    413.5809 300.2507017 +22.6904812     827.2207     72.42281      2.027     5.93      4.44067     20.42227     66.58183        18     1.570     0.839 -47.12   0
       230    298.7725    411.5522 300.1297860 +22.5727310     398.2724     72.40438      1.589     4.42     4.682209     20.42227     41.23918         7     0.999     0.556  60.92   0
       231    868.8381    404.0200 300.3096621 +22.7414673     245.5447     72.40437      1.228     3.34     4.508341     20.42227     56.52696         7     0.963     0.548  35.19   0
       232    291.6121    400.8875 300.1310214 +22.5675210     341.5689      72.3306      1.277     2.65     4.652969     20.42227      58.8387         8     0.861     0.660  37.14   0
       233   1005.4183    396.2610 300.3547562 +22.7801517     828.7743     72.34906      1.443     2.53     4.495268     20.42227     89.59647        12     0.912     0.773  39.64   0
       234    226.5448    393.6871 300.1131349 +22.5459349     1934.881     72.45966      1.453     2.48     4.513346     20.42227     269.8948        22     1.192     0.964  75.65   0
       235    612.5541    383.0008 300.2366617 +22.6586211     6596.365     72.38594      1.310     2.27      4.56474     20.42227     886.0127        34     1.174     1.010  71.22   0
       236    327.4164    382.2690 300.1481945 +22.5729141     610.2787     72.40438      1.310     2.77     4.749512     20.42227     77.28922        12     0.941     0.798 -31.48   0
       237    184.7570    375.3955 300.1060859 +22.5281473      424.047     72.40438      1.398     3.68     4.477396     20.42227     90.05027        10     1.127     0.767  19.35   0
       238    872.4273    375.1521 300.3201500 +22.7342432     354.0976     72.40437      1.260     4.28     4.507688     20.42227     44.25111         7     0.900     0.580  12.51   0
       239     32.4089    373.1938 300.0594806 +22.4818030      1272.24     72.23829      1.518     3.01     4.669763     20.42227     150.5726        19     1.134     1.020  56.27   0
       240    726.1300    373.2957 300.2751749 +22.6898731     518.6831     72.51489      1.263     3.82     4.448706     20.42227     64.02511         9     1.005     0.647 -42.11   0
       241    816.7809    371.9935 300.3038356 +22.7166628     1075.922     72.34906      1.393     2.85     4.478954     20.42227     123.0956        16     1.208     0.827  78.91   0
       242      1.8159    370.7674 300.0507694 +22.4719256     950.4896     59.06523      1.511     5.56     4.750729     20.42227     79.65945        15     1.406     0.799 -72.77  24
       243   1008.6786    363.7552 300.3663228 +22.7717799      522.888     72.38594      1.535     4.60     4.495268     20.42227     48.35053        11     1.139     0.778  77.40   0
       244    911.1180    363.5750 300.3359658 +22.7425054     1361.283      72.3675      1.323     2.49      4.49919     20.42227      203.097        17     1.060     0.893  75.64   0
       245    503.9557    358.1186 300.2109390 +22.6189161     438.0869      72.3675      1.204     2.37     4.238549     20.42227     84.03793         8     0.892     0.551  69.77   0
       246    519.1906    369.2281 300.2120742 +22.6266753     5984.013     72.38594      1.294     2.32     4.245922     20.42227     757.8845        33     1.138     1.045  73.20   0
       247    586.4024    356.0770 300.2372588 +22.6430456     542.3253     72.29369      1.398     2.79     4.358982     20.42227     59.58429         7     0.812     0.597  27.55   0
       248     30.5433    354.4910 300.0649700 +22.4758757     1164.764     72.44123      1.842     3.12     4.847625     20.42227     135.9875        23     1.417     1.122  52.54   0
       249    864.8222    354.2297 300.3245699 +22.7259493     327.7192      72.3675      1.603     3.90     4.509212     20.42227     35.30564         5     0.977     0.447 -46.17   0
       250    567.1389    353.7025 300.2320337 +22.6365888     305.7183     72.45966      1.222     1.98      4.27842     20.42227     55.93533         6     0.686     0.593  62.78   0
       251    883.9461    351.5110 300.3314120 +22.7308968     538.5421     72.42281      1.403     2.73     4.504776     20.42227     67.15174         8     0.832     0.614  38.97   0
       252    406.7529    348.3639 300.1838669 +22.5869692     2692.685     72.42281      1.387     2.59     4.668357     20.42227      347.183        24     1.164     0.975  57.68   0
       253    125.1781    346.1567 300.0970642 +22.5018792     1018.945     72.44123      1.478     2.71     4.592456     20.42227     120.9504        16     1.149     0.877 -59.89   0
       254    754.6948    343.2427 300.2938243 +22.6897946      186.391     72.38594      1.036     3.63     4.470712     20.42227     41.19116         5     0.865     0.438 -43.54   0
       255    376.1018    337.9015 300.1777295 +22.5747729      29564.5     72.60686      1.367     2.43     4.847816     20.42227     3966.066        69     1.328     1.158  60.58   0
       256    910.7054    335.3439 300.3449985 +22.7342640     1287.265     72.44123      1.352     2.38     4.495507     20.42227     170.2963        19     1.047     0.957 -75.34   0
       257    865.7778    332.9283 300.3317800 +22.7201109     411.3263     72.40437      1.273     4.64     4.501838     20.42227     49.16737         7     1.350     0.452  44.64   0
       258     72.3956    325.6967 300.0873085 +22.4801696     4938.188     72.29369      1.584     2.71     4.745338     20.42227     613.0182        41     1.400     1.234  59.43   0
       259    826.4114    324.3382 300.3223005 +22.7058476     625.6232      72.3306      1.476     4.32     4.485292     20.42227     77.32039        10     1.048     0.735 -48.49   0
       260    474.6011    322.9219 300.2132266 +22.6000038     512.0105     72.27523      1.341     4.54     4.293857     20.42227     75.41229        10     1.341     0.715 -68.51   0
       261    250.2924    324.3108 300.1430269 +22.5331390     434.4955     72.55169      1.230     2.76     4.492021     20.42227     58.11281         7     0.778     0.627 -32.79   0
       262    786.4439    317.6861 300.3120068 +22.6919608     1819.124      72.3675      1.331     2.50     4.477321     20.42227     240.8712        21     1.157     0.892  76.74   0
       263    594.8188    312.1084 300.2541451 +22.6329336     382.8996     72.31216      1.444     3.83     4.296793     20.42227     48.53505         7     0.816     0.776  50.48   0
       264   1001.6320    310.4667 300.3814174 +22.7543429     651.5912     72.38594      1.539     3.27     4.496135     20.42227     74.81428        13     1.033     0.792 -44.93   0
       265    524.1251    310.8709 300.2325453 +22.6113879     209.9571     72.45966      1.204     4.39     4.233528     20.42227     27.74958         5     0.854     0.642 -43.06   0
       266    855.5731    304.1728 300.3379301 +22.7087856     129.9194     72.34906      1.154     3.61     4.490183     20.42227     37.51351         5     0.855     0.564  41.58   0
       267    448.2403    302.2180 300.2117432 +22.5861526     1953.137     72.40437      1.412     2.92     4.567914     20.42227      231.148        20     1.255     0.846  61.77   0
       268    660.7312    301.0634 300.2782478 +22.6495133     392.5536     72.44123      1.565     4.69     4.388995     20.42227     45.15786         8     1.043     0.653  58.43   0
       269    887.3019    295.4699 300.3506417 +22.7157873     511.0291     72.51489      1.287     3.67     4.487813     20.42227     72.10023        12     1.141     0.908 -89.04   0
       270     18.1875    294.7954 300.0805004 +22.4550350     672.1703     72.25676      2.421     6.01     4.888491     20.42227     39.40042        10     1.555     0.653 -58.71   2
       271     21.3049    293.0227 300.0820434 +22.4554616     602.3803     72.29369      1.673     2.95     4.880841     20.42227     59.98165         6     0.767     0.612 -57.95   3
       272    769.4443    292.8849 300.3147578 +22.6797373     500.3871      72.3675      1.392     2.60     4.481479     20.42227     61.29222         7     0.841     0.579  -7.10   0
       273    738.0780    292.1567 300.3052239 +22.6701301     309.4976      72.3675      1.276     1.99     4.478204     20.42227     58.01482         6     0.713     0.532  46.86   0
       274    524.1786    281.4890 300.2420939 +22.6029613     1336.572     72.31216      1.381     2.72      4.24626     20.42227     163.9398        18     1.119     0.911  78.05   0
       275    264.2155    276.5420 300.1628509 +22.5235970     128.4499      72.3675      1.049     3.72     4.532481     20.42227     29.18173         5     1.002     0.397  83.26   0
       276    769.0193    273.5830 300.3208872 +22.6740606      2151.75      72.3675      1.359     2.36     4.502545     20.42227     314.3868        25     1.152     0.992  56.87   0
       277      2.5486    258.9168 300.0872825 +22.4400443     63119.12     62.85284      1.477     2.94     4.982106     20.42227     7915.449        79     1.509     1.161  85.42  24
       278    477.2702    257.4511 300.2352961 +22.5819931      716.058     72.38594      1.460     2.74     4.268145     20.42227     78.44157        13     0.948     0.823  75.39   0
       279    152.2061    251.3923 300.1362019 +22.4827806     1619.381     72.23829      1.817     3.69       4.6285     20.42227     149.5927        26     1.320     1.176 -42.47   0
       280    183.1256    251.3725 300.1458147 +22.4920489     557.1262     72.38594      1.622     3.35      4.54936     20.42227     59.27566         9     0.904     0.698 -52.68   0
       281    889.8619    245.3678 300.3676927 +22.7021454     341.4006     72.40437      1.561     3.01     4.377997     20.42227     42.36514         7     0.839     0.603 -79.88   0
       282    236.1449    243.4525 300.1648591 +22.5056757     551.0327     72.42281      1.513     2.90     4.548982     20.42227     62.41062         7     0.744     0.633  31.09   0
       283    840.6120    234.9673 300.3557181 +22.6844033     608.2579      72.3675      1.341     2.86     4.465452     20.42227      94.6815        11     0.924     0.830 -27.75   0
       284    430.9930    234.5819 300.2283177 +22.5615497     291.9463     72.34906      1.365     3.24     4.335641     20.42227      48.6722         9     0.977     0.608  53.18   0
       285    976.6143    228.5229 300.4001996 +22.7232800     265.5948     72.40438      1.398     4.24     4.200537     20.42227     36.27573         5     1.167     0.438  36.58   0
       286    931.4689    227.9775 300.3863021 +22.7096042     393.4129     72.40437      1.334     3.55     4.195354     20.42227     41.31404         8     0.860     0.692 -36.49   0
       287    938.8204    223.9724 300.3898928 +22.7106537     2105.122     72.38594      1.382     2.57     4.181215     20.42227     256.4695        24     1.193     0.981  65.49   0
       288    357.3600    221.2427 300.2097440 +22.5356428      2178.26     72.47807      1.391     2.50      4.85964     20.42227      235.132        22     1.115     0.967  48.62   0
       289    435.1136    216.5029 300.2354628 +22.5575903     968.1171     72.57008      1.363     3.52     4.313144     20.42227     110.2091        15     1.175     0.859   4.09   0
       290    836.9260    215.9121 300.3607498 +22.6778192     551.5557     72.53329      1.171     2.33     4.479311     20.42227     83.84624         7     0.710     0.640  62.49   0
       291    187.1589    216.3950 300.1584116 +22.4832142     367.2777     72.40437      1.662     1.84     4.679239     20.42227     53.79903         5     0.774     0.620  53.72   0
       292    251.9764    208.3822 300.1811530 +22.5003507     729.1116      72.3675      1.334     3.18     4.752583     20.42227     91.60807        12     1.095     0.712  63.25   0
       293    854.8365    205.1596 300.3698181 +22.6800912     526.6392     72.45966      1.295     2.53     4.459496     20.42227     76.84342        11     0.848     0.793  60.99   0
       294    789.8609    205.3380 300.3495151 +22.6606810     1764.482     72.42281      1.356     2.52     4.577127     20.42227     240.9344        20     1.152     0.873  54.89   0
       295    104.6452    206.1817 300.1360896 +22.4555333     262.6806     72.42281      1.211     2.92     4.992542     20.42227     34.18583         5     0.739     0.441 -71.76   0
       296    273.4795    202.0967 300.1898749 +22.5049931     503.8782     72.49648      1.345     3.31     4.856855     20.42227     59.65667         8     0.875     0.659 -33.35   0
       297    793.9281    197.0710 300.3534632 +22.6595220     778.7562     72.45966      1.438     2.84     4.585726     20.42227     92.80271        13     0.982     0.855 -61.57   0
       298    563.5261    197.9374 300.2814382 +22.5907422     383.8543     72.42281      1.401     2.20     4.381982     20.42227     60.36274         6     0.746     0.499  88.49   0
       299    714.4372    196.0815 300.3290236 +22.6354255     1173.383     72.34906      1.278     2.59     4.661167     20.42227     153.8811        17     1.030     0.891  76.65   0
       300    535.8570    192.1144 300.2747155 +22.5807767     427.3975     72.49648      1.405     4.95     4.373865     20.42227     45.30114         8     1.001     0.692  63.43   0
       301    909.9639    187.6428 300.3926799 +22.6915622     1430.595     72.44123      1.379     2.39     4.267846     20.42227     202.1294        17     1.003     0.890 -16.88   0
       302    640.7589    187.7714 300.3087761 +22.6109623     932.7584     72.40437      1.232     2.41     4.553497     20.42227     147.7507        13     0.939     0.782  76.75   0
       303    922.1488    186.6084 300.3968135 +22.6949134      938.824     72.38594      1.617     3.13     4.218117     20.42227     94.35573        15     1.027     0.923 -47.18   0
       304    968.2883    186.0636 300.4113740 +22.7085723      279.689     72.49648      1.240     2.78     4.184182     20.42227     45.86663         5     0.778     0.495 -32.14   0
       305     11.4809    175.9477 300.1169610 +22.4189065      344.459     72.42281      1.591     5.64     5.038729     20.42227     42.01596        10     1.249     0.718  37.31   0
       306     62.5031    174.1680 300.1333814 +22.4337006     489.7896     72.34906      1.330     2.75     5.034878     20.42227     71.34794         6     0.860     0.486 -46.35   0
       307    272.8252    170.1395 300.2000338 +22.4956171       790.58     72.38594      1.508     3.23     4.927387     20.42227      76.4549        10     1.006     0.662  65.25   0
       308    134.6332    164.8471 300.1588072 +22.4526579     2338.494     72.42281      1.564     2.48     5.011491     20.42227     309.9078        27     1.263     1.064  65.41   0
       309    957.7070    161.7482 300.4159598 +22.6984087     634.2227     72.45966      1.347     3.27     4.188144     20.42227     90.22621        15     1.083     0.930  50.51   0
       310     84.0249    161.9682 300.1440208 +22.4366528      520.496     72.38594      1.496     3.47     5.036691     20.42227     67.40728        10     0.953     0.737   1.34   0
       311    291.9623    158.1283 300.2098769 +22.4979042     5633.743     72.34906      1.437     2.80      4.96987     20.42227     603.9634        34     1.257     1.090  77.07   0
       312     76.0103    152.5564 300.1445830 +22.4315464     1346.438     72.38594      1.548     3.36     5.042066     20.42227     127.2876        20     1.143     1.046  48.15   0
       313    275.3315    149.0802 300.2076407 +22.4903188     596.6277     72.49648      1.458     3.28     4.971834     20.42227     63.67185        12     1.056     0.747  32.38   0
       314    936.0515    139.5652 300.4164013 +22.6855428     3473.486     72.40437      1.498     3.07     4.192791     20.42227     453.3677        32     1.442     1.061  85.74   0
       315    485.6053    134.9964 300.2775988 +22.5493005     602.8918     72.20133      1.232     2.73     4.561401     20.42227     87.18157        11     0.942     0.732  79.44   0
       316    238.7457    135.4725 300.2006806 +22.4754406     193.4929     72.38594      1.176     3.45     4.943945     20.42227     34.70437         5     0.767     0.449 -20.49   0
       317    599.9313    132.9618 300.3138373 +22.5829727     100.9401     72.34906      1.097     2.95     4.738564     20.42227     37.13251         5     0.614     0.607 -19.48   0
       318    409.9144    126.6452 300.2567604 +22.5242159     795.0581      72.3675      1.907     3.02      4.98088     20.42227     88.79555        12     1.016     0.840 -53.07   2
       319    414.0695    125.5019 300.2584234 +22.5251327     469.4713     72.51489      1.917     4.65     4.982952     20.42227     39.54945         6     1.090     0.562  27.29   2
       320    175.7292    123.7636 300.1848938 +22.4531824      563.511     72.38594      1.394     2.78     4.996311     20.42227     81.63954        11     0.974     0.703 -37.31   0
       321    536.9013    122.1950 300.2977103 +22.5609921     1742.874     72.27523      1.355     2.72     4.811389     20.42227     219.6114        19     1.098     0.900  66.94   0
       322    465.0096    122.7425 300.2751637 +22.5396064     469.7593     72.34906      1.344     3.23     4.760346     20.42227     59.89459        10     0.906     0.739  86.28   0
       323    598.8271    121.6273 300.3171682 +22.5793832     354.0272     72.34906      1.234     2.72      4.82029     20.42227     46.54799         6     0.719     0.606 -46.15   0
       324     73.3780    122.2637 300.1535856 +22.4220581     346.6826      72.3675      1.424     4.17     5.063978     20.42227     48.85061         7     0.992     0.684  37.80   0
       325    825.4111    111.6876 300.3909568 +22.6443937     378.3467      72.3306      1.292     2.50     4.871172     20.42227     62.83519         8     0.861     0.641 -88.21   0
       326    182.1071    108.1245 300.1919450 +22.4506026     339.7215     72.55169      1.443     3.86     4.994609     20.42227     40.21456         5     0.801     0.533 -53.63   0
       327    971.0120    106.4620 300.4380326 +22.6864850     359.2093     72.34906      1.307     1.73     4.185576     20.42227     58.34819         6     0.694     0.498   3.68   0
       328    721.8455    103.6405 300.3613027 +22.6110626     306.4976     72.45966      1.352     4.18     5.039047     20.42227     33.93544         6     0.763     0.654 -66.52   0
       329    311.0037    101.9876 300.2339962 +22.4874829      5889.38     72.23829      1.428     2.61     5.053126     20.42227      695.698        38     1.274     1.117  64.11   0
       330    161.9560    101.5576 300.1878125 +22.4426741     670.1471     72.47807      1.423     3.14     5.014184     20.42227     79.29501        11     1.071     0.738  60.86   0
       331    940.6747     99.9787 300.4306763 +22.6755373     387.7151      72.3675      1.495     2.56     4.191761     20.42227     47.02237         7     0.689     0.684  23.03   0
       332      5.8284     98.2416 300.1403962 +22.3949002     733.8109     72.40437      1.585     4.11     5.157871     20.42227     65.32076        12     1.074     0.855  64.68  16
       333    282.5979     96.3195 300.2270027 +22.4773392     280.2736     72.29369      1.101     3.35     5.087281     20.42227     39.92855         5     0.988     0.330  20.72   0
       334    786.8228     93.4334 300.3848515 +22.6275872     238.8041     72.38594      1.389     3.24     5.001261     20.42227      47.1233         5     1.153     0.264  56.37   0
       335    326.2909     93.4147 300.2415278 +22.4896020     349.2699     72.31216      1.306     4.08     5.048133     20.42227     36.81057         8     0.971     0.597 -70.61   0
       336     72.5966     92.3505 300.1630389 +22.4132333     479.6611     72.38594      1.409     3.65     5.101735     20.42227      54.8718         6     0.977     0.449  34.31   0
       337    557.0909     87.3924 300.3152751 +22.5570364     6282.485     72.29369      1.378     2.40     5.006596     20.42227     870.0883        34     1.270     1.013  72.88   0
       338    442.3814     87.1120 300.2796742 +22.5225842     636.1574      72.3306      1.371     2.75      5.00649     20.42227      76.1509         7     0.817     0.618 -88.28   0
       339    878.0362     86.4371 300.4155413 +22.6528875     2717.207     72.45966      0.589     0.82     4.839425     20.42227     1475.555         5     0.496     0.240  89.66   0
       340    809.5696     77.2916 300.3971705 +22.6297557     824.1364      72.3306      1.416     2.93     5.038877     20.42227     97.68153        13     1.027     0.810  78.85   0
       341    902.2599     75.9058 300.4265049 +22.6571102      394.272     72.47807      1.287     1.97     4.654528     20.42227     89.43449         7     0.782     0.578  67.99   0
       342    249.9277     70.8778 300.2250937 +22.4602356     393.6838     72.49648      1.401     2.06     5.021027     20.42227     64.65853         6     0.714     0.540  41.52   0
       343    608.2499     69.8667 300.3368795 +22.5673240     432.1258      72.3675      1.376     2.99     4.878222     20.42227     57.08222         8     0.811     0.663  44.89   0
       344    685.4516     67.4748 300.3616914 +22.5897611     6298.563     72.40438      1.385     2.44     4.946411     20.42227      765.203        39     1.240     1.098  69.62   0
       345    460.3158     66.5217 300.2919269 +22.5220401     1378.728     72.49648      1.299     2.37     5.005518     20.42227     181.8702        17     1.033     0.884 -86.28   0
       346    726.9272     64.8939 300.3754447 +22.6014409     934.5521     72.51489      1.546     2.98     5.114119     20.42227     112.8305        12     1.177     0.721 -29.39   0
       347    795.8553     62.2936 300.3977589 +22.6213347     329.2567     72.44123      1.263     4.28     5.116508     20.42227     35.86323         8     0.922     0.648   8.51   0
       348    742.6952     60.9481 300.3816348 +22.6050282     619.5752     72.45966      1.467     2.53     5.161706     20.42227     75.22394         8     0.768     0.672 -53.40   0
       349   1012.3002     58.6727 300.4663976 +22.6850917     502.9494     72.55169      1.324     2.55      4.58012     20.42227     58.17439         8     0.831     0.628   4.77   0
       350    209.2210     58.7925 300.2163594 +22.4445602     730.2291      72.3675      1.530     3.67      4.93079     20.42227        74.77        15     1.219     0.871  29.96   0
       351     56.5921     59.1361 300.1688330 +22.3988948     238.1465      72.3675      1.278     2.58     5.358952     20.42227     41.26108         5     0.715     0.453 -69.97   0
       352    780.8291     56.2194 300.3950463 +22.6150878     423.4101     72.38594      1.266     3.36     5.151233     20.42227     72.33031         8     0.909     0.661  72.19   0
       353    729.6369     52.4497 300.3803218 +22.5986732     2850.433     72.38594      1.332     2.21      5.14817     20.42227     407.8975        25     1.180     0.930  62.56   0
       354    744.6787     50.9370 300.3854972 +22.6027427     1019.357     72.47807      1.930     4.51     5.188058     20.42227     104.4763        20     1.620     0.830  60.85   0
       355    370.3627     52.9849 300.2683353 +22.4911928     321.9531     72.38594      1.139     2.50     5.117412     20.42227     65.43349         7     0.804     0.583  65.45   0
       356     23.0956     46.5807 300.1625001 +22.3852438     715.7296     72.29369      1.393     3.37      5.77012     20.42227     85.52004        11     0.991     0.793  29.10   0
       357    816.1408     44.0255 300.4099998 +22.6221536     1431.643     72.38594      1.377     2.56     5.152722     20.42227      189.233        16     1.005     0.863  46.72   0
       358    976.0979     43.1321 300.4601458 +22.6697832     342.6161     72.47807      1.309     3.82     4.750962     20.42227     34.84822         5     0.799     0.524 -51.36   0
       359    893.8467     38.4013 300.4360381 +22.6438003     267.2873     72.38594      1.471     3.13     4.931405     20.42227     44.14939         6     0.906     0.662  32.51   0
       360    753.9089     37.1184 300.3928507 +22.6015320     711.6821     72.49648      1.311     3.22     5.226121     20.42227     101.2131        12     0.993     0.805  65.05   0
       361    559.6192     36.3976 300.3325894 +22.5431322     1113.109     72.31216      1.395     2.65     4.947244     20.42227     132.0567        16     1.004     0.896 -79.49   0
       362    132.7323     36.7643 300.1997322 +22.4152999     583.1266     72.38594      1.782     3.78     4.970468     20.42227     52.58614        10     0.946     0.806 -85.34   0
       363    463.5548     34.3628 300.3033566 +22.5137663     878.2001     72.42281      1.397     2.60     5.017798     20.42227     108.8816        15     0.988     0.871 -86.17   0
       364    845.5356     33.2844 300.4226401 +22.6278645     433.0628     72.47807      1.217     2.81     5.101172     20.42227     55.51134         5     0.703     0.478 -74.08   0
       365    759.6354     31.6293 300.3964133 +22.6016678     217.3203     72.40438      1.398     4.77      5.24148     20.42227     31.08753         7     0.900     0.718  66.65   0
       366    803.0226     25.1370 300.4120338 +22.6127917     631.0541      72.3675      1.520     2.81     5.266117     20.42227     92.68237        12     1.046     0.750  67.82   0
       367    418.7302   1018.9942 299.9696792 +22.7830459     545.5359     72.34906      2.105     6.27     2.605649     20.42227     46.01531         8     1.304     0.849 -52.32  16
       368    365.9934     25.0470 300.2760300 +22.4818538     206.7363     72.40437      1.217     3.64     5.208108     20.42227     35.07931         5     0.633     0.603  89.51   0
       369     27.1994     24.4658 300.1709403 +22.3801232     289.8136      72.3675      1.280     3.74     6.005608     20.42227     45.73769         6     0.805     0.498   2.49   0
       370    561.0667     21.7537 300.3377853 +22.5393552     304.0087     72.38594      1.135     2.53     4.925985     20.42227     48.28603         7     0.718     0.666   1.06   0
       371    657.7718     21.4357 300.3679928 +22.5682301     286.4372     72.40438      1.210     3.42     4.634497     20.42227     41.99921         5     0.737     0.458 -19.14   0
       372    796.2127     17.1925 300.4124866 +22.6084672     951.8899     72.27523      1.462     2.54     5.305458     20.42227     98.29019        11     0.843     0.799 -34.18   0
       373    142.6188   1015.2463 299.8850850 +22.6990402     5355.479     72.42281     12.037    45.11     51.54376     20.42227     118.6854       895    11.006     6.791   8.12  27
       374    461.1557    981.2752 299.9951467 +22.7849653      3768.12      72.3675      0.789     1.90     2.743311     20.42227      1250.81        11     0.826     0.472 -86.54   0
       375    207.5020    975.7898 299.9180778 +22.7072206     1330.689     72.27523      4.986     6.69     46.58803     20.42227     75.85118        21     1.757     1.224  -0.46   2
       376    610.6546   1012.3938 300.0315375 +22.8387707     2406.297      72.3675      1.864     4.28      2.35067     20.42227     165.6014        31     1.351     1.338 -86.95   0
       377    697.3414   1007.5656 300.0600948 +22.8634021     8785.789     72.40438      2.009     4.22     3.136758     20.42227     489.7266        48     1.542     1.438  65.53   3
       378    702.7440   1005.3673 300.0624923 +22.8643926     9501.579     72.40438      1.949     4.37     3.141804     20.42227     547.4782        53     1.522     1.505  42.69   3
