#   1 NUMBER                 Running object number                                     
#   2 X_IMAGE                Object position along x                                    [pixel]
#   3 Y_IMAGE                Object position along y                                    [pixel]
#   4 ALPHA_J2000            Right ascension of barycenter (J2000)                      [deg]
#   5 DELTA_J2000            Declination of barycenter (J2000)                          [deg]
#   6 FLUX_APER              Flux vector within fixed circular aperture(s)              [count]
#   7 FLUXERR_APER           RMS error vector for aperture flux(es)                     [count]
#   8 FLUX_RADIUS            Fraction-of-light radii                                    [pixel]
#   9 FWHM_IMAGE             FWHM assuming a gaussian core                              [pixel]
#  10 BACKGROUND             Background at centroid position                            [count]
#  11 THRESHOLD              Detection threshold above background                       [count]
#  12 FLUX_MAX               Peak flux above background                                 [count]
#  13 ISOAREA_IMAGE          Isophotal area above Analysis threshold                    [pixel**2]
#  14 A_IMAGE                Profile RMS along major axis                               [pixel]
#  15 B_IMAGE                Profile RMS along minor axis                               [pixel]
#  16 THETA_IMAGE            Position angle (CCW/x)                                     [deg]
#  17 FLAGS                  Extraction flags                                          
         1    516.8592     17.2610 300.3722154 +22.5465879     1889.671     72.37769      1.348     2.40     4.278266     20.40436     242.3064        21     1.140     0.923  76.49   0
         2    239.8826     14.7223 300.2868714 +22.4629171     773.1452      72.4145      1.496     2.96     4.027116     20.40436     71.83517        11     0.944     0.736  79.04   0
         3    474.2197     11.2421 300.3608948 +22.5320926     1234.288     72.35928      1.313     2.44     4.315469     20.40436      166.261        18     0.972     0.947  71.11   0
         4    579.6313      7.7139 300.3948531 +22.5626346     1386.988     72.30402      1.378     2.69      4.25202     20.40436       170.85        16     0.999     0.939  51.53   0
         5    175.0342      6.7403 300.2692996 +22.4411991       560.91     72.34087      1.421     2.87     4.736273     20.40436     67.52362         9     0.952     0.675  84.98   0
         6    404.6553      5.2780 300.3411810 +22.5095503     270.4147     72.15646      1.154     3.22     4.272146     20.40436     38.84647         5     0.733     0.455 -76.18  16
         7    223.7872      4.6795 300.2851229 +22.4552113      537.274     70.88981      1.539     4.07     3.891133     20.40436     58.60995         8     0.928     0.625 -87.93  16
         8    400.0078      1.9571 300.3408116 +22.5072044     1951.047     59.73148      1.230     2.23     4.258957     20.40436     325.2253        16     0.982     0.803  20.22  24
         9     47.1069      1.2465 300.2313286 +22.4012942     424.1646     55.83492      1.223     3.34     4.077188     20.40436     62.01108         5     0.771     0.420   8.65  24
        10     70.8539   1003.3274 299.9132082 +22.6958219     656.3234     72.30402      6.764     5.51     45.08025     20.40436      31.7171         5     1.693     0.505  33.35   1
        11    187.4586   1021.4557 299.9435357 +22.7360238     4375.616     67.18459     10.507    31.33      14.3922     20.40436     113.5788       315     7.212     5.794  36.33  26
        12    178.3687   1015.4706 299.9426591 +22.7315800      2623.66     72.32245      9.892    17.81     15.83866     20.40436     72.20155        72     3.835     2.299  26.51  19
        13    154.0430   1022.9947 299.9326507 +22.7264331     945.1378     60.06511      8.605    11.34     23.43945     20.40436     39.31103        23     3.324     1.077  -8.44  27
        14    147.4020   1021.0355 299.9312250 +22.7238780     921.7851     68.65575      7.568     9.37     25.25229     20.40436     37.87848        14     2.802     0.875 -24.93  19
        15    116.2751   1019.0381 299.9222042 +22.7139605      775.312     72.26717      3.816     4.23     34.40065     20.40436     34.08178         5     1.243     0.410  52.67  19
        16    123.7472   1023.7687 299.9229857 +22.7175592     460.6364     55.76329      3.260     3.78     33.34694     20.40436     30.72268         5     1.201     0.342  10.10  27
        17    118.6614   1022.6528 299.9217689 +22.7157126     787.5139      61.8141      3.909     6.99     34.66713     20.40436     49.50713        12     1.899     0.722 -27.11  27
        18    111.3868   1023.1470 299.9193479 +22.7136700     675.1663     59.21625      7.469     8.34     37.23346     20.40436      34.0253        11     2.098     0.928   4.73  27
        19    100.0987   1015.8110 299.9182292 +22.7081791     1914.271     72.21184     11.705    17.85     38.28336     20.40436     51.91389        67     3.439     2.576  16.84  19
        20     85.2642   1017.0121 299.9132300 +22.7040691     1431.852     72.26717      7.798    14.00     45.39539     20.40436     45.58028        37     3.070     1.775 -50.57  27
        21     82.0451   1013.5096 299.9133701 +22.7020991     1346.942     72.30402      5.212     8.76     45.51438     20.40436     43.68296        17     2.215     0.968 -85.75  19
        22     25.8088    998.7480 299.9007085 +22.6809844     1210.936     72.32245      3.492    10.77     60.39354     20.40436     47.06561        24     2.461     1.314  40.33   3
        23     33.2854    999.8749 299.9026636 +22.6835523     2284.827     72.43289      8.821    25.08     58.41888     20.40436     60.18176       148     5.735     3.045 -73.59  19
        24     43.5952   1022.0695 299.8986411 +22.6930059     1595.448     64.47261      7.319    16.35     68.68951     20.40436     52.27042        60     4.673     1.590  -8.39  27
        25     36.6313   1014.6360 299.8988980 +22.6887855     3104.848     72.34087      6.125    33.18     67.38452     20.40436     61.75998       207     7.288     4.192   5.17  27
        26    691.9899   1001.0063 300.1071632 +22.8815410     287.3943     72.17493      1.449     4.50     2.374916     20.40436     27.60455         6     0.994     0.580  46.95   0
        27    408.5045   1000.3893 300.0191225 +22.7963274     1011.053     72.24873      1.535     3.27      3.10546     20.40436     101.8332        17     1.082     0.973 -15.30   0
        28    339.0865    998.5538 299.9981287 +22.7749707     6381.852     72.30402      1.672     3.31     3.505994     20.40436     520.9339        41     1.338     1.305  54.28   0
        29     65.4839    999.0361 299.9129370 +22.6929801     1404.383     72.30402      9.584    11.50     45.35447     20.40436     46.58363        29     2.062     1.908  55.94   2
        30    650.3027    988.7820 300.0981595 +22.8655326     275.4902     72.23029      1.208     4.49      2.21436     20.40436     32.98372         6     0.957     0.598 -24.39   0
        31     46.6996    985.3188 299.9115674 +22.6834102     938.5991     72.45129      5.145     7.72     43.25824     20.40436     55.14915        13     1.542     1.082  63.56   3
        32    371.3907    985.4268 300.0124484 +22.7809014     470.5065     72.32245      1.404     5.42     3.250153     20.40436     48.06731        11     1.239     0.670 -48.66   0
        33     35.4053    980.4126 299.9096565 +22.6786134     1981.902     72.19338      6.616    22.05     43.36929     20.40436     49.13652       102     5.315     2.540 -22.03   3
        34     27.9364    970.9932 299.9104026 +22.6736723     1754.432      72.2856      4.523    15.49     38.54058     20.40436     47.94078        48     3.620     1.844 -73.88   3
        35     35.6077    967.6744 299.9138651 +22.6750249     2039.216      72.2856      5.789    17.05     34.59866     20.40436     55.26865        74     3.565     2.267 -37.71   3
        36    535.4877    974.1142 300.0671882 +22.8268890     392.5449     72.45129      1.489     3.99     2.434914     20.40436     46.02958         7     0.930     0.617  34.30   0
        37    384.0731    973.1368 300.0203934 +22.7811834     216.4656     72.35928      1.332     2.59     3.204073     20.40436      42.9734         5     0.761     0.499 -55.51   0
        38    674.2769    965.9111 300.1130704 +22.8661612     799.0546     72.46967      2.299     7.17     2.628139     20.40436     50.63324        17     1.732     0.832  59.76   0
        39     50.5619    966.7549 299.9188088 +22.6792515     778.1109     72.37769      4.059     4.28     30.81982     20.40436     29.40437         5     0.894     0.583 -39.93   2
        40    885.4070    977.0770 300.1752220 +22.9326641     2090.154     72.26717      1.683     3.50     2.615807     20.40436     163.3019        27     1.254     1.195 -70.31   0
        41   1000.9689    965.0234 300.2151794 +22.9638390     528.1796     72.30402      2.055     6.14     3.091132     20.40436     31.98817         8     1.232     0.860  10.01   0
        42    486.4963    961.3433 300.0560977 +22.8085305     396.4534      72.3961      1.618     5.07     2.623081     20.40436     32.46023         9     1.036     0.701 -61.42   0
        43    708.9550    960.1956 300.1257319 +22.8749199     1066.833     72.32245      1.602     3.50     3.076854     20.40436     100.8301        17     1.105     1.003  37.66   0
        44    731.2498    953.8906 300.1347291 +22.8797957     11302.33     72.32245      1.566     2.98     3.320847     20.40436     1001.732        48     1.315     1.263  84.02   0
        45    922.6136    953.8050 300.1943967 +22.9371362     530.1895     72.19338      1.803     5.64     2.812801     20.40436     42.22627        10     0.962     0.933 -72.80   0
        46    776.8861    953.8791 300.1489511 +22.8934748     424.0627     72.46967      1.264     2.05     3.372274     20.40436     72.70197         8     0.780     0.616 -46.68   0
        47     43.2401    945.9113 299.9233179 +22.6710815     226.5392     72.30402      1.304     2.94     18.42695     20.40436     53.59083         7     0.916     0.600  86.16   0
        48    783.2020    941.7244 300.1548751 +22.8918803     380.8136     72.23029      1.400     3.96     3.408489     20.40436      41.4399         9     0.902     0.739 -71.64   0
        49    436.5339    942.0808 300.0468207 +22.7880184     443.5905     72.43289      1.176     2.57     3.004985     20.40436     66.04505         9     0.854     0.687 -21.67   0
        50    739.7568    936.0043 300.1432007 +22.8772140     1319.498     72.34087      1.463     3.25     3.426597     20.40436     128.5782        20     1.119     1.030  21.10   0
        51    922.7932    935.1568 300.2005222 +22.9318370     380.1993     72.34087      1.547     4.00     3.010484     20.40436     44.42862         7     0.875     0.590  52.53   0
        52    592.1579    933.5600 300.0980284 +22.8322541     604.8524      72.4145      1.692     4.28     2.894917     20.40436     63.44057         9     1.110     0.740 -48.78   0
        53    778.0421    929.5076 300.1572434 +22.8868275     866.4598     72.32245      1.713     4.78     3.444705     20.40436     66.99014        16     1.389     0.931 -51.01   0
        54    117.8974    928.9453 299.9520299 +22.6886328     528.2598      72.4145      3.279     6.01     6.660809     20.40436     38.78201         7     1.307     0.779  78.28   0
        55    886.3578    926.3568 300.1920270 +22.9183909     337.0034      72.4145      1.349     4.53     3.252755     20.40436     46.58043         7     0.936     0.623 -22.42   0
        56    144.2104    923.9758 299.9618226 +22.6951072     534.3638     72.32245      3.030     3.67     5.343451     20.40436     26.84823         5     1.427     0.271 -77.46   0
        57    826.3824    920.6962 300.1751750 +22.8987896     557.2073     72.23029      1.568     3.63     3.440369     20.40436     68.25584        13     1.082     0.875  40.89   0
        58    677.9361    919.8391 300.1292046 +22.8540401     842.3452     72.30402      1.711     3.45     3.341393     20.40436     75.95148        14     1.033     0.910  64.31   0
        59    390.2603    916.1241 300.0408723 +22.7666929     4179.854     72.37769      1.546     2.97     3.224369     20.40436     400.3596        32     1.239     1.176  70.24   0
        60    689.1273    916.9213 300.1336398 +22.8565584     636.6951     72.43289      1.584     2.77     3.392275     20.40436     64.84096         9     0.771     0.766 -25.93   0
        61    978.4683    915.8204 300.2241763 +22.9429702     336.5063     72.30402      1.367     3.06     3.126258     20.40436     42.87267         5     0.941     0.371   6.50   0
        62     51.9911    904.8124 299.9394091 +22.6619329     454.4312     72.21184      1.931     4.77     6.140406     20.40436     44.18728         8     1.154     0.690 -65.30   0
        63    115.8235    901.7320 299.9602403 +22.6802117     936.8877     72.30402      1.975     4.73     5.528252     20.40436     85.51449        22     1.478     1.101  45.99   0
        64     92.5348    899.0464 299.9538790 +22.6724515     1646.162     72.32245      1.704     3.48     5.901654     20.40436     151.0467        27     1.298     1.197 -25.73   0
        65     24.3135    900.2664 299.9322922 +22.6523211     572.2247      72.4145      2.454     4.61       5.9083     20.40436     33.17204         8     1.008     0.600 -72.89   0
        66    964.3461    887.8375 300.2288784 +22.9307041     2183.791     72.34087      1.705     3.42     3.307115     20.40436      154.162        28     1.291     1.158  13.96   0
        67    863.0378    888.9915 300.1969172 +22.9006759     196.7319     72.34087      1.924     3.50     3.500958     20.40436     33.18737         5     0.972     0.374 -31.42   0
        68    918.6108    886.2920 300.2151203 +22.9165555     2006.514     72.26717      1.599     3.60     3.367889     20.40436     161.6233        24     1.254     1.133 -62.28   0
        69    624.2451    886.9721 300.1231793 +22.8285110     488.3796     72.35928      1.836     5.22     3.423196     20.40436     57.45264         8     1.239     0.622 -43.15   0
        70    702.2347    880.0774 300.1497115 +22.8499160      642.639      72.2856      1.587     5.57     3.677159     20.40436     51.80994        12     1.179     0.797 -48.75   0
        71    570.2908    874.2318 300.1105261 +22.8086768     4696.937     72.26717      1.465     2.60     3.364297     20.40436     500.0922        35     1.207     1.196 -22.10   0
        72     60.9491    875.3460 299.9517783 +22.6561784     421.8511     72.35928      1.672     4.93     4.801031     20.40436     52.00101         8     0.944     0.781 -27.00   0
        73    372.5863    871.3927 300.0499292 +22.7485638     629.8149     72.21184      1.588     4.42     3.367828     20.40436     65.67753        15     1.123     1.042  20.06   0
        74    120.6697    868.2106 299.9726520 +22.6720593     1225.838     72.30402      1.646     3.23     3.948555     20.40436     126.5621        19     1.114     1.071  88.37   0
        75    590.6297    866.6483 300.1193255 +22.8126002     886.0129     72.34087      1.798     3.55     3.492485     20.40436     85.48786        14     1.080     0.971  13.51   0
        76    389.7462    866.4208 300.0568844 +22.7522858      335.854     72.32245      1.332     4.56     3.356143     20.40436     43.04125         7     1.426     0.415  35.31   0
        77    139.6600    865.4746 299.9794424 +22.6769748     484.4724     72.37769      1.516     4.29     3.706469     20.40436     47.06853         8     0.928     0.700 -57.13   0
        78    963.2745    854.3204 300.2394500 +22.9207592     1169.794     72.43289      1.602     4.27     3.472984     20.40436     85.08926        20     1.212     1.137 -67.58   0
        79    746.2118    853.9332 300.1719176 +22.8555964     4191.248     72.30402      1.477     2.69     3.790312     20.40436     444.7845        31     1.197     1.149 -57.01   0
        80   1001.7676    854.3999 300.2514292 +22.9323150     481.7119     72.26717      1.695     4.27     3.412311     20.40436     45.32479         8     1.037     0.584 -18.51   0
        81    477.4341    851.1238 300.0891427 +22.7742004     349.6825     72.32245      1.659     4.96     3.326997     20.40436     34.79869         6     1.050     0.672  -3.27   0
        82    154.6252    848.4096 299.9896439 +22.6765748     456.0738     72.32245      1.617     3.85     3.575496     20.40436     54.37257         8     0.973     0.622 -40.38   0
        83    463.5416    846.6807 300.0862652 +22.7687593     698.9925     72.37769      1.712     3.74     3.326997     20.40436     60.59575        13     1.090     0.920 -11.08   0
        84    109.7164    844.3867 299.9769989 +22.6619436      1064.03      72.2856      1.727     3.78     3.778657     20.40436     83.37348        19     1.176     1.044 -61.31   0
        85    524.7163    839.8301 300.1075318 +22.7851407     587.9605     72.34087      1.519     4.22     3.431264     20.40436     70.01519        11     1.105     0.780 -44.79   0
        86    259.2948    836.6580 300.0259995 +22.7046145     53197.73      72.3961      1.563     2.77     3.605033     20.40436     5480.513       105     1.468     1.412  47.81   0
        87    517.2186    835.5250 300.1065986 +22.7816572     1536.936     72.32245      1.402     2.86     3.423994     20.40436      165.172        20     1.122     0.977 -84.33   0
        88    930.2186    834.6139 300.2355537 +22.9051962     953.4496      72.2856      1.551     3.55     3.591641     20.40436     78.65083        14     0.993     0.928 -55.39   0
        89    187.5972    834.6522 300.0043656 +22.6825258     511.1139     72.32245      1.635     4.71     3.622671     20.40436     54.39058        11     1.179     0.735  50.88   0
        90    232.6025    834.3771 300.0184436 +22.6959516     265.8946     72.26717      1.001     2.98      3.71852     20.40436     43.02113         7     1.040     0.482   3.39   0
        91    546.0651    831.6035 300.1168531 +22.7891825     892.5092     72.34087      1.402     2.88     3.524319     20.40436     106.5424        12     0.945     0.816  45.15   0
        92    557.0571    829.9446 300.1208144 +22.7920027     509.0173     72.37769      1.370     3.13     3.580285     20.40436     68.07343         9     0.792     0.765   6.90   0
        93    413.8199    827.0002 300.0771972 +22.7482012     1038.519     72.24873      0.461     2.19     3.328968     20.40436     759.9609         6     0.387     0.378 -33.15   0
        94    662.3548    826.4191 300.1547474 +22.8225619     455.9276     72.35928      1.321     3.76     3.887938     20.40436     49.27538         8     0.939     0.613  20.08   0
        95    308.9686    813.8969 300.0488477 +22.7129911     30932.63      72.2856      1.475     2.68     3.423522     20.40436      3464.14        78     1.390     1.306  51.41   0
        96    700.1598    816.3065 300.1698119 +22.8309928     649.3019     72.34087      1.286     3.69     3.888305     20.40436     85.72799        11     1.110     0.674 -60.90   0
        97    323.2255    814.4313 300.0531073 +22.7174213     1910.188     72.32245      1.469     2.52     3.402571     20.40436     197.7547        20     1.056     0.980  19.47   0
        98    198.3701    812.9708 300.0147660 +22.6795428     182.2175     72.30402      1.501     4.44     3.555804     20.40436     39.30843         5     1.031     0.543  15.89   0
        99    832.0245    809.5735 300.2130887 +22.8685825     2696.486      72.2856      1.419     2.60     3.820051     20.40436     324.3987        24     1.117     1.040 -89.45   0
       100    320.2221    808.3759 300.0541429 +22.7147838     753.0203      72.2856      1.711     5.18     3.404516     20.40436      66.8732        14     1.273     0.820 -71.53   0
       101    861.4288    808.0021 300.2227649 +22.8769429     413.4747     72.26717      1.648     2.55     3.815611     20.40436     55.11996         6     0.908     0.697  22.17   0
       102    589.7687    805.6136 300.1389125 +22.7948298      937.838     72.30402      1.376     2.76     3.861295     20.40436     118.1194        14     0.971     0.883  76.36   0
       103    426.4110    805.6122 300.0880713 +22.7458430     371.2097     72.21184      1.292     3.88     3.326997     20.40436     55.39247         6     0.887     0.487   0.96   0
       104    484.6909    803.2222 300.1069829 +22.7626357     267.6435     72.24873      1.167     3.78     3.348488     20.40436     38.38664         5     0.879     0.467 -42.89   0
       105    437.1173    800.5202 300.0930585 +22.7475933     952.6366     72.45129      1.397     2.98     3.326997     20.40436      102.304        14     1.039     0.842  56.69   0
       106    838.2399    797.2394 300.2190379 +22.8669040     544.1362      72.3961      1.346     2.72     3.855355     20.40436     73.44189         9     0.898     0.653  82.83   0
       107    585.2719    797.4584 300.1401651 +22.7911414     341.7995     72.35928      2.185     5.30     3.866892     20.40436       31.928         5     1.031     0.769  -5.77   0
       108    382.7283    795.7719 300.0776827 +22.7299186     411.1555     72.32245      1.361     5.03     3.342332     20.40436     51.19299         8     1.140     0.627 -45.24   0
       109    339.4429    796.4009 300.0640151 +22.7171154     344.8175     72.32245      1.392     3.99     3.373154     20.40436     48.43548         6     0.942     0.484   5.55   0
       110    295.2021    796.1483 300.0503397 +22.7037716     243.7155     72.30402      1.097     3.89     3.443816     20.40436     40.63093         6     0.788     0.551  55.53   0
       111    191.3154    805.6069 300.0149685 +22.6753148     713.6193     72.24873      1.406     3.16     3.511246     20.40436     87.14302        16     1.074     0.916   2.13   0
       112     24.7540    794.5958 299.9668019 +22.6221724     356.1331     72.30402      1.415     3.42      4.52758     20.40436     61.82773         9     0.921     0.759 -28.69   0
       113    815.5997    792.1617 300.2136334 +22.8586616     497.2258     72.32245      1.600     3.44      3.87624     20.40436     51.39487        10     0.964     0.771  52.09   0
       114    189.1767    790.1080 300.0193445 +22.6702296     491.8203     72.24873      1.546     3.49     3.493888     20.40436     62.66092         9     1.124     0.586 -18.81   0
       115    512.4638    780.1779 300.1231213 +22.7643526     548.0442     72.30402      1.505     2.72     3.507755     20.40436     57.55481         8     0.816     0.670 -44.35   0
       116    481.9804    778.7672 300.1140931 +22.7548070     681.4515     72.32245      1.428     3.54      3.36603     20.40436     78.02027        12     1.152     0.675 -89.57   0
       117    390.9630    778.0395 300.0860113 +22.7273024     415.5707      72.3961      1.388     3.86     3.359092     20.40436     54.03215         8     0.926     0.699  -4.91   0
       118    898.4638    774.9054 300.2450754 +22.8785367     4418.461      72.4145      1.462     2.67     3.867868     20.40436     463.2056        32     1.184     1.125  89.36   0
       119    503.9506    775.9533 300.1218456 +22.7605878     1416.434     72.35928      1.388     2.73      3.47246     20.40436     174.8377        19     1.027     0.977 -79.36   0
       120    423.6134    775.8114 300.0968932 +22.7364556     489.9394     72.23029      1.283     2.52     3.357468     20.40436     59.19479         8     0.803     0.660  34.64   0
       121    585.6541    770.9409 300.1489086 +22.7836467     295.7236     72.37769      1.289     4.27     3.864523     20.40436     38.08509         7     0.758     0.687 -75.79   0
       122    886.9075    766.3851 300.2442437 +22.8726276     1649.268     72.24873      1.394     2.71     3.915678     20.40436     186.9032        19     1.041     0.991  69.16   0
       123    249.8910    760.2373 300.0479307 +22.6798805     912.4365     72.30402      1.426     2.96     3.470559     20.40436     96.50127        12     0.940     0.826 -56.13   0
       124    713.3920    757.7475 300.1929801 +22.8181509     2507.664     72.32245      1.391     2.65     4.038805     20.40436     285.6391        26     1.229     1.056  19.26   0
       125    918.1664    756.4731 300.2572130 +22.8791465     1534.367     72.32245      1.326     2.47     3.907128     20.40436     191.0284        18     1.041     0.929 -89.55   0
       126    795.6735    743.4015 300.2232818 +22.8386911      567.212     72.21184      1.408     3.59     4.081044     20.40436     67.32405        10     1.001     0.755 -36.00   0
       127     98.7156    744.0002 300.0062287 +22.6298668     571.5644     72.19338      1.464     2.97     3.816278     20.40436     73.80882        11     0.944     0.773  13.38   0
       128    831.7391    734.5572 300.2373978 +22.8469586     146503.9     72.32245      1.393     2.37     4.071694     20.40436      18224.6       168     1.443     1.390  81.35   0
       129    594.1540    738.3446 300.1621552 +22.7768405     369.4679     72.35928      1.130     2.20     3.898856     20.40436     60.64114         6     0.706     0.576 -72.90   0
       130    978.8239    736.0882 300.2827574 +22.8914627     1194.474     72.24873      1.441     2.93     3.778569     20.40436      133.991        19     1.116     1.006 -42.97   0
       131    684.3343    735.0786 300.1913006 +22.8029346     843.3198     72.43289      1.447     3.47      4.11974     20.40436     106.2074        14     1.060     0.897   2.61   0
       132    864.2211    726.8768 300.2500199 +22.8544853     408.7084     72.32245      1.340     3.86     4.027362     20.40436     51.50175         9     0.998     0.670  42.24   0
       133    517.9874    723.5847 300.1432440 +22.7497704     1702.819     72.26717      1.363     2.55     3.693701     20.40436     208.2003        20     1.110     0.952 -39.22   0
       134    699.2205    720.6920 300.2006155 +22.8032664     9356.226     72.24873      1.333     2.28     4.142113     20.40436     1300.152        42     1.163     1.124  81.23   0
       135    200.6379    716.0517 300.0469875 +22.6524340     4872.763     72.34087      1.446     2.55     3.588284     20.40436     626.4418        32     1.194     1.097  13.84   0
       136    282.6244    714.0562 300.0731235 +22.6764556     1090.811     72.32245      1.370     2.67     3.511642     20.40436     157.2546        19     1.040     1.005 -24.34   0
       137    158.1882    711.4892 300.0352781 +22.6383904     407.8648     72.26717      1.456     3.86     3.774381     20.40436     61.09535        10     1.101     0.744  34.12   0
       138    491.2101    709.4207 300.1395154 +22.7376777     814.0135     72.30402      1.359     2.96     3.815447     20.40436     101.5263        15     1.023     0.912 -89.11   0
       139    482.6607    701.6659 300.1393760 +22.7328892     3257.656     72.35928      1.266     2.25     3.892908     20.40436     444.5818        27     1.060     1.026 -29.80   0
       140    472.9254    695.2676 300.1384266 +22.7281344     1462.607      72.3961      1.330     2.78     3.981587     20.40436     176.4769        16     1.023     0.846  75.34   0
       141    866.6418    692.9752 300.2617977 +22.8454747     472.3148     72.37769      1.576     4.79     3.993628     20.40436     49.19358         9     1.142     0.571  76.74   0
       142    136.1356    691.5466 300.0349087 +22.6260559     640.8563     72.35928      1.424     3.27     4.032498     20.40436     65.89305        12     0.987     0.826 -12.07   0
       143    150.6642    690.2951 300.0398301 +22.6300559     636.3468      72.4145      1.547     3.22     3.961911     20.40436     71.36294        14     1.098     0.832 -23.63   0
       144    919.6846    686.2869 300.2805089 +22.8594435     472.5212     72.45129      1.417     3.33      4.15492     20.40436     58.42879        10     0.931     0.797  49.60   0
       145    496.8076    685.7164 300.1489640 +22.7325538     467.0363     72.24873      1.221     3.55     4.112212     20.40436     69.04681         9     0.937     0.795 -72.50   0
       146    397.7309    685.2352 300.1182923 +22.7027093     1795.102     72.32245      1.338     2.37     3.951585     20.40436     240.3172        18     0.985     0.953 -35.44   0
       147    206.8466    686.7523 300.0584426 +22.6458944     342.6342     72.34087      1.513     4.13     3.677107     20.40436     42.82243         6     1.121     0.435  63.78   0
       148    176.0159    686.8359 300.0488331 +22.6366696     566.2477     72.32245      1.454     3.34     3.844428     20.40436     71.11474        10     1.038     0.648 -23.14   0
       149    431.4361    684.5284 300.1290081 +22.7126130     276.5244     72.32245      1.088     4.09      4.11141     20.40436     42.70359         6     1.011     0.472  54.39   0
       150    973.5756    682.4922 300.2985477 +22.8744953     878.6212     72.26717      1.502     2.62     4.175762     20.40436     83.51167        14     0.920     0.880 -70.00   0
       151     51.6407    680.1584 300.0123606 +22.5974387     19718.35      72.4145      1.577     2.80     4.503525     20.40436     2145.075        65     1.418     1.314  42.39   0
       152    482.7159    680.4174 300.1463012 +22.7268084     1038.777      72.2856      1.411     2.53     4.181868     20.40436     126.5882        15     1.078     0.843 -40.34   0
       153    517.7870    679.5810 300.1574881 +22.7370827      328.339      72.2856      1.121     2.69     4.194187     20.40436     54.21011         7     0.894     0.477  -9.71   0
       154    900.4439    666.3070 300.2810056 +22.8479412     1114.346     72.32245      1.308     2.62     4.129043     20.40436     122.6269        16     1.108     0.868  70.97   0
       155     63.5954    665.1025 300.0209679 +22.5967093     332.0347     72.23029      1.404     3.86     4.504146     20.40436      48.1643         8     0.907     0.771 -66.49   0
       156    767.3972    664.0787 300.2402617 +22.8074424     405.3607     72.23029      1.242     3.07     4.156179     20.40436     56.60345         9     0.869     0.686  31.53   0
       157    446.1787    661.0570 300.1412252 +22.7102986     458.2678     72.34087      1.439     3.11     4.282768     20.40436     63.23079        10     0.981     0.725  -2.53   0
       158    840.8636    659.0089 300.2648051 +22.8279971     837.9124     72.30402      1.555     2.78     4.090775     20.40436     90.02415        11     1.016     0.678  79.51   0
       159    238.6406    660.1028 300.0769885 +22.6477882      375.918     72.32245      1.367     4.24     3.660814     20.40436     47.12454         6     0.816     0.630  52.35   0
       160    402.8352    653.4345 300.1302177 +22.6951157     764.5182      72.3961      1.360     3.02     4.179857     20.40436     89.58346        11     1.025     0.656  76.87   0
       161    550.5677    652.1592 300.1766061 +22.7390392     504.5157     72.37769      1.193     2.60     4.289093     20.40436      92.7421         9     0.909     0.638 -61.09   0
       162    598.0084    650.4631 300.1919271 +22.7527721     410.0468      72.2856      1.194     2.35     4.307219     20.40436     72.57495         8     0.849     0.606  43.72   0
       163    568.2492    649.9277 300.1828358 +22.7436987     557.3448     72.30402      1.187     2.68     4.296372     20.40436      87.1494        10     0.941     0.651  10.27   0
       164    446.9879    649.0671 300.1453744 +22.7071006     1026.151     72.32245      1.364     1.98     4.291809     20.40436     159.9041        14     1.047     0.783  25.83   0
       165    880.7432    644.5828 300.2819258 +22.8358001     3215.057      72.2856      1.327     2.33     4.125305     20.40436     410.6046        27     1.077     1.043 -28.12   0
       166    412.5063    644.4899 300.1361338 +22.6954489      1544.61     72.48805      1.265     2.31     4.266819     20.40436     222.6345        19     1.023     0.946 -82.93   0
       167    978.9065    642.6285 300.3131698 +22.8646399     683.9451     72.24873      1.435     2.99     4.238761     20.40436     93.29671        12     0.942     0.851  61.13   0
       168    387.7936    639.6765 300.1300104 +22.6866581     349.3512     72.24873      1.219     3.96     4.123725     20.40436     40.66662         7     0.824     0.636 -19.19   0
       169    920.5770    634.5588 300.2976034 +22.8448520     275.5254     72.35928      1.042     4.08      4.22526     20.40436     53.74844         6     1.018     0.466  51.84   0
       170    441.3795    635.5341 300.1480280 +22.7015357     358.5493     72.30402      1.472     3.39     4.300801     20.40436     49.70909         5     0.741     0.448 -21.84   0
       171    275.8996    631.4647 300.0978804 +22.6507484     9095.947      72.4145      1.375     2.35     3.735424     20.40436     1098.724        45     1.220     1.171  62.76   0
       172    398.3411    628.4139 300.1369521 +22.6865890     9014.264     72.30402      1.271     2.20     4.220851     20.40436     1063.701        41     1.174     1.082  85.45   0
       173    163.6839    625.7958 300.0648409 +22.6154652     330.4992     72.24873      1.263     3.41     4.011547     20.40436     34.02539         5     0.771     0.436  75.32   0
       174   1002.7357    623.5838 300.3267926 +22.8663042     845.9977     72.30402      1.305     2.72     4.238761     20.40436     101.8374        14     0.963     0.870  67.00   0
       175    644.7607    624.2495 300.2150060 +22.7592584     353.2134     72.32245      1.256     2.87     4.312628     20.40436     53.30227         8     0.839     0.669  51.08   0
       176     42.5722    624.5646 300.0276131 +22.5787787     360.6146     72.34087      1.614     3.97     4.556327     20.40436     34.28423         5     1.059     0.426 -15.21   0
       177    894.6523    619.6294 300.2943732 +22.8327986     12517.57     72.34087      1.331     2.24     4.215862     20.40436     1623.051        50     1.200     1.171 -86.88   0
       178    809.9897    622.1908 300.2671505 +22.8081739     1905.629     72.21184      1.259     2.19     4.375787     20.40436     272.6014        21     1.054     0.908  58.55   0
       179    458.9423    617.9828 300.1591973 +22.7017642     11407.49     72.32245      1.315     2.17     4.317309     20.40436     1740.981        48     1.168     1.137  88.71   0
       180    628.5222    613.9050 300.2133111 +22.7514222     528.7476     72.45129      1.164     2.64     4.313179     20.40436     76.58677         6     0.761     0.498 -86.42   0
       181    186.3648    613.5739 300.0758618 +22.6187631     1200.064     72.34087      1.253     2.48     3.949518     20.40436     152.6362        15     0.924     0.884  31.48   0
       182    344.4915    612.4178 300.1254007 +22.6658531     363.3358     72.24873      1.383     4.11     4.116795     20.40436     45.17563         7     0.947     0.573 -32.80   0
       183    433.0616    610.7134 300.1535069 +22.6919193      448.861      72.4145      1.360     4.46     4.317345     20.40436     63.49073        10     1.238     0.656  65.17   0
       184    390.4572    606.1562 300.1417333 +22.6778385     4516.908     72.32245      1.330     2.33     4.269419     20.40436     586.3625        34     1.295     1.044  27.72   0
       185    733.4329    605.9082 300.2485875 +22.7805620     901.0775      72.2856      1.313     2.66     4.307226     20.40436     115.8076        10     0.873     0.689 -68.25   0
       186    368.9430    604.6229 300.1355392 +22.6709480     1287.455     72.32245      1.289     2.18     4.234486     20.40436     185.7799        16     0.940     0.895 -29.32   0
       187    123.1649    604.2017 300.0592675 +22.5971178     714.4111      72.2856      1.398     2.83     4.268734     20.40436     85.94927        10     0.961     0.686   2.54   0
       188    810.4147    601.6683 300.2739531 +22.8024070      1608.73     72.34087      1.333     2.46     4.431486     20.40436     215.7135        16     0.921     0.885 -45.83   0
       189     57.1785    602.1079 300.0394478 +22.5767219     220.9036     72.24873      1.309     4.68     4.516019     20.40436     29.15178         6     1.068     0.583  67.77   0
       190    507.2082    593.7374 300.1820976 +22.7092739     198721.1     72.26717      1.287     2.12     4.404138     20.40436      30037.4       221     1.482     1.443  -8.15   0
       191    330.7458    599.9970 300.1251622 +22.6581677      479.595      72.2856      1.405     2.26     4.093284     20.40436     59.29154         7     0.703     0.640 -89.51   0
       192    690.7913    598.6207 300.2376722 +22.7656931     715.2621     72.30402      1.142     2.16     4.309797     20.40436     137.8542        12     0.875     0.758  69.41   0
       193    783.9666    596.7385 300.2673130 +22.7930681     274.0771     72.34087      1.300     5.16     4.409061     20.40436     40.22306         8     0.963     0.780 -73.23   0
       194    193.2288    593.7251 300.0844454 +22.6151287     3095.718     72.34087      1.265     2.47     4.022028     20.40436     410.5118        28     1.130     1.086  63.82   0
       195    372.5353    590.6897 300.1411845 +22.6680270     419.7814     72.43289      1.722     5.84     4.259987     20.40436     40.16183         8     1.207     0.795  72.25   0
       196    759.6530    589.8016 300.2619913 +22.7837920     504.7469      72.2856      1.241     2.03     4.340919     20.40436     77.01743         6     0.705     0.542  28.65   0
       197    895.5362    594.5437 300.3028020 +22.8258570     236.2067     72.37769      1.147     4.31     4.261861     20.40436     46.93789         6     1.127     0.575 -66.23   0
       198    538.6061    580.0765 300.1963099 +22.7147633     321.6815     72.23029      1.445     2.86     4.475718     20.40436     37.26353         5     0.853     0.487 -86.65   0
       199    397.7141    578.3599 300.1530237 +22.6720376     379.2717     72.30402      1.379     2.98     4.304225     20.40436     47.59774         5     0.863     0.423  71.85   3
       200    397.7828    574.0121 300.1544578 +22.6708105     2580.724      72.2856      1.329     2.16      4.30722     20.40436     382.7849        22     1.025     0.953  15.24   2
       201    242.1721    576.3836 300.1052943 +22.6248327     447.3018     72.34087      1.462     2.72     4.075352     20.40436     60.25624         8     0.840     0.645  62.20   0
       202    847.6500    573.9008 300.2945826 +22.8055846     185.6397      72.4145      1.109     3.41      4.28232     20.40436     42.78145         5     0.957     0.351 -43.37   0
       203    984.2485    570.4466 300.3382963 +22.8455002     308.0453     72.34087      1.476     3.50     4.358299     20.40436     31.36867         5     0.786     0.450  19.22   0
       204    809.2936    570.3578 300.2837790 +22.7930779     349.2621     72.34087      1.099     2.03     4.362955     20.40436     55.09085         5     0.656     0.473  10.16   0
       205    628.7796    569.5078 300.2278195 +22.7387525     166.3319     72.24873      0.934     3.39     4.375762     20.40436     46.22918         5     0.771     0.430  23.43   0
       206    715.2739    562.3064 300.2570997 +22.7626002       355.89     72.46967      1.143     3.18     4.279602     20.40436     53.92604         8     0.878     0.675 -30.09   0
       207    794.7749    560.0689 300.2825977 +22.7857736     1614.887     72.32245      1.284     2.32     4.345407     20.40436      237.239        17     0.935     0.872 -72.30   0
       208    681.5073    560.7217 300.2470962 +22.7520286     261.2738     72.46967      1.010     3.03     4.307446     20.40436     47.38902         5     0.724     0.447  66.79   0
       209    665.9645    557.7571 300.2432184 +22.7465203     2591.534     72.37769      1.275     2.03     4.327997     20.40436      411.363        22     1.015     0.921 -74.66   0
       210     25.9711    558.1888 300.0440250 +22.5547658     272.3355     72.32245      1.047     2.39     4.522734     20.40436     53.17215         6     0.848     0.448  40.25   0
       211    910.3637    555.0359 300.3202637 +22.8189474     466.3953      72.3961      1.236     2.62     4.356471     20.40436     80.13321         8     0.915     0.557 -42.99   0
       212    875.3607    554.4764 300.3095327 +22.8083039     233.5924      72.2856      1.108     2.80      4.26889     20.40436     55.40224         5     0.710     0.443  24.55   0
       213    570.8364    554.2416 300.2147383 +22.7170059     410.3755      72.3961      1.195     2.44     4.546814     20.40436     66.46637         8     0.767     0.669  56.29   0
       214    453.1563    553.5870 300.1783230 +22.6815479     706.1134     72.32245      1.325     2.45      4.49504     20.40436     110.5506        11     0.925     0.717  73.86   0
       215    923.3442    551.6088 300.3254247 +22.8218499     1283.231     72.32245      1.263     2.37     4.397512     20.40436     199.8359        18     1.060     0.893  57.27   0
       216    795.0162    550.0894 300.2859156 +22.7829794     2171.921     72.24873      1.478     3.10     4.321142     20.40436     313.9892        28     1.628     0.911  74.90   0
       217    909.0854    550.7905 300.3212447 +22.8173448     753.3516     72.24873      1.378     2.42     4.362384     20.40436     109.7716        10     0.893     0.714 -36.79   0
       218    548.2814    548.2211 300.2096727 +22.7085181     625.7723      72.2856      1.234     2.55     4.643743     20.40436     75.75444        10     0.858     0.716  31.85   0
       219    386.6804    547.2485 300.1597001 +22.6598015     324.1836     72.34087      0.996     2.39     4.323571     20.40436     73.64944         8     0.847     0.606 -73.29   0
       220    334.5620    548.3360 300.1431356 +22.6444886     324.2798     72.30402      1.636     3.43     4.304367     20.40436     43.17678         5     0.742     0.458 -70.95   0
       221    833.2074    545.2402 300.2993940 +22.7930257     4167.278     72.35928      1.243     2.19     4.279531     20.40436     602.4503        26     1.095     0.947  73.64   0
       222    473.9614    544.8375 300.1876400 +22.6852725     253.5716      72.3961      1.281     3.91     4.633119     20.40436     49.48861         6     0.820     0.535  28.76   0
       223    493.9280    541.2871 300.1950074 +22.6902378     428.9051     72.46967      1.484     2.64     4.660024     20.40436     52.04478         7     0.711     0.660 -49.11   0
       224     65.1259    535.9052 300.0634266 +22.5601212     1112.228     72.46967      1.565     3.56     4.456855     20.40436     104.0903        17     1.127     1.024 -73.71   0
       225    925.1113    535.6700 300.3311547 +22.8177995      644.958     72.48805      1.116     2.54     4.432646     20.40436     123.6437        10     0.848     0.747  50.96   0
       226    726.4728    529.6072 300.2712132 +22.7565641     291.3282     72.26717      1.018     3.51     4.255723     20.40436     46.17421         6     0.901     0.420  70.25   0
       227    331.1233    529.1536 300.1482983 +22.6379531     228.7805     72.32245      1.165     3.31     4.347931     20.40436     39.22503         6     0.889     0.476  32.81   0
       228     57.5461    526.0410 300.0642765 +22.5550186     542.4833     72.30402      1.727     4.05     4.456012     20.40436     51.09419        11     1.172     0.707   7.14   0
       229    921.4078    524.7807 300.3335379 +22.8135616     277.4872      72.2856      1.162     3.00     4.434011     20.40436     43.71429         5     0.732     0.445 -69.04   0
       230    665.1937    519.8725 300.2552873 +22.7354102     452.9597     72.26717      1.336     3.10     4.344162     20.40436     71.64459         9     0.970     0.655 -71.11   0
       231    554.2946    517.6278 300.2214843 +22.7015368     296.1726     72.23029      1.192     3.73     4.652804     20.40436     42.30569         7     0.888     0.607  68.60   0
       232    274.3263    518.2735 300.1341709 +22.6178023     240.3452     72.37769      1.071     3.53     4.344962     20.40436     45.26918         5     0.794     0.453  79.33   0
       233    606.6799    515.7365 300.2384086 +22.7166909     654.6002     72.43289      1.154     2.95     4.559223     20.40436     100.1562        12     0.969     0.775  78.05   0
       234   1014.2318    513.3580 300.3661983 +22.8380716     894.7819     72.35928      1.252     2.37     4.424392     20.40436     112.3296        12     0.825     0.810  47.09   0
       235    921.1887    508.1300 300.3388793 +22.8087115     461.7849     72.34087      1.185     2.35     4.453598     20.40436     98.23917         8     0.796     0.628 -54.66   0
       236    667.3123    507.9020 300.2598361 +22.7326072     974.5891     72.48805      1.374     2.42     4.340743     20.40436      116.983        12     0.952     0.751  -0.24   0
       237    824.5816    504.2536 300.3100220 +22.7786676     974.6532     72.30402      1.239     2.26     4.322353     20.40436     125.5404        13     0.883     0.793 -89.99   0
       238    789.4410    500.7673 300.3002028 +22.7671414     377.8387     72.37769      1.282     2.73     4.302207     20.40436     56.20809         6     0.838     0.477  46.99   0
       239     13.9597    500.6343 300.0589914 +22.5346578     251.0895     72.35928      1.584     4.42     4.459801     20.40436     30.87449         6     1.111     0.499 -51.23   0
       240    808.8638    500.2974 300.3064085 +22.7728237      642.277     72.43289      1.335     2.30     4.319089     20.40436     103.0466         8     0.775     0.635  53.58   0
       241    553.2017    498.6129 300.2273212 +22.6957498     3215.824     72.15646      1.258     2.13     4.662432     20.40436     469.8628        28     1.106     0.957  75.53   0
       242    913.8326    496.9668 300.3402122 +22.8033012     634.4175      72.3961      1.440     2.77     4.451567     20.40436     66.89421        10     0.900     0.709  66.68   0
       243     29.3647    489.9813 300.0672362 +22.5362235     422.3386     72.32245      1.532     2.94     4.440212     20.40436     49.81342         7     0.725     0.681 -49.35   0
       244    393.0555    485.6861 300.1816826 +22.6440436     489.9527     72.37769      1.421     3.13     4.462669     20.40436     61.73872        11     0.917     0.828  66.78   0
       245    964.5189    477.5144 300.3623371 +22.8128870     1404.362     72.46967      1.390     2.34     4.466203     20.40436     193.2434        16     0.996     0.874 -66.79   0
       246    836.6024    477.2096 300.3225540 +22.7744978     510.5605       72.138      1.204     3.03     4.357224     20.40436     65.39993         9     1.033     0.540  73.74   0
       247    922.8683    476.2486 300.3497600 +22.8000531     966.9567     72.32245      1.277     2.27     4.494139     20.40436     142.4547        10     0.886     0.669  78.00   0
       248    663.6861    472.5825 300.2701800 +22.7213771     985.3406     72.26717      1.124     2.09     4.359018     20.40436     162.4888        14     0.933     0.799 -86.30   0
       249    572.9050    474.4939 300.2412899 +22.6947282     308.9211     72.48805      1.322     2.97     4.644583     20.40436     42.21169         6     0.774     0.496   6.33   0
       250    459.7039    473.2964 300.2064438 +22.6604627     535.6507     72.48805      1.337     2.92     4.499532     20.40436     69.35466         9     0.858     0.709 -74.42   0
       251    167.5769    470.9203 300.1163684 +22.5722072     640.3742      72.2856      1.466     3.24     4.414745     20.40436     73.47227        13     1.036     0.839 -46.19   0
       252    963.2075    464.8550 300.3660403 +22.8088561     4355.317     72.32245      1.309     2.18     4.482087     20.40436     637.6426        31     1.164     1.015 -84.05   0
       253    230.1252    466.5355 300.1372344 +22.5897039      3752.85     72.35928      1.360     2.35     4.431495     20.40436     481.9368        32     1.163     1.065 -88.01   0
       254    177.3419    461.3397 300.1225149 +22.5723866     7651.618      72.3961      1.383     2.44     4.437325     20.40436     792.3137        39     1.211     1.141  81.27   0
       255    555.8481    460.8784 300.2404021 +22.6857078     376.2194     72.32245      1.147     2.30     4.615325     20.40436     56.63232         6     0.712     0.560  39.17   0
       256    943.2562    455.8990 300.3627274 +22.8003091     1811.735      72.4145      1.291     2.24     4.512805     20.40436     286.9598        20     1.044     0.911  89.49   0
       257    318.0667    455.5671 300.1681405 +22.6129208     4688.892     72.32245      1.280     2.27     4.647651     20.40436      631.007        28     1.042     1.014  84.22   0
       258    562.2817    452.1527 300.2452390 +22.6851299     18305.78     72.32245      1.271     2.06     4.581863     20.40436     2706.872        64     1.316     1.178  21.97   0
       259    409.4669    453.8537 300.1971274 +22.6398251     362.0752     72.34087      1.559     2.63     4.686243     20.40436      40.9016         5     0.724     0.464 -70.66   0
       260    579.6303    452.2207 300.2506182 +22.6903473     915.5231     72.32245      1.821     4.23     4.554976     20.40436     91.36414        16     1.398     0.828 -46.67   0
       261    188.7715    450.0765 300.1297252 +22.5725822      302.975     72.30402      1.308     4.49     4.462162     20.40436     49.77531         5     0.850     0.676  49.34   0
       262    805.6821    447.8864 300.3224415 +22.7568132     274.3406     72.45129      1.158     2.33     4.324786     20.40436     44.72939         5     0.744     0.413  69.71   0
       263    759.1515    442.1117 300.3098169 +22.7412192     516.9128     72.32245      1.484     3.09     4.269677     20.40436     66.28538         7     0.930     0.604  87.29   0
       264    182.1497    439.6265 300.1310607 +22.5675983     502.6858     72.34087      1.942     6.29     4.484742     20.40436     45.97752        10     1.552     0.716 -78.22   0
       265    895.7544    434.7498 300.3547851 +22.7800093     742.4845     72.34087      1.401     3.12      4.49873     20.40436     109.5691        11     1.039     0.724 -45.89   0
       266    432.8688    433.8216 300.2109143 +22.6410879     413.1724     72.32245      1.822     4.28      4.76075     20.40436     41.15599         8     1.064     0.502  56.45   0
       267    116.9415    432.4357 300.1131315 +22.5459823     2020.835     72.32245      1.404     2.59     4.484752     20.40436     242.4427        22     1.083     1.024  74.93   0
       268    605.7843    433.1189 300.2649654 +22.6926971     259.5293     72.30402      1.229     2.98     4.415483     20.40436     40.25806         6     0.746     0.563 -36.55   0
       269    773.3312    424.3061 300.3200181 +22.7403502      285.709     72.45129      1.349     4.26     4.285511     20.40436     28.31712         5     1.255     0.412  52.22   0
       270    502.9427    421.6789 300.2366644 +22.6585998     6585.686     72.35928      1.271     2.10     4.532562     20.40436     1001.703        34     1.121     1.005  85.72   0
       271    916.6026    421.6662 300.3655346 +22.7824909     1176.729     72.32245      1.238     2.42     4.547795     20.40436     171.3605        18     1.006     0.927  89.61   0
       272    217.8248    420.9947 300.1482001 +22.5729481     609.4358     72.30402      1.391     3.18     4.527644     20.40436     83.83349        10     1.039     0.639  24.44   0
       273     74.9168    414.2068 300.1059941 +22.5281505      622.955     72.24873      1.537     3.56     4.476494     20.40436     65.51977        11     0.985     0.820  80.26   0
       274    762.7075    413.1909 300.3203173 +22.7339752      440.062     72.24873      1.341     4.41      4.27773     20.40436     49.75828         7     0.891     0.621  -7.03   0
       275    707.2018    410.8122 300.3037964 +22.7166685     1179.087       72.138      1.369     2.61     4.281014     20.40436     164.2646        17     1.208     0.826  89.66   0
       276    616.8759    411.9454 300.2752952 +22.6899385     526.4795     72.35928      1.294     3.13     4.319697     20.40436      83.0701        10     0.967     0.714  11.95   0
       277    409.5982    407.9005 300.2120914 +22.6266724      6075.29     72.19338      1.277     2.19     4.920967     20.40436     872.5104        32     1.137     0.974  77.26   0
       278    987.2243    406.6136 300.3924467 +22.7993054     315.6416     72.32245      1.758     4.68       4.5276     20.40436     29.54404         6     0.935     0.665  30.31   0
       279    801.5969    402.2071 300.3360031 +22.7424649     1547.272       72.138      1.310     2.04     4.318598     20.40436     195.8062        16     0.943     0.822  87.94   0
       280    898.9604    402.3158 300.3663178 +22.7716478     553.1453      72.2856      1.181     1.92     4.519582     20.40436     116.1798         8     0.730     0.658  19.24   0
       281    394.3179    396.9263 300.2109010 +22.6189425     441.3825     72.43289      1.283     3.42     4.889715     20.40436     68.61251        10     0.979     0.770 -63.14   0
       282    476.7364    394.5706 300.2373109 +22.6429635     444.9855     72.34087      1.219     3.11     4.550004     20.40436     57.97628         6     0.821     0.529 -42.39   0
       283    755.0160    393.7542 300.3242324 +22.7260874     355.5594     72.34087      1.336     2.80     4.285637     20.40436      56.7292         7     0.859     0.609  62.40   0
       284    457.5125    392.1982 300.2320987 +22.6365221     277.2829     72.24873      1.066     2.54     4.628933     20.40436     53.03448         6     0.700     0.635   9.07   0
       285    774.2939    389.6559 300.3315702 +22.7306827     561.7178     72.37769      1.326     2.27     4.300472     20.40436     77.19585         8     0.738     0.715  25.02   0
       286     55.8849    389.4208 300.1081295 +22.5153326     343.3904     72.26717      1.478     3.92     4.455837     20.40436     37.30439         6     1.017     0.460 -58.81   0
       287    297.0963    387.2002 300.1838198 +22.5870123     2477.363     72.19338      1.250     2.25     4.987507     20.40436     366.9717        21     0.964     0.921  64.76   0
       288     15.5864    384.5076 300.0972074 +22.5018381      1004.06     72.24873      1.568     3.02     4.433084     20.40436     112.0853        18     1.107     0.976  36.96   0
       289    644.8285    381.8352 300.2937775 +22.6896627     281.7591     72.34087      1.024     1.88     4.315729     20.40436     56.45232         6     0.688     0.539  51.40   0
       290    266.4538    376.6141 300.1777286 +22.5747890     29474.44     72.32245      1.344     2.28     4.943221     20.40436     3600.154        76     1.310     1.219  72.24   0
       291    801.1356    373.8787 300.3450578 +22.7341866     1376.271      72.4145      1.264     2.09     4.317355     20.40436     244.6787        18     1.060     0.858  35.77   0
       292    756.2142    371.4611 300.3318443 +22.7200408      257.651      72.2856      0.937     3.34     4.305223     20.40436     39.96827         5     0.839     0.553 -52.44   0
       293    716.5905    363.0057 300.3222442 +22.7057457     561.0946     72.17493      1.284     3.36     4.310061     20.40436     92.26427        13     1.107     0.809  44.70   0
       294    140.6797    362.9312 300.1430749 +22.5331576     459.4069     72.43289      1.350     3.24     4.891284     20.40436     57.21553         9     1.020     0.571 -78.73   0
       295    365.0819    361.8818 300.2131843 +22.6001200     495.7745     72.45129      1.123     2.11     4.905314     20.40436     80.09679         8     0.754     0.637  47.37   0
       296    676.9313    356.2780 300.3120742 +22.6919357     1909.362     72.43289      1.271     2.12     4.312111     20.40436     277.1619        21     1.009     0.991  67.99   0
       297    484.9357    350.5953 300.2541402 +22.6327923     363.0447     72.30402      1.202     2.32     4.530574     20.40436       78.459         7     0.948     0.507  74.11   0
       298    891.9995    348.9982 300.3814596 +22.7542395     600.1572     72.10105      1.249     2.27     4.475069     20.40436      93.4631         9     0.758     0.721 -56.29   0
       299    338.6069    340.8251 300.2117852 +22.5861408     2177.035     72.32245      1.451     2.95      4.88395     20.40436     261.7818        24     1.421     0.866  59.87   0
       300    778.0256    333.6846 300.3509054 +22.7157166     601.8115     72.30402      1.249     2.41     4.346853     20.40436     84.14107        10     0.834     0.743 -19.45   0
       301    770.9940    334.2303 300.3485371 +22.7137681     262.3682     72.32245      1.190     4.63     4.347063     20.40436     44.77042         7     1.034     0.588 -19.04   0
       302    659.9208    331.5606 300.3148001 +22.6797401     463.7798     72.30402      1.269     3.10     4.331553     20.40436     70.80539         8     1.020     0.620  39.28   0
       303    677.1833    331.4069 300.3202269 +22.6848657     183.0669     72.26717      0.999     1.79     4.332522     20.40436     53.20491         5     0.644     0.473  17.69   0
       304    628.3766    330.6793 300.3052620 +22.6700397     358.3703      72.2856      1.168     2.21     4.335384     20.40436     57.67334         5     0.689     0.453 -70.75   0
       305    738.8622    325.1059 300.3414871 +22.7015251     331.5681      72.4145      1.451     4.08     4.360939     20.40436     52.89562         7     1.140     0.577  43.25   0
       306    414.5128    320.4481 300.2420125 +22.6030355     1212.678     72.32245      1.256     2.28      4.71477     20.40436     163.2092        17     0.990     0.890 -79.48   0
       307    154.9484    315.6686 300.1628509 +22.5238723     248.4418     72.30402      1.177     3.33     4.768849     20.40436     41.87586         5     0.944     0.341 -42.44   0
       308    797.8786    313.2737 300.3637182 +22.7157948     271.3629     72.43289      1.150     3.77     4.377223     20.40436     52.02786         6     0.905     0.450 -38.15   0
       309    659.4476    312.1036 300.3209687 +22.6740083     2160.245     72.35928      1.233     1.98     4.348699     20.40436     339.8988        18     1.007     0.814  72.12   0
       310    920.6010    306.3840 300.4042114 +22.7505511     3250.092     72.19338      1.291     2.27     4.510155     20.40436     400.1902        25     1.077     0.993  78.33   0
       311    982.1490    301.0052 300.4251517 +22.7674252     443.8025     72.30402      1.336     4.29     4.630983     20.40436     52.91013        11     1.076     0.873 -48.14   0
       312    367.6915    296.0085 300.2353789 +22.5819887      545.487     72.24873      1.199     2.43     4.604813     20.40436      104.892        10     0.861     0.750  54.78   0
       313    990.0637    294.1708 300.4298387 +22.7678287     1598.284     72.34087      1.304     2.23     4.645966     20.40436     220.2211        18     1.073     0.894 -89.21   0
       314     73.3447    290.3561 300.1457101 +22.4921443     627.7205     72.32245      1.348     2.43     4.452665     20.40436     75.71055        10     0.846     0.741  43.60   0
       315     42.5461    290.1809 300.1361994 +22.4828601     1351.032     72.30402      1.599     3.18     4.444965     20.40436     121.9917        22     1.256     0.979 -36.41   0
       316    936.6177    286.8039 300.4155614 +22.7497157      453.697     72.24873      1.389     2.42     4.533453     20.40436     65.16787         7     0.759     0.600 -76.21   0
       317    790.5125    286.3752 300.3701535 +22.7058588     203.5503     72.26717      1.208     4.43     4.409686     20.40436     34.41327         5     0.984     0.567  49.08   0
       318    780.1458    283.9800 300.3677003 +22.7020669     281.9894     72.30402      1.497     3.90     4.408022     20.40436     31.03191         6     0.957     0.455  50.28   0
       319    126.2496    282.1897 300.1647982 +22.5056610     452.6917     72.34087      1.284     3.05     4.516109     20.40436      54.6036         6     0.738     0.568  47.72   0
       320    802.9066    275.6266 300.3775047 +22.7064799      297.764     72.26717      1.326     4.23     4.396196     20.40436     43.89952         7     0.772     0.660  16.47   0
       321    730.9110    273.4171 300.3557872 +22.6842907     588.4069     72.24873      1.107     2.27     4.400523     20.40436     109.3485         9     0.843     0.642  66.53   0
       322    321.4337    273.0384 300.2284458 +22.5615325     417.0455     72.35928      1.255     3.44     4.516614     20.40436     60.20836         9     0.963     0.676  39.80   0
       323    821.5084    266.4661 300.3862754 +22.7094153      252.903     72.45129      1.037     3.03     4.356343     20.40436     53.30579         6     0.866     0.445  72.08   0
       324    867.0062    266.2502 300.4005279 +22.7229721     286.9047     72.30402      1.254     3.79      4.29542     20.40436      28.8798         5     0.816     0.505 -55.44   0
       325    829.1638    262.4673 300.3899593 +22.7105574      1976.53     72.32245      1.255     2.13     4.340991     20.40436     319.6706        20     1.030     0.875  68.02   0
       326    247.5580    259.9687 300.2097149 +22.5356421     1995.543     72.35928      1.289     2.40     4.625324     20.40436     295.0383        20     1.065     0.917  54.45   0
       327    325.5488    254.9570 300.2355934 +22.5575738     1182.032     72.35928      1.589     2.79     4.545393     20.40436      116.663        17     1.085     0.904  61.64   0
       328     77.4080    255.4444 300.1583017 +22.4833439     322.3191     72.34087      1.234     3.60     4.478522     20.40436     43.16751         6     0.868     0.491 -89.84   0
       329    727.4771    254.0659 300.3609974 +22.6777013     577.1064      72.4145      1.262     2.78     4.392904     20.40436     71.06334         8     0.893     0.602  51.63   0
       330    834.6575    251.1868 300.3953326 +22.7089592     399.5893      72.2856      1.125     2.68     4.319046     20.40436      60.4238         6     0.717     0.611   0.41   0
       331    142.1936    247.2593 300.1810879 +22.5004149     709.6356      72.2856      1.489     3.48      4.75749     20.40436     78.26038        14     1.073     0.882  76.48   0
       332    260.6039    247.0329 300.2179688 +22.5358378     365.4586     72.32245      1.592     3.30     4.710353     20.40436      39.3162         6     0.796     0.643 -57.77   0
       333    680.2458    243.9799 300.3495567 +22.6606616       1620.5     72.37769      1.254     2.01     4.425859     20.40436     258.6331        19     1.033     0.842  73.30   0
       334    745.3110    243.4595 300.3699959 +22.6799922     506.5715      72.3961      1.162     2.75     4.378831     20.40436     100.7325        12     0.951     0.837  85.81   0
       335    163.8111    240.4670 300.1900102 +22.5049446     645.8724     72.34087      1.358     3.28     4.916381     20.40436     70.24273        13     1.055     0.816 -75.26   0
       336    951.6045    236.2615 300.4366382 +22.7396686     814.3286     72.32245      1.292     2.51     4.509168     20.40436     110.7615        13     0.900     0.813  -2.24   0
       337    684.2327    235.2013 300.3536472 +22.6593325     817.9202      72.2856      1.359     3.64     4.432107     20.40436     90.59374        12     1.182     0.687 -88.01   0
       338    604.7382    234.6460 300.3290691 +22.6353698     1234.041     72.34087      1.266     2.54     4.474027     20.40436     191.1537        16     1.031     0.885  88.41   0
       339    453.5746    236.0996 300.2815415 +22.5905137     319.9897     72.26717      1.126     3.88     4.486764     20.40436     51.84652         8     0.987     0.699  63.71   0
       340    426.2151    230.8357 300.2747360 +22.5808061     421.8885     72.32245      1.341     1.84     4.503691     20.40436     58.46095         6     0.686     0.534 -41.07   0
       341    800.3334    226.1431 300.3927612 +22.6914860     1421.426     72.35928      1.305     2.35     4.348102     20.40436     199.4879        16     0.944     0.879  69.41   0
       342    530.9435    226.5604 300.3087172 +22.6109471       1013.2     72.30402      1.286     2.35     4.480145     20.40436     150.5055        13     0.935     0.793  47.67   0
       343    812.2217    225.3548 300.3967222 +22.6948179     784.0532     72.37769      1.246     2.23     4.328182     20.40436     126.0094        12     0.881     0.770  53.70   0
       344    858.6476    223.9763 300.4116407 +22.7083173     332.4045     72.34087      1.380     4.41     4.248906     20.40436     42.30841         9     0.963     0.875 -88.51   0
       345    973.1196    216.1034 300.4498895 +22.7403100     1578.897     72.45129      1.295     2.24     4.621866     20.40436     241.5145        20     1.027     0.927  75.30   0
       346    928.9543    215.2908 300.4363796 +22.7268607     1110.462     72.30402      1.336     2.22     4.416428     20.40436      171.174        15     1.081     0.833  73.68   0
       347    163.1940    208.8224 300.2000856 +22.4956759     693.8914     72.30402      1.370     3.10     5.042461     20.40436     81.10335        12     1.018     0.746  87.37   0
       348     24.8111    203.6521 300.1587670 +22.4527130     2144.771     72.32245      1.458     2.68     4.533825     20.40436     249.1161        25     1.195     1.049  52.80   0
       349    848.0046    200.1697 300.4160475 +22.6982876     685.0426     72.30402      1.310     2.38     4.267629     20.40436     99.52921         9     0.755     0.739  63.02   0
       350    182.3200    196.9604 300.2098784 +22.4980025     5508.797      72.2856      1.393     2.47     4.981875     20.40436     633.9025        33     1.193     1.073  61.55   0
       351    165.5342    187.8823 300.2076062 +22.4903659     465.5222     72.43289      1.267     2.98     5.032896     20.40436     66.69234        11     0.879     0.856 -48.02   0
       352    981.1784    184.1415 300.4627734 +22.7335296     18154.63     72.32245      1.343     2.24     4.789832     20.40436     2500.466        58     1.277     1.174  86.81   0
       353    826.4155    178.1832 300.4164513 +22.6855051     3401.215      72.2856      1.285     2.29     4.303569     20.40436      447.338        25     1.133     0.929  74.36   0
       354    930.0972    176.9388 300.4491794 +22.7161743     2824.655      72.4145      1.337     2.17     4.495824     20.40436     411.0468        24     1.044     1.018 -77.84   0
       355    375.7429    173.7687 300.2775477 +22.5492961     750.9156     72.34087      1.449     3.41     4.498937     20.40436     84.72733         9     0.995     0.674 -85.21   0
       356    129.2263    174.2410 300.2007477 +22.4755686     238.0219     72.37769      1.380     4.29      4.99654     20.40436     34.64587         5     0.753     0.697 -25.38   0
       357    299.9513    165.4685 300.2566663 +22.5242071      589.456     72.32245      1.436     3.95     4.786687     20.40436     69.65962        12     1.163     0.783  10.48   2
       358    304.0414    163.9982 300.2584152 +22.5250102     488.7674     72.32245      1.579     4.80     4.765858     20.40436     50.05202         8     1.056     0.657  49.17   2
       359     66.3400    162.4819 300.1850226 +22.4533453     730.7366     72.43289      1.898     3.86     4.895561     20.40436     60.42969        12     0.977     0.907 -62.86   0
       360    427.1430    160.8617 300.2977263 +22.5609848     1623.629     72.37769      1.245     2.18     4.499505     20.40436     254.2255        18     0.969     0.922  32.35   0
       361    355.0777    161.4364 300.2751198 +22.5395636     488.5151      72.2856      1.351     2.93     4.511805     20.40436      62.8201         9     0.904     0.748  11.05   0
       362    488.8094    160.0528 300.3171792 +22.5792213     431.0661     72.32245      1.480     2.79     4.437375     20.40436     52.90593         8     0.803     0.669  47.86   0
       363    251.3619    156.8091 300.2443662 +22.5071627     210.2935     72.34087      1.279     4.16     4.852332     20.40436      29.2111         6     0.745     0.662   9.45   0
       364    170.6654    156.5648 300.2193598 +22.4829126     458.2865     72.32245      1.369     2.65      5.01914     20.40436     61.43201         7     0.788     0.651   5.58   0
       365    715.4640    150.0269 300.3910103 +22.6442020     424.4878     72.32245      1.307     3.12     4.398687     20.40436      59.7873         8     0.857     0.685  39.60   0
       366    861.2771    144.2432 300.4383285 +22.6861793     399.1389     72.30402      1.787     4.75     4.272632     20.40436     44.04457         7     1.231     0.520  65.49   0
       367    991.4953    141.5809 300.4797984 +22.7243751     3634.199     72.23029      1.388     2.25     4.953629     20.40436     450.8834        34     1.438     1.089 -28.16   0
       368    201.2556    140.7275 300.2340050 +22.4875318     5897.576     72.34087      1.398     2.36     4.961583     20.40436      768.114        37     1.272     1.089  85.95   0
       369    665.2037    141.6189 300.3780809 +22.6267399     322.5517     72.26717      1.295     3.59     4.523536     20.40436     46.52397         5     0.951     0.393  84.03   0
       370    612.7178    141.8438 300.3616615 +22.6110915     291.1421      72.2856      1.344     2.97     4.428181     20.40436     38.13667         5     0.723     0.661 -24.83   0
       371    707.8286    140.8763 300.3915998 +22.6392861     319.1638     72.30402      1.352     3.24     4.433539     20.40436     38.57999         8     0.822     0.661 -50.31   0
       372     52.2280    140.5116 300.1877646 +22.4428093     695.5515     72.30402      1.681     3.37     4.834008     20.40436     65.60069        12     1.024     0.863 -52.22   0
       373    173.2079    134.7395 300.2272290 +22.4774083      257.187     72.30402      1.287     4.24     5.027344     20.40436     35.47533         7     0.881     0.582  37.17   0
       374    447.2701    126.0489 300.3152810 +22.5570118     6239.458     72.32245      1.325     2.20     4.361611     20.40436     865.9771        34     1.209     1.005  76.85   0
       375    332.7879    125.8726 300.2797218 +22.5226719     694.0823     72.34087      1.404     2.51     4.615853     20.40436     98.17658        10     0.956     0.645  24.65   0
       376    503.9629    120.2685 300.3348000 +22.5723283     312.8951     72.30402      1.243     2.79     4.317828     20.40436      53.8774         7     0.847     0.618 -63.91   0
       377    467.7332    120.0418 300.3235974 +22.5614140      296.762     72.30402      1.279     3.82     4.319959     20.40436     32.85923         5     0.822     0.509  39.18   0
       378    699.9199    115.7557 300.3972838 +22.6296976     727.4171     72.30402      1.428     2.63     4.519507     20.40436     110.3333        13     1.008     0.821 -73.13   0
       379    641.3002    117.0622 300.3786007 +22.6125259     317.9717     72.37769      1.336     4.24     4.485454     20.40436     41.24124         7     0.765     0.669 -79.39   0
       380    792.5209    114.1552 300.4266565 +22.6569525     497.4893     72.30402      1.222     3.09     4.343314     20.40436     73.33652         6     0.770     0.480  76.62   0
       381    140.2562    109.7785 300.2250830 +22.4603675     337.9618     72.35928      1.169     2.24     5.052042     20.40436     63.75511         6     0.723     0.529 -39.45   0
       382    498.7719    108.4045 300.3370320 +22.5673650     541.4972      72.2856      1.354     3.94     4.275908     20.40436     69.40238        10     1.094     0.715  52.28   0
       383    575.6401    106.0865 300.3617135 +22.5897144      6204.38     72.30402      1.309     2.23     4.285836     20.40436     863.0345        35     1.195     1.000  72.70   0
       384    350.5081    105.1421 300.2919568 +22.5220252     1455.192     72.37769      1.304     2.41      4.52221     20.40436     189.8096        17     1.007     0.868  73.71   0
       385    616.6258    103.4377 300.3753350 +22.6012233     902.3274     72.34087      1.321     2.13     4.328091     20.40436     138.9977        15     1.025     0.787  59.98   0
       386    686.7960    100.8875 300.3980175 +22.6214953      381.742     72.24873      1.442     4.52     4.630935     20.40436     41.79629         7     0.896     0.647  34.30   0
       387    632.9440     99.3915 300.3817292 +22.6049454     767.8648     72.30402      1.443     2.45     4.432173     20.40436     88.73505         7     0.723     0.659   0.32   0
       388     99.3349     97.7699 300.2162612 +22.4446573     606.5361     72.34087      1.469     3.58     5.052547     20.40436     73.38542        13     1.111     0.851  52.77   0
       389    902.7567     96.8237 300.4666411 +22.6849540     600.7958     72.37769      1.402     2.11     4.469232     20.40436     87.78618         9     0.820     0.640 -70.14   0
       390    671.2714     94.7150 300.3951834 +22.6150741     447.4853     72.43289      1.014     2.17      4.71517     20.40436     87.33685         8     0.754     0.699 -17.58   0
       391    635.0596     89.6136 300.3855590 +22.6027682     903.4492      72.2856      1.724     5.27      4.44801     20.40436     87.72982        16     1.553     0.717  59.29   0
       392    619.8731     90.9020 300.3804116 +22.5985924     2799.395     72.45129      1.297     2.22      4.33479     20.40436     405.7825        24     1.062     0.968  57.10   0
       393    260.7696     92.0104 300.2683070 +22.4913725     511.5149     72.32245      1.438     2.73     4.880911     20.40436      60.3303         8     0.814     0.693  86.74   0
       394    706.3470     82.5007 300.4100709 +22.6220613     1555.246      72.4145      1.296     2.25     4.585426     20.40436     215.2575        14     0.943     0.774  48.07   0
       395    866.5530     81.1519 300.4604360 +22.6696150      283.069     72.35928      1.162     2.87     4.384531     20.40436     50.06898         6     0.970     0.431 -29.85   0
       396    644.3940     75.7302 300.3929683 +22.6015716     794.8033      72.2856      1.329     2.85     4.522507     20.40436     104.4427        14     0.975     0.879  20.48   0
       397    449.9236     75.1045 300.3326280 +22.5431693     944.6064     72.45129      1.274     2.33     4.275769     20.40436     151.2353        11     0.819     0.790  84.50   0
       398     22.6142     75.0148 300.1998053 +22.4151329      626.221     72.24873      1.670     3.20     4.565362     20.40436     66.29498         8     0.875     0.648  36.72   0
       399    353.7443     73.4189 300.3032506 +22.5138817     747.4799     72.30402      1.350     2.86     4.419675     20.40436     101.1363        12     0.965     0.794  40.93   0
       400    735.9423     71.7972 300.4227625 +22.6278415     449.1744      72.2856      1.371     2.10     4.519122     20.40436     65.24544         8     0.751     0.637 -42.45   0
       401    996.7162     69.9219 300.5046682 +22.7053239     2371.598     72.43289      1.358     2.40     4.808391     20.40436     307.7381        25     1.143     1.005 -59.86   0
       402    125.1389     63.3229 300.2354490 +22.4424992     3990.417     72.37769      1.560     2.58     4.820499     20.40436     391.8545        38     1.372     1.200  65.58   0
       403    693.3257     63.7495 300.4120950 +22.6127733     624.3392     72.32245      1.228     2.44     4.698769     20.40436     97.26733        10     0.810     0.774   6.65   0
       404    547.4243     60.4487 300.3677282 +22.5681508     380.2165     72.32245      1.686     3.11      4.25202     20.40436     46.59396         6     0.955     0.585 -55.78   0
       405    241.1908     55.5711 300.2740350 +22.4750417     1242.332     72.32245      1.379     2.50     4.513314     20.40436     144.7289        16     1.061     0.866  75.29   0
       406    686.4464     55.4079 300.4126568 +22.6083162     854.0079     72.34087      1.206     2.64     4.737989     20.40436     118.5577        14     0.996     0.757  67.03   0
       407    652.1564     55.0481 300.4020924 +22.5979497     394.3872     72.34087      1.334     3.36     4.596595     20.40436     55.53926         6     1.005     0.553  70.71   0
       408    779.8030     52.4541 300.4427022 +22.6354052     228.3834      72.2856      1.431     4.70     4.779357     20.40436     31.39215         6     1.003     0.625 -66.56   0
       409    724.2430     50.5277 300.4260142 +22.6182249     658.9844     72.30402      1.465     3.05     4.682053     20.40436     91.38923        13     1.003     0.836  69.43   0
       410    647.7749     50.5274 300.4021936 +22.5953387     495.8427     72.35928      1.270     2.64      4.56666     20.40436     67.03491         8     0.776     0.732 -45.80   0
       411    744.2608     46.9132 300.4334233 +22.6231762     2112.579      72.4145      1.270     2.12     4.710422     20.40436     317.1275        19     1.000     0.885  78.84   0
       412    449.7679     45.2636 300.3422553 +22.5345482     561.7762     72.32245      1.374     3.30     4.290656     20.40436     63.26661        10     0.976     0.714  37.93   0
       413    127.5851     42.2970 300.2430261 +22.4371948     941.2333     72.23029      1.523     2.88     4.704279     20.40436     108.7184        15     1.039     0.867  54.33   0
       414    919.3544     40.0176 300.4902374 +22.6735805     790.0495     72.34087      1.461     3.21     4.542125     20.40436     98.18163        11     1.025     0.751  45.91   0
       415    692.6524     39.4481 300.4197648 +22.6055852     803.5363     72.35928      1.284     2.76     4.767501     20.40436     117.5727        16     0.982     0.958  66.89   0
       416    400.0076     37.6954 300.3292256 +22.5174733     403.9149     72.21184      1.810     3.06     4.294888     20.40436     41.62312         6     0.818     0.628 -35.91   0
       417    115.2229     37.6111 300.2407038 +22.4321453     293.0634     72.32245      1.684     4.36     4.552951     20.40436     22.97161         5     0.948     0.570  49.52   0
       418    312.1980     33.5173 300.3032655 +22.4899758     211.5419     72.23029      1.171     3.68     4.278424     20.40436     28.80398         5     1.012     0.385  83.70   0
       419    142.1971     32.7363 300.2506666 +22.4388273     288.9074      72.2856      1.606     4.45      4.79448     20.40436     38.12392         5     0.944     0.645 -25.38   0
       420    450.5452     31.5377 300.3469474 +22.5308367      335.317      72.3961      1.317     4.11     4.297122     20.40436     42.52129         6     0.909     0.714  11.81   0
       421    277.1584     29.2585 300.2937494 +22.4782576     463.7276     72.32245      1.516     3.95     4.225183     20.40436     45.09937         9     0.909     0.692 -77.14   0
       422    545.1541     24.2895 300.3787451 +22.5570785     860.1487     72.30402      1.278     2.56      4.25202     20.40436     122.8702        14     1.085     0.726  68.92   0
       423    777.4983     23.4943 300.4513735 +22.6263878     198.1234     72.50643      1.252     4.00     5.045886     20.40436     34.04059         5     1.067     0.429 -74.80   0
       424    680.4317     21.4903 300.4217801 +22.5967647     359.8766     72.26717      1.577     4.74     4.802323     20.40436     36.19381         7     0.910     0.700  63.42   0
       425    280.0568     21.9128 300.2970321 +22.4770157     374.0117      72.3961      1.602     5.14     4.161293     20.40436     37.77852         7     1.147     0.651 -32.90   0
       426    154.6655     21.4809 300.2581905 +22.4393305     499.3566     72.43289      1.565     3.78     4.908396     20.40436     69.04585        11     1.132     0.791 -52.06   0
       427    339.6313     20.3498 300.3160668 +22.4944091     395.9988     72.35928      1.521     4.87     4.208751     20.40436     35.30106         7     1.002     0.670 -89.33   0
       428    115.3819     21.2054 300.2460717 +22.4274820       206.37      72.2856      1.405     4.23     4.408999     20.40436     32.72613         5     0.903     0.564 -40.24   0
       429    708.3961     18.9397 300.4313186 +22.6044002     679.7217     72.30402      1.248     2.60     4.842228     20.40436     103.0688        12     0.931     0.775  68.32   0
       430    606.1412   1013.2029 300.0764586 +22.8592925     6802.695      72.2856      1.676     3.22     1.898785     20.40436     541.8439        48     1.428     1.315  50.00   0
       431    120.2233   1012.0002 299.9257217 +22.7131295     858.7769     72.24873      7.042     7.35     31.09595     20.40436     39.93089         9     1.494     1.013  32.10   3
       432    119.1265   1007.7064 299.9267786 +22.7115700      978.328     72.45129      5.505     7.22     30.19082     20.40436      35.1642        10     1.759     0.830 -19.75   3
       433    757.1434   1006.8958 300.1255420 +22.9027679     428.0907      72.3961      1.797     6.39     3.212324     20.40436      32.6926        10     1.208     0.951 -21.89   0
       434    485.5681   1007.6490 300.0407361 +22.8215306     524.0609     72.35928      1.849     4.91     2.083689     20.40436     40.66983         9     1.048     0.651  -7.29   0
       435    197.3371   1007.7029 299.9510826 +22.7350483     699.5969      72.4145      1.762     4.26     10.84898     20.40436     61.41082        14     1.203     0.860 -32.66   0
       436     71.3938   1007.9810 299.9118612 +22.6973171     735.4392      72.2856      5.484     4.83     47.62959     20.40436     31.91245         5     1.180     0.561  40.07   1
       437    514.4324   1004.0111 300.0509031 +22.8291467     1570.796     72.32245      1.743     3.58      2.12487     20.40436     134.7733        22     1.230     1.079 -50.83   0
