#   1 NUMBER                 Running object number                                     
#   2 X_IMAGE                Object position along x                                    [pixel]
#   3 Y_IMAGE                Object position along y                                    [pixel]
#   4 ALPHA_J2000            Right ascension of barycenter (J2000)                      [deg]
#   5 DELTA_J2000            Declination of barycenter (J2000)                          [deg]
#   6 FLUX_APER              Flux vector within fixed circular aperture(s)              [count]
#   7 FLUXERR_APER           RMS error vector for aperture flux(es)                     [count]
#   8 FLUX_RADIUS            Fraction-of-light radii                                    [pixel]
#   9 FWHM_IMAGE             FWHM assuming a gaussian core                              [pixel]
#  10 BACKGROUND             Background at centroid position                            [count]
#  11 THRESHOLD              Detection threshold above background                       [count]
#  12 FLUX_MAX               Peak flux above background                                 [count]
#  13 ISOAREA_IMAGE          Isophotal area above Analysis threshold                    [pixel**2]
#  14 A_IMAGE                Profile RMS along major axis                               [pixel]
#  15 B_IMAGE                Profile RMS along minor axis                               [pixel]
#  16 THETA_IMAGE            Position angle (CCW/x)                                     [deg]
#  17 FLAGS                  Extraction flags                                          
         1    223.9049     18.5937 300.2354657 +22.4424927     3910.461     72.01173      1.570     2.78     5.023113     20.34782      450.775        36     1.336     1.205  54.30   0
         2    785.0858     11.0857 300.4125807 +22.6083355      964.898     72.25052      1.417     2.50     4.922866     20.34782     119.5825        13     1.175     0.710  54.55   0
         3    339.9135     10.6664 300.2741104 +22.4749598     1208.261     72.23218      1.385     2.78     5.036024     20.34782     145.5887        16     1.052     0.843  62.64   0
         4    751.0118     10.0829 300.4022871 +22.5978518     328.6239     72.08529      1.720     4.02     5.089656     20.34782     42.93965         6     1.067     0.547  89.26   0
         5    823.2283      6.2998 300.4260199 +22.6183705      636.566     72.03013      1.582     4.03     4.789077     20.34782     60.72312        11     1.044     0.782  83.85  16
         6    746.3378      6.0823 300.4021272 +22.5953025     455.0503     72.21384      1.361     2.88     5.136879     20.34782     56.06454         7     0.742     0.624  63.70   0
         7    843.1630      2.6025 300.4334321 +22.6232705     1930.928     62.89814      1.279     2.42      4.72734     20.34782     300.4529        20     1.076     0.898  12.79  24
         8    548.6349      1.3359 300.3420870 +22.5347694     334.8469     56.13049      0.878     2.04     4.658779     20.34782     95.65368         6     0.815     0.418 -18.34  24
         9    786.6237   1002.4478 300.0911074 +22.8936514     758.8032     72.14041      2.249     7.45     2.250763     20.34782     47.40539        12     1.415     1.097  54.98   0
        10    253.7962   1018.5849 299.9200192 +22.7384393     2810.501     71.97493      5.883    24.37     70.96539     20.34782     68.15127       162     5.067     3.253   7.12  27
        11    252.1587   1001.3222 299.9251275 +22.7329991     4368.205     72.10367      8.783    22.60     59.32998     20.34782     82.36279       314     5.497     4.960  64.72  19
        12    270.9631   1000.4803 299.9312475 +22.7384016      5085.76     72.08529      9.367    28.59     56.18581     20.34782     99.29566       462     7.312     4.941 -49.15  19
        13    291.0452    988.9332 299.9412485 +22.7411181     7502.344     72.12204      7.779    28.49     45.24837     20.34782     170.7483       630     9.646     4.717  62.80  19
        14    220.0316    993.0699 299.9178260 +22.7209905     2381.654     72.12204      5.043    14.69     57.56342     20.34782      61.9613        87     3.018     2.833 -84.53   3
        15    216.7267    983.1507 299.9200262 +22.7171551      1421.55     72.12204      4.391    10.04     50.94306     20.34782     58.74321        26     2.381     1.179  66.64   3
        16    201.9978   1022.1723 299.9027509 +22.7239194     1071.818     63.85975      3.294     8.53     76.76247     20.34782     61.92798        21     1.794     1.132   3.32  24
        17    184.9311   1021.4738 299.8976740 +22.7185960     2100.536     66.93907      3.819    16.07     76.10043     20.34782     68.37029        75     3.841     1.868 -10.17  24
        18    134.2543   1012.6481 299.8847985 +22.7008530     5241.564     72.15878     13.467    59.66     55.26586     20.34782     111.5521      1191    13.106     7.783  26.59  27
        19    128.4214    961.2591 299.8997064 +22.6843733     5202.121     72.12204     28.811    96.25     25.96119     20.34782     112.2445      4546    21.701    18.369 -79.15  19
        20    612.9459    959.3792 300.0510235 +22.8292132     1397.623     72.12204      1.775     4.20     3.327357     20.34782     99.93619        22     1.249     1.119 -22.72   0
        21    506.6381    955.9501 300.0190458 +22.7963446      1014.44     72.14041      1.764     4.52     3.032486     20.34782     83.74647        18     1.240     1.051   1.35   0
        22    437.2942    953.8503 299.9981508 +22.7749404     6524.897     72.19549      1.816     3.83      3.17094     20.34782     507.3254        42     1.412     1.358 -31.31   0
        23    691.6489    999.3792 300.0625176 +22.8642929     9399.668     72.12204      1.972     4.26     3.043384     20.34782     529.4708        52     1.583     1.457  21.26   3
        24    550.4621    990.8553 300.0213288 +22.8195031     255.4165     72.19549      1.730     4.39     3.271019     20.34782     32.33308         5     0.942     0.582  46.34   0
        25    983.6290    932.7371 300.1752054 +22.9326876     2014.434     72.14041      1.971     4.79      3.35884     20.34782     101.2208        32     1.529     1.312  43.38   0
        26      3.0855   1022.7733 299.8407602 +22.6643696     541.0699     54.55037      2.753     5.70    -12.84802     20.34782     28.39317         8     1.206     0.760  20.31  25
        27    633.6477    930.1503 300.0669792 +22.8270342     335.3915     72.15878      1.637     4.47     3.291743     20.34782     28.65416         7     0.898     0.632 -10.96   0
        28    469.8158    940.7605 300.0125286 +22.7809418     535.5933     72.14041      1.737     4.73     3.198334     20.34782     46.36537        12     1.120     0.961  73.15   0
        29    772.5979    921.4857 300.1130803 +22.8662078     790.5166     72.04852      1.907     4.78     2.886778     20.34782     54.77575        17     1.362     0.947  42.98   0
        30    807.3072    915.8849 300.1257183 +22.8750046     1164.096     72.30551      2.045     5.60     2.645696     20.34782     75.57985        21     1.374     1.194 -79.63   0
        31    584.7947    916.7210 300.0561367 +22.8085307     277.7426     72.04852      1.370     4.50      3.20343     20.34782      39.3396        10     1.060     0.720  67.91   0
        32     17.5467    912.4793 299.8811332 +22.6371073     549.7578     72.15878      1.885     3.73     2.833097     20.34782     41.65442         6     0.970     0.412  71.46   0
        33    829.6078    909.3896 300.1347814 +22.8798244     11499.97     71.99333      1.854     3.95     2.716015     20.34782     702.3269        52     1.461     1.444  -9.87   0
        34    875.1049    909.6043 300.1488930 +22.8935224     465.2779     72.03013      1.671     4.83     2.807302     20.34782     47.47748        13     1.267     0.973  49.73   0
        35   1020.4251    909.1327 300.1943617 +22.9369338     472.4079     70.39287      1.934     5.62     3.683908     20.34782     32.83543         8     1.235     0.722 -31.96  16
        36    977.6036    985.6813 300.1560990 +22.9460853     673.8905     72.03013      1.913     5.35     3.215363     20.34782     43.46201        10     1.228     0.659 -66.13   2
        37    140.6151    900.9257 299.9231212 +22.6707389     1159.745     72.12204      4.508     6.27     8.855611     20.34782     52.84006        21     1.566     1.140  29.22   0
        38    534.8290    897.7755 300.0467452 +22.7881100      429.149     72.12204      1.473     4.69     3.206028     20.34782     49.20783         8     1.004     0.621  -6.99   0
        39    881.1974    896.9349 300.1549136 +22.8917106      337.837     72.14041      1.623     4.65      2.92142     20.34782      35.2835         7     0.899     0.681 -37.58   0
        40    838.1490    891.2958 300.1433293 +22.8771895     1558.783     72.19549      2.028     4.48     2.830651     20.34782     90.83189        27     1.424     1.209 -72.17   0
        41    199.1750    892.1836 299.9441630 +22.6858078     519.2095     72.14041      3.609     3.95     9.753467     20.34782     26.66791         5     1.380     0.323  59.23   0
        42    686.0822   1001.6369 300.0600490 +22.8632714     8552.921     72.08529      1.977     4.30     3.142488     20.34782     496.2508        49     1.593     1.443  30.11   3
        43   1020.3638    890.2969 300.2004700 +22.9315054     470.7248     70.63713      2.111     6.17     3.710804     20.34782     36.79683         8     1.277     0.839  30.82  16
        44    690.3071    888.7354 300.0980975 +22.8321370     559.9799     72.23218      2.145     5.03     3.089574     20.34782     33.68086         7     1.012     0.708 -75.25   0
        45    876.4371    884.9530 300.1573272 +22.8868434     996.7433     72.15878      2.400     6.71     2.970948     20.34782     67.25004        18     1.586     1.009 -82.82   0
        46    924.3397    876.0105 300.1751705 +22.8986306     564.4908     72.08529      1.960     6.75     3.318843     20.34782     38.64186        12     1.354     0.944  44.39   0
        47    775.9886    874.8737 300.1292993 +22.8538432     624.5906     72.14041      2.000     4.40     2.901227     20.34782     47.99649        13     1.066     0.926  84.61   0
        48      7.4980    973.6345 299.8581188 +22.6516152     851.7846     72.10367      4.221     5.62    -3.897022     20.34782     33.16865         9     1.147     0.775  57.27  18
        49    787.6187    872.3914 300.1337307 +22.8566166     595.2943     72.08529      1.687     4.19     2.891474     20.34782     59.43222        11     1.005     0.884 -64.25   0
        50    488.6141    871.5184 300.0409017 +22.7667159       4143.2     72.10367      1.720     3.37     3.555313     20.34782     345.1861        34     1.308     1.255 -10.00   0
        51    532.2114    859.6220 300.0583398 +22.7763775     440.3989     72.10367      1.724     4.73     3.403225     20.34782     36.64833         6     0.968     0.655  74.16   0
        52    197.4961    970.9858 299.9180071 +22.7078957     1793.141     72.03013      8.314    15.84     42.99863     20.34782     44.02536        59     2.946     2.367   7.96   3
        53    213.6284    857.2054 299.9600311 +22.6801157     833.5363     72.12204      1.971     5.93     5.695317     20.34782     54.87873        16     1.365     0.971  58.42   0
        54    191.0695    854.1948 299.9539985 +22.6724830     1443.107     72.08529      1.697     3.78     5.295891     20.34782     144.7433        23     1.295     1.167 -61.10   0
        55   1016.9723    841.8461 300.2151713 +22.9165720     2036.252     72.15878      1.846     4.36     3.715408     20.34782     122.4938        29     1.351     1.314  34.57  16
        56    722.4251    842.2659 300.1232162 +22.8284263     522.0002     72.10367      2.205     6.69      3.01861     20.34782     42.30168        10     1.394     0.900  85.60   0
        57    800.6740    835.8188 300.1496936 +22.8500291     654.4573     72.12204      1.645     5.62     3.145145     20.34782     57.69903        15     1.235     1.062  12.81   0
        58    668.5974    829.7035 300.1105347 +22.8086841     4879.864     72.03013      1.660     3.38     3.104741     20.34782     419.9619        37     1.327     1.265 -41.88   0
        59    704.4451    968.6385 300.0765065 +22.8593084     6763.125     72.17713      1.904     3.97     3.029082     20.34782     381.7405        46     1.505     1.399  18.39   0
        60    471.1825    826.6896 300.0500556 +22.7486257     641.3466     72.04852      1.630     4.07     3.645239     20.34782     62.44932        10     1.115     0.698   0.47   0
        61    218.6271    823.2844 299.9726151 +22.6718884     1296.601     72.12204      1.721     4.17     4.405016     20.34782     113.9117        23     1.416     1.033  29.62   0
        62    689.1704    822.2771 300.1193575 +22.8127195     681.2836     72.10367      1.486     3.12     3.116261     20.34782     65.12827        13     0.988     0.844  25.92   0
        63    583.9503    963.1309 300.0407750 +22.8215936     471.4208     72.12204      2.081     5.40     3.257559     20.34782     35.98732         9     1.202     0.684  71.78   0
        64    844.6583    809.4355 300.1719816 +22.8556345     4278.558     72.12204      1.722     3.53     3.368053     20.34782     343.7838        35     1.311     1.267  10.25   0
        65    252.9824    803.5943 299.9896970 +22.6765492     499.7282     72.08529      1.417     2.95     3.648901     20.34782     57.20393        10     0.895     0.757  85.97   0
        66    561.7515    802.0002 300.0862731 +22.7686993      637.116     72.10367      1.369     2.76     3.314676     20.34782      94.5444        11     0.975     0.710 -11.98   0
        67    207.9666    799.7844 299.9769422 +22.6619505     962.1591     72.10367      1.621     4.46     3.522114     20.34782     82.06915        19     1.220     1.114 -17.51   0
        68    623.2394    795.4160 300.1075583 +22.7852442     606.9739     72.14041      1.418     3.85     3.149873     20.34782     58.91668        13     1.044     0.858 -61.09   0
        69    357.6029    791.9244 300.0260239 +22.7045861     53223.78     72.03013      1.619     3.16     3.849295     20.34782     5266.347       100     1.486     1.398  12.01   0
        70    615.5360    791.1178 300.1065570 +22.7817010     1678.609     72.23218      1.560     3.04     3.168812     20.34782     170.8512        22     1.199     0.988   2.10   0
        71    286.1977    789.8990 300.0044766 +22.6825857     540.7231     72.01173      1.371     2.99     3.594803     20.34782     77.96816         9     0.868     0.790  57.94   0
        72    644.5132    787.0774 300.1168943 +22.7892280     946.6663     72.25052      1.522     3.48     3.190203     20.34782     102.7343        15     1.051     0.952  -7.14   0
        73     43.3968    786.3943 299.9301613 +22.6087261     853.5938      71.9381      1.957     5.56     3.292778     20.34782     72.58923        20     1.465     1.121  13.75   0
        74     10.8641    786.6232 299.9199829 +22.5990273     760.3928     72.10367      2.209     6.16     3.199445     20.34782     46.96565        16     1.296     1.084  11.09   0
        75    655.2995    785.3365 300.1208195 +22.7919616     662.3979     72.21384      1.622     3.56     3.193054     20.34782     63.07912        12     1.024     0.826  -0.87   0
        76    975.0044    783.2212 300.2211455 +22.8871587     340.8054     72.08529      1.667     4.25     3.745917     20.34782     42.71722         5     0.882     0.585  89.55   0
        77    762.2864    781.0403 300.1555440 +22.8227954     1036.101     72.10367      1.369     2.58     3.278981     20.34782     266.9467        15     1.456     0.652 -29.55   0
        78    555.6676    778.8132 300.0919179 +22.7602203     337.6797     72.14041      1.488     3.23     3.378608     20.34782     32.72543         6     0.723     0.639 -26.20   0
        79    798.6311    771.9307 300.1698312 +22.8310713     715.0376     72.10367      1.595     3.68     3.414394     20.34782     78.60656        16     1.109     1.015  37.54   0
        80    407.3763    769.1902 300.0488978 +22.7129918     31346.92     72.12204      1.583     2.99     3.752017     20.34782     2950.543        77     1.417     1.335  11.87   0
        81    421.5981    769.8475 300.0531087 +22.7174455     1958.434     72.10367      1.588     3.16     3.716985     20.34782     195.0293        24     1.217     1.108 -44.15   0
        82    930.6415    765.1735 300.2131790 +22.8686842     2710.505     72.15878      1.632     3.42     3.717062     20.34782     209.6985        25     1.204     1.134 -25.42   0
        83    418.4658    763.3981 300.0542308 +22.7146556     612.7328     72.12204      1.791     4.47     3.722841     20.34782     59.32361        16     1.271     0.979  53.28   0
        84    959.5768    763.8556 300.2226305 +22.8769738      285.165     72.15878      1.403     3.49      3.81273     20.34782     34.37458         5     0.840     0.419  68.88   0
        85    688.4716    761.2397 300.1389856 +22.7949869     1068.417     72.10367      1.637     3.64     3.187486     20.34782     90.27351        16     1.135     0.935  25.84   0
        86    289.8071    760.6638 300.0151031 +22.6752824     854.9291     72.10367      1.644     3.98     3.602894     20.34782     79.94013        17     1.217     1.001  64.85   0
        87    583.2264    758.8221 300.1069968 +22.7627445     280.1816     72.10367      1.421     3.41     3.397639     20.34782     35.57078         5     0.736     0.682  33.11   0
        88    535.5367    755.9448 300.0930859 +22.7476210     908.5583     72.17713      1.521     3.80     3.449144     20.34782     82.61366        18     1.197     1.008  82.22   0
        89    225.6040   1012.8478 299.9131225 +22.7283326     3900.326     72.10367      8.077    28.06     70.67296     20.34782     78.06348       347     6.049     5.432  65.89  27
        90    936.4764    752.8896 300.2189921 +22.8669035     568.4399     72.28719      1.855     6.51     3.777167     20.34782     41.50771        12     1.135     1.049  38.46   0
        91    393.6739    751.8336 300.0502774 +22.7039023     278.5215     72.10367      1.184     3.49     3.799139     20.34782     37.97474         6     0.737     0.633 -17.61   0
        92    481.2899    750.8044 300.0778731 +22.7298807     395.4693     72.03013      1.357     3.56     3.630597     20.34782     61.34328        10     0.919     0.855 -68.03   0
        93    123.3544    750.6216 299.9666293 +22.6224639     565.2282     72.17713      1.705     5.06     3.468051     20.34782     55.61516        10     1.162     0.726 -30.64   0
        94    525.1876    761.2973 300.0881245 +22.7460544     516.0959     72.01173      1.917     4.35      3.48338     20.34782     41.10342         7     0.913     0.589 -32.80   0
        95    913.9564    748.1426 300.2135134 +22.8587934     378.8958     72.10367      1.448     4.74     3.722396     20.34782     34.37238         7     0.877     0.726  55.83   0
        96    287.9276    745.5050 300.0194462 +22.6703701     556.4286     72.23218      1.543     3.24     3.596882     20.34782     52.79621         8     0.870     0.653 -50.44   0
        97    610.6056    735.8831 300.1229785 +22.7643672     404.4139     72.04852      1.415     4.30     3.527724     20.34782     42.32846         9     1.090     0.574  25.96   0
        98    580.5513    734.1206 300.1141937 +22.7548519     613.6428     72.12204      1.404     3.07      3.50121     20.34782     75.90636        13     1.008     0.849  11.87   0
        99    489.6128    733.4835 300.0860936 +22.7274053     239.0142     72.08529      1.363     3.76     3.626459     20.34782     39.84658         6     0.993     0.408 -18.56   0
       100    996.9082    730.4768 300.2451248 +22.8785664     4571.417     72.26885      1.700     3.33     4.127109     20.34782     381.4121        37     1.353     1.268  -8.16   0
       101    602.2306    731.5421 300.1217818 +22.7606105     1274.448     72.14041      1.491     2.88     3.546769     20.34782     128.3051        17     1.093     0.894  15.48   0
       102    683.9993    726.5237 300.1488779 +22.7836788     248.9071     72.01173      1.556     4.18     3.228455     20.34782     28.35803         5     0.763     0.653  89.87   0
       103    985.2914    722.0142 300.2442525 +22.8726554     1684.869     72.04852      1.638     3.62     4.077184     20.34782     146.2763        22     1.219     1.085 -35.61   0
       104    860.3846    722.0385 300.2052978 +22.8352453     1090.753     72.14041      0.592     0.76     3.662684     20.34782      697.391         5     0.487     0.299   0.89   0
       105    348.2662    715.7081 300.0478955 +22.6799189     829.2808     72.26885      1.537     3.26     3.941121     20.34782     90.99896        17     1.120     0.958  23.17   0
       106    811.7204    713.1387 300.1930226 +22.8181087     2528.402     72.19549      1.618     3.07     3.474206     20.34782     218.3628        28     1.364     1.026 -10.55   0
       107   1016.4820    711.9892 300.2572399 +22.8791167     1637.238     72.08529      1.705     3.54      4.19026     20.34782     114.7976        24     1.235     1.147 -81.15  16
       108     34.1264    703.2308 299.9543129 +22.5820998     968.1503     72.14041      1.868     4.33     3.357638     20.34782     72.74221        19     1.255     1.048  18.80   0
       109    894.3438    699.1508 300.2233239 +22.8388441      624.315     72.15878      1.734     5.34     3.854974     20.34782     60.73154        14     1.357     1.068  26.27   0
       110    197.0201    699.6811 300.0060787 +22.6299554     535.1321     72.10367      1.462     3.50      3.65102     20.34782     64.55003        14     1.141     0.879   3.87   0
       111    930.1752    690.1120 300.2374337 +22.8469806     148266.8     72.08529      1.614     3.11     3.958318     20.34782     12067.14       170     1.558     1.500   9.42   0
       112    692.2230    693.6683 300.1621184 +22.7767092     419.3613     72.14041      1.487     3.24     3.360816     20.34782     59.07681         6     0.884     0.560  68.32   0
       113    782.7162    690.5681 300.1913198 +22.8029356      807.757     72.10367      1.671     3.13     3.403186     20.34782     69.13215        12     0.996     0.800  34.21   0
       114    963.2757    683.0538 300.2500498 +22.8548670     389.2046     72.15878      1.522     4.77     4.048124     20.34782     39.55887         9     1.040     0.621 -33.39   0
       115    797.6477    676.2392 300.2006297 +22.8032938      9536.98     72.15878      1.485     2.81     3.421199     20.34782     897.1251        43     1.241     1.227  59.73   0
       116    616.4601    678.8448 300.1433402 +22.7497464     1602.258     72.14041      1.406     2.68     3.787828     20.34782     193.3091        20     1.136     0.923  -5.53   0
       117    299.0726    671.2032 300.0470601 +22.6523958     4903.244     72.06691      1.534     3.00     3.807314     20.34782      438.574        38     1.333     1.163  18.82   0
       118    380.9644    669.0012 300.0732453 +22.6763218     1297.092     72.08529      1.627     6.45     4.004365     20.34782     156.7719        18     1.319     0.887  62.77   0
       119     12.9045    669.5217 299.9586756 +22.5660658     1649.787     72.25052      1.742     3.69     3.346597     20.34782     159.3217        21     1.220     1.095   1.27   0
       120    257.0714    666.8832 300.0354044 +22.6385594     509.0214     72.25052      1.291     2.08     3.802324     20.34782     78.22368         6     0.717     0.539 -47.89   0
       121    589.5759    664.6763 300.1395735 +22.7376206     736.2047     72.14041      1.475     3.18     3.850067     20.34782     76.95631        14     1.071     0.809  44.84   0
       122    581.0380    657.1073 300.1393748 +22.7328884     3141.455     72.12204      1.383     2.62     3.880284     20.34782     377.0599        27     1.106     1.087 -23.21   0
       123    571.3517    650.7971 300.1384096 +22.7281734     1390.179     72.12204      1.362     2.59     3.897586     20.34782     165.2215        15     0.948     0.899 -79.56   0
       124    964.6078    648.5793 300.2616690 +22.8453599     351.4906     72.08529      1.241     2.93     4.066444     20.34782     50.08198         7     0.873     0.559  58.62   0
       125    482.2874    648.2256 300.1115219 +22.7007375     321.6732     72.06691      1.354     4.85     4.076633     20.34782     38.63134         6     0.880     0.756  87.39   0
       126    234.5964    646.5090 300.0350374 +22.6259731     670.3123     72.03013      1.484     4.20     3.845871     20.34782     93.21437        14     1.250     0.810  55.99   0
       127    248.9486    645.5529 300.0398098 +22.6300034     557.2997     72.15878      1.373     3.52     3.842518     20.34782     59.35914        12     0.974     0.868  -8.75   0
       128    274.6581    642.3865 300.0488320 +22.6368055     582.1251     72.08529      1.819     3.69     3.841177     20.34782     48.92735        11     1.044     0.753 -22.41   0
       129   1018.3054    642.3161 300.2804527 +22.8596408     432.8112     72.30551      1.348     3.58      4.14772     20.34782     59.40935         8     0.912     0.677  -7.40  16
       130    595.3228    640.9373 300.1490767 +22.7325270      683.435     72.19549      1.772     4.96     4.035269     20.34782     56.37365        12     1.241     0.826  73.71   0
       131    305.6439    642.2363 300.0585158 +22.6460548     345.0203     72.17713      1.421     4.00     3.864809     20.34782     42.46049         6     0.891     0.513  49.39   0
       132    496.0279    640.3777 300.1183483 +22.7026037     1805.358     72.12204      1.505     2.71     4.052201     20.34782     199.3619        23     1.201     1.024  45.04   0
       133     71.3599    636.8479 299.9874486 +22.5742350     794.8356     72.15878      1.959     3.59     3.751796     20.34782     63.55464        12     0.952     0.886 -32.16   0
       134    581.1877    635.7943 300.1463468 +22.7268138      1051.61     71.99333      1.368     2.61     4.039351     20.34782     128.0113        13     0.919     0.846  -9.71   0
       135    616.0513    634.9078 300.1574904 +22.7370081     354.4231     72.17713      1.275     3.77     4.096516     20.34782     57.84018         6     0.818     0.626  11.49   0
       136    150.0879    635.3963 300.0123813 +22.5974367     19673.68     72.04852      1.653     3.09     3.845493     20.34782     1859.606        67     1.441     1.364  20.53   0
       137    334.0395    627.5812 300.0721081 +22.6503644     205.7381     72.14041      1.109     4.23     3.908674     20.34782     42.50819         5     1.137     0.448 -11.41   0
       138    999.2260    621.9843 300.2811079 +22.8480842     1094.698     72.14041      1.542     4.36     4.118584     20.34782     87.75417        19     1.291     1.026  68.67   0
       139     96.0537    619.7517 300.0006744 +22.5767398     1572.083     72.15878      2.066     5.01     3.859539     20.34782     117.7413        27     1.644     1.148 -77.76   0
       140    865.4447    620.2153 300.2399663 +22.8075095     432.3798     72.14041      1.654     3.93     3.922763     20.34782     50.51577         9     1.171     0.572  57.48   0
       141    161.9368    619.9536 300.0210807 +22.5965610     436.2053     72.15878      1.597     5.06     3.925399     20.34782     39.15055         9     0.978     0.742  62.17   0
       142    544.2549    616.3953 300.1411517 +22.7101745     482.4674     72.12204      1.403     3.49       4.1398     20.34782      56.5578        10     1.028     0.658 -36.54   0
       143    939.2583    614.8509 300.2647233 +22.8280758     838.2706     72.17713      1.992     3.67     4.026573     20.34782     71.55277        15     1.097     0.947  10.41   2
       144    935.4009    614.2902 300.2637026 +22.8267595     409.6356     72.03013      1.690     3.96     4.020439     20.34782     39.32423         5     0.800     0.700 -32.04   3
       145    337.0680    615.3961 300.0770088 +22.6477756     371.4804     72.10367      1.455     3.57     3.907445     20.34782     45.92582         7     0.865     0.609 -28.40   0
       146    683.7072    613.2143 300.1856096 +22.7510524     239.8608     72.04852      1.228     3.90     4.283288     20.34782     43.89721         6     0.776     0.561 -45.44   0
       147    501.3051    608.8218 300.1302433 +22.6951265     697.9557     72.03013      1.382     3.25       4.1567     20.34782     87.18479        11     1.001     0.749 -31.07   0
       148    649.3825    607.2724 300.1768492 +22.7390606     392.9531     72.12204      1.339     2.89     4.344918     20.34782     54.16553         7     0.821     0.594 -65.66   0
       149    696.2249    605.8167 300.1919123 +22.7526785     356.0846     72.14041      1.214     3.90     4.294806     20.34782     52.31269         6     0.760     0.572 -43.84   0
       150    667.0224    605.6416 300.1828730 +22.7438781      559.568     72.15878      1.448     2.74      4.37657     20.34782     67.66932         9     0.896     0.643  52.61   0
       151    545.4379    604.4715 300.1453939 +22.7071055     884.3912     72.08529      1.408     3.41     4.218307     20.34782     99.01476        15     1.027     0.968 -29.66   0
       152    732.3920    604.2329 300.2036940 +22.7630598     279.7976     72.12204      1.377     3.86     4.147933     20.34782     31.18744         5     1.037     0.412  -5.82   0
       153    979.2337    600.1346 300.2819715 +22.8358179     3300.864     72.12204      1.538     2.98     4.136004     20.34782     314.1887        29     1.224     1.119 -39.10   0
       154    510.8344    600.0189 300.1360691 +22.6954555     1626.401     72.14041      1.352     2.75     4.174588     20.34782     208.7856        21     1.074     0.971  51.01   0
       155    876.1803    597.6302 300.2506511 +22.8042358     412.5136     72.12204      1.407     3.79      3.91911     20.34782     35.69964         7     0.840     0.610  25.25   0
       156    485.9541    594.6211 300.1300791 +22.6864481     425.1508     72.17713      1.685     4.33     4.129446     20.34782     42.24305         7     1.096     0.487  48.19   0
       157     72.8429    593.5356 300.0019797 +22.5622571     5027.746     72.10367      1.679     3.17     3.938037     20.34782     469.7998        39     1.398     1.252  27.94   0
       158    539.8848    591.0222 300.1480345 +22.7015795     470.1646     72.06691      1.807     3.54     4.246576     20.34782     41.09054         7     0.852     0.652  17.11   0
       159   1018.4082    590.2064 300.2974163 +22.8446946     263.5037     71.97493      1.225     3.83     4.348924     20.34782     46.47964         6     0.900     0.576 -16.56  16
       160    374.3445    586.7025 300.0979248 +22.6507169     8994.541     72.21384      1.465     2.59     3.922175     20.34782     1077.938        44     1.294     1.167   7.40   0
       161    496.7755    583.7698 300.1369720 +22.6865763     8876.938     72.12204      1.427     2.54      4.15002     20.34782     1150.915        44     1.238     1.167  68.86   0
       162    743.5104    580.2003 300.2149656 +22.7594873     176.8472     72.03013      1.242     3.08     4.051999     20.34782     38.66896         5     0.738     0.449 -68.01   0
       163    141.0017    580.1559 300.0275030 +22.5788644     188.0265     72.10367      1.292     3.20     3.990384     20.34782     39.63799         5     0.889     0.637  27.09   0
       164    908.5953    577.9312 300.2671568 +22.8082834      1885.02     72.08529      1.500     2.79     3.936849     20.34782     203.1787        23     1.240     1.040  47.03   0
       165    993.1358    575.2454 300.2943935 +22.8328273     12424.41     72.14041      1.552     2.94     4.355091     20.34782       1202.3        50     1.307     1.279 -11.27   0
       166    557.3271    573.3613 300.1592015 +22.7017358     11562.94     72.08529      1.363     2.47     4.316499     20.34782     1263.098        45     1.231     1.135  65.62   0
       167    284.7959    568.8253 300.0758816 +22.6187367     1358.254     72.08529      1.449     2.95     3.905206     20.34782      149.837        20     1.109     1.019  11.64   0
       168    727.0773    568.9365 300.2135047 +22.7513286     643.2136     72.19549      1.512     3.53     4.120826     20.34782     62.73662        11     0.965     0.854 -64.50   0
       169    531.2761    566.1039 300.1534492 +22.6918445     423.0448     72.26885      1.522     3.82     4.279487     20.34782     43.62851         6     0.910     0.459  53.75   0
       170    488.7810    561.4683 300.1417282 +22.6777771     4592.452     72.12204      1.446     2.67     4.114272     20.34782      557.174        39     1.566     1.083  14.67   0
       171    831.8550    561.7542 300.2484887 +22.7806514     841.4222     72.15878      1.482     2.75     3.827041     20.34782     98.51204        13     0.927     0.874  12.80   0
       172    467.3191    559.9196 300.1355520 +22.6708997     1233.771     72.25052      1.340     2.53     4.034513     20.34782     154.6615        15     0.959     0.878  16.06   0
       173    221.6093    559.3113 300.0593268 +22.5970589       903.33     72.04852      1.643     3.48     3.911021     20.34782     82.17606        12     1.076     0.781 -28.43   0
       174    908.8906    557.2352 300.2739720 +22.8024243     1563.832     72.08529      1.520     3.45     3.905186     20.34782     153.7812        21     1.201     1.000 -24.68   0
       175    605.6452    549.1108 300.1821224 +22.7092511     200949.8     72.12204      1.370     2.44     4.374644     20.34782      25217.1       207     1.483     1.422   1.46   0
       176    155.3932    557.2500 300.0394152 +22.5766092     268.4899     72.12204      1.366     3.97     4.022295     20.34782      34.4522         6     0.906     0.498 -50.16   0
       177   1009.3237    556.1917 300.3056325 +22.8321975     228.9851     72.08529      1.235     3.70     4.631006     20.34782     34.16571         5     1.013     0.388  -4.07   0
       178    429.0002    555.5763 300.1250391 +22.6581668     425.9207     72.04852      1.672     4.80     3.898904     20.34782     41.01255         7     0.859     0.760  68.16   0
       179    789.3504    553.9725 300.2377692 +22.7656843     758.3889     72.14041      1.333     3.29     3.853016     20.34782     92.53831        13     0.986     0.891  64.88   0
       180    291.8054    549.0732 300.0844767 +22.6151697     3419.934     72.06691      1.459     2.66     3.903832     20.34782     416.5353        24     1.134     1.068  78.89   0
       181    857.6384    545.3074 300.2618679 +22.7836476     433.3849     72.12204      1.325     3.24      3.80862     20.34782     58.02863        10     0.931     0.734  26.76   0
       182    496.2845    529.3366 300.1544997 +22.6708000     2804.973     72.21384      1.507     2.45     4.128718     20.34782     308.8536        28     1.155     1.089 -41.62   2
       183    340.1534    531.5836 300.1051927 +22.6246452     398.0926     72.15878      1.203     2.43     3.888263     20.34782     54.77132         6     0.744     0.491   5.00   0
       184    945.9658    529.0308 300.2946941 +22.8054202      109.886     72.14041      1.510     4.71     4.136821     20.34782     27.45051         5     1.427     0.440 -18.64   0
       185    907.8986    526.4329 300.2836676 +22.7932748     495.0798     72.10367      1.591     3.55      3.92333     20.34782     60.95038         9     0.951     0.751   1.68   0
       186    813.5104    518.2219 300.2569105 +22.7626484      499.801     72.04852      1.450     2.95     3.819261     20.34782     61.43505        12     1.020     0.745 -29.98   0
       187    893.3616    515.7245 300.2826131 +22.7858442     1798.141     72.08529      1.426     2.60     3.899059     20.34782     213.5586        19     1.023     0.989 -32.03   0
       188    764.5088    513.2938 300.2432404 +22.7465557      2800.71     72.28719      1.359     2.38     3.928443     20.34782     313.1352        26     1.105     1.046 -74.17   0
       189     23.4714    514.4124 300.0123412 +22.5247505     697.1528     72.14041      1.632     3.37     4.118883     20.34782      83.5412        14     1.180     0.771 -28.96   0
       190   1007.9244    508.1209 300.3208096 +22.8179601     1090.519     72.23218      2.326     8.39      4.78721     20.34782     82.93472        22     2.235     0.881  71.55   0
       191    973.8126    510.1891 300.3094981 +22.8083420     239.2119     72.01173      1.280     4.22     4.456114     20.34782     36.00788         6     0.980     0.661  88.19   0
       192    669.0615    510.0326 300.2145640 +22.7170271     381.5297     72.15878      1.181     3.07     4.434822     20.34782     61.87194         9     0.822     0.725  24.61   0
       193    551.7640    509.1995 300.1783089 +22.6816433      822.207     72.08529      1.471     2.58     4.279061     20.34782     109.3277        11     0.882     0.776  -6.45   0
       194   1021.7713    507.4807 300.3253370 +22.8219213      1201.92     65.72062      1.501     2.82     4.923238     20.34782      130.396        18     1.109     0.921  -5.70  24
       195    893.5746    505.6835 300.2859405 +22.7830221     2331.909     72.10367      1.776     3.52      3.91638     20.34782     216.0696        32     1.680     1.082  73.42   0
       196    646.9797    503.6800 300.2097495 +22.7085868     776.2537     72.10367      1.691     3.30     4.363629     20.34782     77.14188        10     0.967     0.749 -39.80   2
       197    646.8470    499.8741 300.2109441 +22.7074538     507.8451     72.12204      1.439     3.86     4.354787     20.34782     45.58905         6     0.769     0.556  62.02   3
       198    485.8712    502.3158 300.1600339 +22.6599203     1089.746     72.23218      0.613    -1.47     4.077699     20.34782     619.9816         8     0.766     0.366 -75.20   0
       199    931.6609    500.8340 300.2993909 +22.7930325     4306.339     72.14041      1.446     2.59     4.076568     20.34782       491.01        27     1.136     1.083 -34.58   0
       200    592.4185    496.4388 300.1951102 +22.6901599     308.1763     72.14041      1.136     3.01     4.235807     20.34782     54.98427         7     0.796     0.685  17.90   0
       201   1023.2135    491.2325 300.3310636 +22.8176818     523.2582     58.64692      1.257     3.41      4.95669     20.34782     72.16852        10     0.981     0.764  80.97  24
       202    163.7284    491.1455 300.0634728 +22.5601412     882.1502     72.12204      1.383     2.92     4.089602     20.34782     109.0339        13     0.988     0.808   1.63   0
       203    824.6920    484.9926 300.2711869 +22.7564483     361.5459     72.03013      1.252     2.93     3.830638     20.34782     54.53397         6     0.827     0.578 -44.20   0
       204    211.2112    482.7089 300.0809707 +22.5719581      204.336     72.06691      1.235     3.74     4.027721     20.34782      34.1101         5     0.998     0.403  85.76   0
       205   1019.9330    480.2959 300.3335918 +22.8135556     346.9785     71.69828      1.696     4.48     4.940831     20.34782      50.6897         9     1.103     0.778  53.28  16
       206    962.7845    488.9129 300.3129682 +22.7989243      167.514     72.06691      1.288     3.93     4.399591     20.34782      34.6605         6     1.040     0.554 -66.77   0
       207    763.9550    475.5166 300.2553356 +22.7355352     352.6358     72.08529      1.163     2.33     3.936406     20.34782     64.61605         6     0.746     0.499  -3.59   0
       208    652.7366    472.4199 300.2216934 +22.7013315     280.2751     72.10367      1.396     4.11     4.322409     20.34782     53.61075         7     1.190     0.636  77.02   0
       209    705.1340    471.2331 300.2383999 +22.7166863     819.8541     72.12204      1.319     2.77      4.19229     20.34782     92.65744        11     0.925     0.768  82.67   0
       210    684.0229    469.9888 300.2322277 +22.7100052     216.4877     72.12204      1.291     3.80     4.313712     20.34782     30.56047         5     1.020     0.405  60.90   0
       211   1019.9306    463.8417 300.3389341 +22.8088241     301.7003     71.55029      1.129     4.05     4.891048     20.34782     52.31357        12     1.097     0.800  86.02  16
       212    765.8746    463.3990 300.2598684 +22.7326281     908.7843     72.01173      1.424     2.76     3.929614     20.34782     103.8034        12     0.918     0.847  42.46   0
       213    923.2509    459.8252 300.3100852 +22.7787267     870.8261     72.14041      1.311     2.47     4.100283     20.34782     139.7247        13     0.934     0.814 -31.35   0
       214    907.3639    456.0598 300.3063541 +22.7728877       656.41     72.14041      1.333     3.10     4.043324     20.34782     74.94366        10     0.895     0.774  34.51   0
       215    887.7914    455.9643 300.3002827 +22.7670001     419.2421     72.12204      1.281     2.79     3.970829     20.34782     63.07447         8     1.002     0.495  37.77   0
       216    651.6812    454.0584 300.2273265 +22.6957404     3238.882     72.17713      1.333     2.41     4.300712     20.34782     429.6442        27     1.105     1.046  -3.24   0
       217   1012.3286    452.9056 300.3401137 +22.8034042     550.6768     72.23218      1.593     5.58     4.792921     20.34782     50.35518        11     1.062     0.955 -45.51   0
       218    127.9394    445.6518 300.0671212 +22.5363542     278.0847     72.17713      1.421     3.46     4.312403     20.34782     40.16705         5     0.812     0.485  53.94   0
       219    423.6109    441.6962 300.1603422 +22.6238544     313.1286     72.03013      1.238     3.63     4.008901     20.34782     37.37334         7     0.893     0.753  39.07   0
       220    934.9142    433.0630 300.3224114 +22.7745252     427.8589     72.21384      1.304     2.10     4.190405     20.34782     88.31825         8     0.764     0.624  33.09   0
       221   1021.4257    431.8429 300.3497901 +22.8000712     1077.211     67.11697      1.566     2.96     4.798547     20.34782     105.8781        16     1.021     0.988  52.89  16
       222    557.8400    428.7791 300.2063125 +22.6603655     396.5158     72.15878      1.382     3.00     4.192976     20.34782     70.86368         8     0.883     0.642  -6.44   0
       223    762.3546    428.0808 300.2702384 +22.7214247     1117.913     72.10367      1.352     2.42     3.932983     20.34782     142.0778        12     0.927     0.735  -0.58   0
       224    266.1712    426.0625 300.1164478 +22.5721763     583.9199     72.12204      1.346     3.91     4.140102     20.34782     83.52188        12     1.167     0.736  27.98   0
       225    106.2183    424.3735 300.0672793 +22.5237347      293.568     72.15878      1.580     4.04     4.400443     20.34782     37.02924         6     1.091     0.428 -12.98   0
       226    328.6378    421.8527 300.1372399 +22.5896922     3731.764     72.14041      1.424     2.50     4.068027     20.34782      500.204        27     1.148     1.050  54.07   0
       227    275.8167    416.6071 300.1225163 +22.5723533     7516.982     72.06691      1.434     2.57     4.176767     20.34782     954.0089        40     1.316     1.098  47.18   0
       228    660.8604    407.6253 300.2452599 +22.6851493     18645.76     72.12204      1.359     2.31     4.274655     20.34782     2724.661        64     1.266     1.254  39.78   0
       229    416.6647    410.8421 300.1681971 +22.6129126     4747.948     72.10367      1.365     2.44     4.106507     20.34782     664.6011        32     1.175     1.042  53.49   0
       230    507.9520    409.5004 300.1970410 +22.6398811     265.5194     72.15878      1.427     4.95     4.126744     20.34782     36.83996         6     1.406     0.493 -38.12   0
       231    678.4485    407.3852 300.2508162 +22.6903483     806.9095     72.15878      1.961     6.74     4.267115     20.34782     60.80562        17     1.750     0.769 -45.32   0
       232    288.0103    405.4803 300.1299197 +22.5728141     292.5508     72.10367      1.152     4.55     4.244121     20.34782     38.65331         7     0.971     0.605 -56.94   0
       233    518.8455    404.9416 300.2019116 +22.6418355     265.9513     72.15878      2.115     4.82     4.153481     20.34782     29.14034         5     1.508     0.437  18.57   0
       234    904.8474    404.2741 300.3223822 +22.7572478     270.2589     72.12204      1.200     3.81     4.166217     20.34782     45.17603         6     1.032     0.403  11.60   0
       235    858.0530    397.9663 300.3098408 +22.7414249     321.5546     72.14041      1.250     3.17     4.064149     20.34782     55.15565         7     0.945     0.627  30.71   0
       236    281.1154    394.3012 300.1314042 +22.5675379     302.4279     72.28719      1.351     3.43     4.281861     20.34782     38.88412         5     0.980     0.347 -46.77   0
       237    994.4692    390.2248 300.3548922 +22.7800359     643.7773     72.12204      1.449     3.66     4.561402     20.34782     89.60609        13     1.074     0.813 -28.52   0
       238    704.4057    389.0663 300.2648485 +22.6928585     386.7577     72.12204      1.082     2.88     4.179094     20.34782     49.97303         5     0.728     0.452  70.33   0
       239    215.4503    387.7052 300.1131293 +22.5459605     2018.324     72.19549      1.501     2.78     4.308833     20.34782     255.5952        24     1.175     1.027  31.16   0
       240    978.9766    387.0168 300.3511012 +22.7744763     977.5093     72.12204      0.429     2.02      4.50849     20.34782     806.6718         6     0.515     0.245  12.28   0
       241    601.5101    377.0561 300.2366991 +22.6585889     6559.917     72.17713      1.340     2.40     4.225391     20.34782     825.2318        36     1.121     1.106  -6.76   0
       242   1015.2589    377.6189 300.3654691 +22.7826333     1124.142     72.08529      1.475     3.02     4.606429     20.34782     121.0278        18     1.115     0.932   7.92   0
       243    316.2209    376.5665 300.1480773 +22.5729681     689.6852     72.12204      1.295     2.32     4.251238     20.34782     94.22162        10     0.864     0.693 -84.74   0
       244    174.1590    369.5531 300.1061857 +22.5283714     435.8552     72.17713      1.402     2.88     4.552368     20.34782     63.88647         9     0.861     0.745 -21.76   0
       245    805.6035    366.0481 300.3038526 +22.7165465     1180.787     72.10367      1.448     2.67     4.072446     20.34782     141.1544        16     1.060     0.880  86.68   0
       246     21.2366    367.0480 300.0594850 +22.4818011     1334.012     72.15878      1.613     3.15     4.677477     20.34782     151.3138        24     1.285     1.108  76.39   0
       247    715.1789    366.9702 300.2753766 +22.6897350     504.5991     72.12204      1.270     3.37     4.185979     20.34782      72.0425        10     1.012     0.725 -88.40   0
       248    508.1465    363.3041 300.2120959 +22.6266698     6043.741     72.19549      1.330     2.38     4.194729     20.34782     734.4222        34     1.137     1.067  71.36   0
       249    997.5205    358.0580 300.3662849 +22.7716993     633.3026     72.15878      1.569     2.95      4.54338     20.34782     67.69605        10     1.003     0.680  17.05   0
       250    900.0443    357.7671 300.3359804 +22.7424394     1376.402     72.15878      1.389     2.39     4.416782     20.34782      203.097        18     1.083     0.870  27.13   0
       251    492.8721    352.1681 300.2109558 +22.6188948      480.194     72.12204      1.273     2.46     4.199926     20.34782     56.34357         8     0.761     0.667  34.46   0
       252    575.6124    350.0164 300.2374111 +22.6430628     510.7674     72.06691      1.265     2.38     4.241618     20.34782     65.44825         7     0.696     0.663 -63.99   0
       253     19.6562    348.5865 300.0649851 +22.4760295     1216.406     72.10367      1.650     3.32     4.785313     20.34782     129.8712        20     1.179     1.039  73.03   0
       254    872.9658    345.5376 300.3315070 +22.7308174     575.1504     72.12204      1.330     3.23     4.369533     20.34782     78.10089         9     1.030     0.584  -9.18   0
       255    395.6721    342.5601 300.1838274 +22.5870123     2522.955     72.10367      1.338     2.30      4.33992     20.34782     348.0656        21     1.042     0.955  14.54   0
       256    113.9611    339.8747 300.0971092 +22.5018055     1036.198     72.08529      1.534     3.12     4.668759     20.34782     129.1847        19     1.192     1.092 -11.82   0
       257    365.0343    331.9183 300.1777496 +22.5747755     30087.17     72.08529      1.410     2.54     4.235545     20.34782     3841.818        70     1.350     1.210  52.93   0
       258    899.6725    329.5074 300.3450359 +22.7342030     1225.265     72.25052      1.276     2.14      4.44783     20.34782     201.3003        18     0.985     0.955 -19.47   0
       259    855.2427    327.5016 300.3318351 +22.7203266     275.2061     72.12204      1.131     2.27     4.354537     20.34782      52.7768         5     0.699     0.486  13.63   0
       260     61.3753    319.7423 300.0873036 +22.4802611      5004.56     72.12204      1.650     2.89     4.846971     20.34782     567.3884        37     1.326     1.234  12.38   0
       261    815.1238    318.2827 300.3223214 +22.7056661     421.8568     72.23218      1.279     2.73     4.292186     20.34782     66.74403         9     0.901     0.679  -7.44   0
       262    239.2249    318.0069 300.1431387 +22.5330774     546.2233     72.12204      2.142     5.46     4.536261     20.34782     50.20071        10     1.029     0.933   1.63   0
       263    463.7411    317.1438 300.2132552 +22.6001065     460.8386     72.19549      1.228     2.54     4.370636     20.34782     69.31382         7     0.758     0.616 -82.92   0
       264    775.4564    311.6425 300.3121136 +22.6918814     1810.157     72.10367      1.309     2.38     4.299893     20.34782     255.8607        20     1.031     0.973  40.11   0
       265    583.6987    306.5476 300.2540346 +22.6329951     217.4793     72.21384      1.098     3.39     4.291038     20.34782      45.0464         5     0.725     0.458  20.29   0
       266    990.6768    304.4294 300.3815542 +22.7542285     694.6571     72.10367      1.495     3.58     4.427696     20.34782     81.85361        13     1.143     0.861 -71.57   0
       267    437.2899    296.2795 300.2117937 +22.5861886     2089.965     72.25052      1.457     2.91     4.647491     20.34782     232.3182        21     1.225     0.906  70.02   0
       268    649.7776    295.1569 300.2783084 +22.6495114     299.0984     72.17713      1.270     3.36     4.347772     20.34782     48.37955         7     0.844     0.643 -35.31   0
       269    876.2045    289.2507 300.3507820 +22.7156034     507.4788     72.10367      1.284     3.07     4.451712     20.34782      72.3876        11     1.079     0.629  17.04   0
       270      9.1604    287.1320 300.0816645 +22.4552463     889.6851     72.08529      2.080     7.49     5.382092     20.34782     58.46759        17     1.694     0.943 -36.66  16
       271    758.6886    286.9102 300.3149134 +22.6797517     393.0726     72.28719      1.377     3.17     4.397588     20.34782     61.70804         8     0.978     0.570 -65.67   0
       272    776.1620    287.1852 300.3202692 +22.6850620     279.7633     72.14041      1.175     2.47     4.397745     20.34782     45.46138         6     0.740     0.541  42.88   0
       273    726.9936    286.0376 300.3053209 +22.6700114     270.6772     72.15878      1.133     3.60     4.399013     20.34782      50.3467         5     0.818     0.474  70.28   0
       274    227.6844    277.5408 300.1526798 +22.5179996     166.9284     72.23218      1.389     4.98     4.573457     20.34782     31.70821         6     0.970     0.723  65.18   0
       275    512.9883    275.7279 300.2420205 +22.6029606     1133.376     72.14041      1.289     2.46     4.351885     20.34782      156.715        14     0.920     0.906  11.05   0
       276    320.3965    275.8097 300.1820702 +22.5452858      329.743      71.9381      1.709     5.00     4.518132     20.34782     33.07788         7     1.091     0.649 -66.26   0
       277    758.0137    267.6028 300.3209672 +22.6739993     2186.307     71.95652      1.364     2.50     4.441598     20.34782      305.442        23     1.170     0.971  59.19   0
       278   1019.2092    261.9253 300.4042455 +22.7505412     3161.736     72.10367      1.504     3.02     4.439664     20.34782     324.8594        32     1.260     1.166  88.10  16
       279    466.2928    251.3451 300.2353969 +22.5819681     678.8555     72.17713      1.308     2.59     4.457014     20.34782     83.37682        12     0.925     0.770  19.70   0
       280    172.1445    245.5690 300.1457866 +22.4921738     804.2131     72.14041      1.569     3.08     4.599816     20.34782     93.01226        11     1.049     0.689  77.87   0
       281    141.2497    245.4340 300.1362285 +22.4828752     1405.199     72.15878      1.714     3.74      4.67074     20.34782     144.7703        20     1.237     1.060 -76.18   0
       282    879.2701    239.0301 300.3680309 +22.7020798     314.8348     72.12204      1.479     4.15     4.517347     20.34782     36.19621         6     0.853     0.605  -1.29   0
       283    225.1130    237.6426 300.1648229 +22.5057722     590.3534     72.12204      1.460     3.23     4.479054     20.34782     62.34526        10     0.940     0.767  85.04   0
       284   1020.2218    235.1995 300.4132317 +22.7431564     407.1939     70.82445      1.503     3.72     4.511459     20.34782     37.71065         5     0.903     0.441  44.40  16
       285     81.0082    234.5011 300.1210558 +22.4616793     267.6937     71.99333      1.414     2.98     4.901811     20.34782     43.43328         6     0.888     0.521 -69.99   0
       286     10.4668    233.0993 300.0995973 +22.4401301     321.5787     72.21384      2.173     3.83     5.332098     20.34782     37.09318         5     1.303     0.322 -38.73   0
       287    901.5560    231.5268 300.3774133 +22.7065916     313.4584     72.10367      1.231     3.54      4.52757     20.34782     53.38912         7     0.872     0.646 -13.56   0
       288    829.4858    228.9240 300.3557896 +22.6842734     608.8514     72.23218      1.241     2.93     4.537713     20.34782     85.74443        10     0.906     0.717  54.28   0
       289    420.2263    228.6648 300.2284188 +22.5616529     430.6769     72.10367      1.426     4.17     4.778011     20.34782     51.72945        10     0.973     0.754  37.58   0
       290    104.2681    221.3763 300.1325397 +22.4648836     175.4366     72.10367      1.085     3.42     4.811891     20.34782     34.15433         5     0.729     0.463  14.52   0
       291    927.7861    218.0686 300.3899579 +22.7105704      2057.72     72.14041      1.390     2.73     4.528667     20.34782     226.8276        23     1.135     1.041 -88.10   0
       292    346.2572    215.3016 300.2097412 +22.5356548     2221.649     72.21384      1.444     2.54     4.846993     20.34782     240.7005        23     1.117     1.025  38.84   0
       293    233.7354    215.3962 300.1747191 +22.5019676      339.902     72.12204      1.606     2.67       4.5654     20.34782     38.64928         5     0.828     0.597 -46.36   0
       294    424.2525    210.4672 300.2355739 +22.5576308     1008.441     72.14041      1.617     3.41      4.75044     20.34782     93.45633        17     1.154     0.941   2.56   0
       295    176.1883    210.7659 300.1583317 +22.4833925     471.3745     72.10367      1.644     4.85     4.632527     20.34782     41.79478         9     0.952     0.860  35.85   0
       296    826.3474    209.8464 300.3609994 +22.6778482     497.1246     72.15878      1.164     2.19     4.532342     20.34782     85.28319         7     0.779     0.571  58.04   0
       297    583.0084    209.8232 300.2851979 +22.6049923     227.7014     72.12204      1.289     3.81     4.386389     20.34782     28.04812         5     0.820     0.507  54.06   0
       298    933.2117    206.9058 300.3952707 +22.7089833     405.9655     72.06691      1.329     2.87     4.516894     20.34782     55.72546         8     0.832     0.636  39.68   0
       299     22.6375    203.6667 300.1129232 +22.4353303      341.431     72.10367      1.578     3.76     5.406366     20.34782     46.28067         5     1.014     0.401  73.41   0
       300    241.0121    202.7516 300.1810823 +22.5005167     714.0019     72.14041      1.198     2.77     4.664301     20.34782     96.85017        10     0.934     0.686   1.69   0
       301    359.1777    202.0714 300.2180513 +22.5357250     354.5001     72.14041      1.508     3.50     4.841906     20.34782     39.00616         6     0.812     0.630  77.59   0
       302    843.7572    199.1517 300.3698951 +22.6799834     638.0834     72.14041      1.382     3.75     4.504433     20.34782     64.62517        11     0.993     0.818 -53.96   0
       303    778.8837    199.4995 300.3495624 +22.6606666      1738.29     72.28719      1.369     2.40     4.545022     20.34782     242.0685        19     1.048     0.934   5.13   0
       304    262.5024    195.7032 300.1900501 +22.5049317     524.2061     72.30551      1.311     2.87     4.771867     20.34782      73.3124         9     0.932     0.656  51.74   0
       305    552.3505    192.1420 300.2813870 +22.5907302     351.5183     72.17713      1.024     1.92     4.524765     20.34782     58.57493         5     0.680     0.450  71.76   0
       306    782.9514    190.5483 300.3537332 +22.6593103     741.1053     72.15878      1.552     4.18      4.54421     20.34782     96.30889        13     1.299     0.753  82.65   0
       307    703.4269    190.2378 300.3290549 +22.6354164     1220.179     72.14041      1.308     2.45     4.557374     20.34782      164.209        15     0.943     0.831  72.85   0
       308    524.3632    186.5027 300.2745031 +22.5807284     420.3195     72.12204      1.929     4.96     4.512726     20.34782      46.3001         8     0.928     0.834   1.09   0
       309    898.9815    181.7023 300.3927713 +22.6914913      1348.92     72.04852      1.383     2.55     4.466308     20.34782     193.7474        17     1.036     0.913 -19.83   0
       310    629.5426    181.7677 300.3087879 +22.6108619     1032.474     72.14041      1.444     2.60     4.546281     20.34782     122.2483        16     1.051     0.862  65.63   0
       311    911.1941    180.9264 300.3968309 +22.6949226     843.0333     72.06691      1.461     2.85     4.470304     20.34782     109.7029        12     0.987     0.789 -24.31   0
       312    469.9493    178.0278 300.2603148 +22.5619971     154.4631     72.14041      1.012     3.06     4.507472     20.34782     34.35152         5     0.615     0.609  11.17   0
       313     51.3179    168.0570 300.1333798 +22.4337047     571.3638     72.17713      1.586     3.18     5.407881     20.34782     67.11584        10     0.906     0.813 -32.00   0
       314    261.6485    164.0235 300.2000578 +22.4955767     873.5191     72.12204      1.633     3.82     4.867098     20.34782     78.41468        15     1.103     0.980  70.60   0
       315    123.5230    158.8247 300.1588078 +22.4526946     2055.229     72.14041      1.473     2.85     4.953484     20.34782     266.2022        21     1.162     0.979  53.65   0
       316    946.6404    156.0165 300.4159629 +22.6983632     660.9794     72.14041      1.481     3.32     4.505838     20.34782     72.05187        12     0.945     0.870 -13.69   0
       317     73.1484    155.8866 300.1441081 +22.4367536     497.5981     72.14041      1.391     4.12      5.20962     20.34782     56.64536         9     0.919     0.771  67.81   0
       318    281.0592    152.1404 300.2099468 +22.4979789     5704.049     72.19549      1.451     2.68     4.873268     20.34782     618.9622        40     1.340     1.156  34.85   0
       319    262.9373    153.1816 300.2039741 +22.4928487     315.3771     72.08529      1.251     2.70     4.880203     20.34782     42.42141         5     0.768     0.495  53.97   0
       320     65.0610    146.5433 300.1446250 +22.4316471     1341.707     72.19549      1.598     2.86     5.234733     20.34782      145.365        20     1.226     0.946  33.50   0
       321    264.5092    142.8578 300.2078103 +22.4903542     592.2254     72.17713      1.388     2.87     4.884538     20.34782      73.6785         9     0.849     0.740  60.03   0
       322    925.0920    133.7920 300.4164497 +22.6855228     3558.062     72.03013      1.460     2.78     4.497403     20.34782     445.0308        32     1.249     1.140 -87.20   0
       323    474.3511    129.0951 300.2775517 +22.5492535     692.9651     72.17713      1.473     3.27     4.538272     20.34782      88.8978        13     1.012     0.890 -12.57   0
       324    227.5154    129.6227 300.2005993 +22.4754692     233.3564     72.06691      0.952     2.81      4.91203     20.34782     44.71355         6     0.821     0.484  -1.28   0
       325    588.8484    127.0073 300.3138724 +22.5829369     342.7997     72.12204      1.583     3.75     4.742218     20.34782     47.28247         5     0.699     0.577   0.41   0
       326    398.8536    120.7075 300.2567779 +22.5242331     678.8585     72.17713      1.388     2.79     4.633958     20.34782     82.42043        10     0.988     0.642 -58.24   0
       327    402.8997    119.6000 300.2583959 +22.5251266     396.9261     71.95652      1.402     3.30     4.609551     20.34782     47.24603         7     0.736     0.686  19.08   1
       328    164.8374    117.9806 300.1848901 +22.4533456     594.6149     72.14041      1.492     2.56     4.966753     20.34782     73.76334        10     0.899     0.675   1.62   0
       329    525.9117    116.2501 300.2977652 +22.5610011     1812.748     72.14041      1.424     2.64     4.629042     20.34782     221.1408        21     1.101     0.962  56.12   0
       330    453.8384    116.9925 300.2750917 +22.5396326     449.6857     72.14041      1.199     2.26     4.537045     20.34782     77.98813         8     0.782     0.646 -47.88   0
       331     62.9577    117.0329 300.1535390 +22.4225435     329.3683     72.17713      1.452     4.86      5.08196     20.34782     36.31286         6     0.885     0.757  41.13   0
       332    587.4665    115.3521 300.3172210 +22.5791727     376.0494     72.12204      1.596     3.62     4.765522     20.34782     49.64394         8     0.938     0.743  59.55   0
       333    269.3929    111.6820 300.2194365 +22.4828618     314.6762     72.04852      1.296     3.49     4.897777     20.34782     52.27341         9     0.897     0.835   2.96   0
       334    814.2446    105.7333 300.3909891 +22.6442846     453.0309     72.10367      1.619     3.53     4.552335     20.34782     51.99604         8     0.914     0.619   8.63   0
       335    299.9291     96.0490 300.2340004 +22.4875180     5935.583     72.10367      1.463     2.89     4.886569     20.34782     641.8132        38     1.283     1.146  58.22   0
       336    710.6767     97.3202 300.3614428 +22.6108703     244.3869     72.23218      1.279     3.22     4.763552     20.34782     48.89775         5     1.064     0.496  34.61   0
       337    151.1559     95.5020 300.1879250 +22.4427903     724.8071     72.12204      1.471     2.94     5.005466     20.34782     82.85197        12     0.914     0.897 -17.68   0
       338    929.2549     93.6989 300.4307471 +22.6752342     225.2553     72.21384      1.093     3.75     4.554253     20.34782     45.53734         7     0.859     0.599  28.98   0
       339    271.9941     89.9910 300.2272771 +22.4774096     414.3343     71.97493      1.434     3.47      4.90876     20.34782     51.86039         5     0.806     0.472  18.46   0
       340    315.3578     87.8078 300.2414704 +22.4897717     241.8125     72.14041      1.320     3.86     4.892466     20.34782     48.95299         5     0.920     0.463 -41.62   0
       341     61.6623     86.4154 300.1630618 +22.4133637     401.7101     72.08529      1.653     4.48      4.96062     20.34782     45.45554         6     0.921     0.670  -7.34   0
       342    546.0757     81.4144 300.3153360 +22.5570250     6213.937     72.14041      1.412     2.44     4.661022     20.34782     868.4738        36     1.213     1.132  69.02   0
       343    431.4482     81.1183 300.2797540 +22.5226178     644.1483     72.14041      1.350     2.79     4.474776     20.34782     86.75883        11     0.897     0.843  -6.41   0
       344    602.9951     76.4549 300.3346665 +22.5726391     359.6226     72.12204      1.453     1.83     4.899275     20.34782     54.66376         6     0.707     0.496   4.65   0
       345    739.7443     72.6381 300.3785008 +22.6124718     265.5626     72.12204      1.473     3.36      4.75806     20.34782     35.10103         5     0.736     0.453  16.13   0
       346    798.7597     70.9607 300.3974356 +22.6296496     786.3668     72.19549      1.420     3.36     4.654558     20.34782     99.22185        10     1.008     0.719  81.46   0
       347    891.3334     70.2783 300.4265150 +22.6571513     498.9219     72.23218      1.329     2.49     4.525913     20.34782     67.39653         8     0.890     0.572 -20.31   0
       348    239.0089     65.3358 300.2250127 +22.4604456     494.6185     72.10367      1.398     2.66     4.960716     20.34782     59.05676         9     0.822     0.759 -82.03   0
       349    597.4211     63.8710 300.3370098 +22.5673526      591.983     72.12204      1.493     4.24     4.893414     20.34782     70.72748        10     1.260     0.599  85.38   0
       350    674.3935     61.5233 300.3617439 +22.5897172     6191.216     72.03013      1.427     2.51     5.207442     20.34782     756.5375        37     1.242     1.108  88.76   0
       351    449.2325     60.3454 300.2920216 +22.5219730     1482.382     72.14041      1.457     2.98     4.558033     20.34782     174.2283        19     1.188     0.953  62.62   0
       352    715.3595     59.0607 300.3753043 +22.6012695     807.2625     72.12204      1.330     3.23     4.982388     20.34782     108.2421        11     0.975     0.771  40.36   0
       353    731.3803     55.2003 300.3815472 +22.6049538     624.2581     72.04852      1.332     3.52     4.911926     20.34782     70.34885         8     1.027     0.571  46.63   0
       354   1001.4203     52.7989 300.4665137 +22.6850526     593.1279     72.04852      1.481     3.24     4.223897     20.34782     77.19197         9     1.119     0.512 -10.61   0
       355    197.6944     52.7457 300.2162492 +22.4444523     730.7468     72.17713      1.686     3.77     5.005159     20.34782     61.97324        15     1.074     0.965  22.61   0
       356    769.8419     50.7314 300.3949805 +22.6151780      432.241     72.10367      1.307     2.79     4.805614     20.34782     67.82349         7     0.883     0.548  52.69   0
       357    359.5903     47.4416 300.2683129 +22.4914207     311.6837     72.12204      1.056     3.14     4.928955     20.34782     61.93765         9     0.969     0.741 -79.79   0
       358    733.7003     45.1576 300.3855252 +22.6027598     886.1096     72.10367      1.740     5.70     4.956496     20.34782     83.85499        19     1.674     0.858  63.45   0
       359    718.6527     46.4376 300.3804219 +22.5986248     2675.562     72.14041      1.401     2.62      5.04094     20.34782     342.2255        23     1.060     1.027 -75.51   0
       360     12.0906     40.5061 300.1625426 +22.3853251     958.2556     72.28719      1.853     3.81     4.766263     20.34782      90.5294        16     1.164     0.976  -9.33   0
       361    805.2056     38.0404 300.4101153 +22.6221091     1457.864     72.14041      1.442     2.62     4.749211     20.34782     190.6474        21     1.179     0.968  84.66   0
       362    965.0612     36.7333 300.4603800 +22.6695545     439.0299     72.15878      1.893     4.74      4.20828     20.34782     44.53995         7     1.228     0.519  19.98   0
       363    548.7868     30.7600 300.3325987 +22.5432744     1023.787     72.14041      1.410     2.42     4.664141     20.34782     139.2125        16     1.252     0.807  60.95   0
       364    743.0128     31.3242 300.3929105 +22.6015678     611.2341     72.14041      1.288     2.74     5.002789     20.34782     88.86304        11     0.870     0.795 -31.94   0
       365    121.4823     30.6048 300.1997376 +22.4152600     609.6154     72.04852      1.467     2.63     5.043772     20.34782     80.41072         8     0.898     0.624   3.85   2
       366    452.6667     28.8146 300.3033098 +22.5139385     774.6039     72.08529      1.341     2.60     4.620968     20.34782     115.7421        12     1.009     0.740 -13.99   0
       367    834.6312     27.4272 300.4227271 +22.6278599      369.943     72.12204      1.386     4.46     4.702578     20.34782     41.95902         8     1.061     0.645  -5.89   0
       368    856.0483    961.3109 300.1261301 +22.9026557     394.0375     72.10367      1.722     4.58     2.485556     20.34782     34.92093         5     1.187     0.501  69.48   0
       369    791.8905     19.3131 300.4120350 +22.6127381     586.0725     72.28719      1.387     3.00     4.860159     20.34782     84.11137        10     0.983     0.676   2.07   0
       370    549.7709     16.5650 300.3375054 +22.5394880     362.9131     72.14041      1.216     2.41     4.668048     20.34782     44.59831         5     0.688     0.475  16.53   0
       371    282.5901   1015.1078 299.9301025 +22.7460848     1577.662     72.06691      3.161    10.12     64.51506     20.34782     66.62878        42     2.318     1.676  47.71  19
       372      2.8743   1017.0838 299.8425460 +22.6626761     847.6652     64.19084      4.127     5.81    -11.88543     20.34782     32.53241         7     1.859     0.511 -39.51  25
       373    297.8250   1013.2841 299.9354329 +22.7501343     1312.294     72.08529      3.059    12.22     54.20043     20.34782     46.60095        35     2.925     1.422  24.96  17
       374    407.7304   1012.8981 299.9697401 +22.7830050     684.5729     72.25052      2.820     7.71     2.488644     20.34782     35.93336        15     1.527     1.088 -36.03   0
       375      3.8924   1008.4487 299.8456719 +22.6605078     895.2388     68.29111      6.931     7.96    -9.987261     20.34782     44.17529         9     1.488     1.191  29.42  25
       376    599.5822   1006.3765 300.0315698 +22.8386892     2406.241     72.12204      1.875     4.13      3.37708     20.34782     141.6239        33     1.419     1.317 -26.67   0
