#   1 NUMBER                 Running object number                                     
#   2 X_IMAGE                Object position along x                                    [pixel]
#   3 Y_IMAGE                Object position along y                                    [pixel]
#   4 ALPHA_J2000            Right ascension of barycenter (J2000)                      [deg]
#   5 DELTA_J2000            Declination of barycenter (J2000)                          [deg]
#   6 FLUX_APER              Flux vector within fixed circular aperture(s)              [count]
#   7 FLUXERR_APER           RMS error vector for aperture flux(es)                     [count]
#   8 FLUX_RADIUS            Fraction-of-light radii                                    [pixel]
#   9 FWHM_IMAGE             FWHM assuming a gaussian core                              [pixel]
#  10 BACKGROUND             Background at centroid position                            [count]
#  11 THRESHOLD              Detection threshold above background                       [count]
#  12 FLUX_MAX               Peak flux above background                                 [count]
#  13 ISOAREA_IMAGE          Isophotal area above Analysis threshold                    [pixel**2]
#  14 A_IMAGE                Profile RMS along major axis                               [pixel]
#  15 B_IMAGE                Profile RMS along minor axis                               [pixel]
#  16 THETA_IMAGE            Position angle (CCW/x)                                     [deg]
#  17 FLAGS                  Extraction flags                                          
         1    478.3287     16.3555 300.3326243 +22.5431780     1188.436     72.47977      1.752     3.16     6.450675     20.45917     100.6921        19     1.169     0.966  24.67   0
         2    382.0519     14.3929 300.3032736 +22.5138051     778.4227     72.51672      1.620     3.59     6.424225     20.45917     86.87944        14     1.157     0.918 -53.56   0
         3   1023.5898     11.3209 300.5043195 +22.7047765     876.8157      56.8868      1.433     4.00     6.192241     20.45917     146.9173        13     1.438     0.562  78.85  24
         4    764.0919     13.0906 300.4227600 +22.6277121     310.0582     72.68277      1.397     4.90     7.458772     20.45917     40.62187         8     0.997     0.681  84.84   0
         5    153.4958      4.1143 300.2354670 +22.4424386     3771.782     69.53711      1.851     3.63     7.646752     20.45917       332.55        39     1.463     1.349  45.90  24
         6    721.6083      5.4119 300.4119978 +22.6127974     584.7093     72.40582      1.550     2.85     7.514226     20.45917     64.26624         9     0.917     0.639   0.67  16
         7    181.5784    986.7654 299.9252275 +22.7331076     4069.658     72.53519      8.211    27.98     67.83548     20.45917     130.4813       307     5.501     4.826  38.53   3
         8     58.3781    917.8441 299.9093291 +22.6763739     3710.699     72.57211     13.486    52.73     19.60496     20.45917     80.60136       898    11.947     6.459 -35.20  19
         9     68.4019   1011.0286 299.8821388 +22.7061126     5318.165     72.46129     15.619    67.85     74.03854     20.45917     160.2784      1925    15.572    11.252  41.19  27
        10    219.6909    973.9926 299.9412384 +22.7408751     7298.612     72.42431      7.623    28.49     49.26102     20.45917     148.7063       634     9.338     4.861  61.51  18
        11    909.7491    971.8788 300.1569420 +22.9471079     571.3621     72.51672      1.644     3.40     4.864372     20.45917     47.61645         7     0.870     0.564 -55.06   3
        12    906.4586    971.4375 300.1560587 +22.9459955     554.5208     72.53519      2.019     4.97     4.874844     20.45917     38.82615         9     1.147     0.609 -76.42   2
        13    149.9109    996.3372 299.9122640 +22.7263537     1819.121     72.60902      3.778    11.72      80.1326     20.45917     58.51393        39     2.625     1.526 -77.11   3
        14    154.3450    993.5887 299.9145372 +22.7268954     2060.145     72.51672      5.553    15.68     78.34428     20.45917     61.29847        52     4.221     1.619 -61.46   3
        15    212.8306   1000.8142 299.9303797 +22.7465135      983.124     72.51672      2.060    10.34     73.52666     20.45917     47.52261        20     2.775     1.075  36.61   3
        16    633.5206    954.5595 300.0764267 +22.8593710     6747.674     72.49825      2.142     4.95     5.291981     20.45917      321.542        54     1.688     1.615  41.36   0
        17    337.5365    999.6974 299.9695504 +22.7835967     611.3515     72.60902      2.862     5.08     5.416021     20.45917     37.54822         8     0.953     0.799 -75.97   0
        18    131.0500   1008.1844 299.9025444 +22.7240940     483.4279     72.55366      1.880     4.19     90.72904     20.45917      51.7354         6     1.130     0.661  49.06   0
        19    528.6912    992.1279 300.0315401 +22.8387390     2298.972     72.68277      2.177     5.89     4.545479     20.45917     131.3589        38     1.667     1.498 -29.03   0
        20    160.4463   1005.5455 299.9125455 +22.7321562     1294.782     72.55366      3.066    10.17     89.15088     20.45917     48.18588        28     2.242     1.287 -10.99   3
        21    118.5925   1009.7465 299.8981621 +22.7208045     458.4798     72.51672      1.911     4.24     92.39567     20.45917     34.19695         5     0.920     0.556 -37.19   1
        22    541.9440    945.3337 300.0508899 +22.8292744     1608.689     72.57211      2.153     5.68     5.249548     20.45917     79.63351        30     1.525     1.421  38.44   0
        23    201.2355    984.9033 299.9319480 +22.7384699     4924.455     72.51672      8.036    24.92     62.30582     20.45917     100.6888       380     6.085     4.849 -64.70   3
        24    155.1507    999.9221 299.9127276 +22.7289542     2803.425     72.51672      5.137    21.28     83.73122     20.45917     66.76896        93     4.617     2.723  -6.70  19
        25    435.6982    941.4747 300.0190506 +22.7963169      991.012      72.6459      2.017     7.12     5.475183     20.45917     59.42949        23     1.478     1.300  13.34   0
        26    366.4100    939.5360 299.9981070 +22.7749862      6557.64     72.46129      2.119     4.69      5.59742     20.45917     363.4749        51     1.637     1.582  -3.08   0
        27    616.1530    987.2703 300.0603735 +22.8635607     9760.776     72.49825      2.499     6.62      4.80232     20.45917     410.6385        58     1.956     1.699  12.34   3
        28    621.0491    985.2643 300.0625520 +22.8644520     9305.187     72.55366      2.241     6.12     4.868652     20.45917     470.2207        53     1.819     1.508  33.65   3
        29    716.0000    988.1073 300.0912264 +22.8937243      628.723     72.38731      2.168     4.69     5.243351     20.45917     43.86446         6     1.044     0.597  75.77   2
        30    399.6487    926.6177 300.0126568 +22.7812435     451.0905     72.55366      2.030     6.70     5.688917     20.45917     30.18587         8     1.565     0.805 -34.09   0
        31    838.8563    923.2719 300.1506324 +22.9119042     322.5408     72.53519      1.512     4.52     5.370827     20.45917     27.10612         6     1.204     0.481 -47.18   0
        32    160.4275    983.2150 299.9198033 +22.7257439     468.4575     72.53519      2.720     3.66     68.44411     20.45917     39.00658         5     0.932     0.524 -52.76   3
        33    912.9162    918.6244 300.1752521 +22.9327509     2103.902     72.47977      2.190     5.84     5.460955     20.45917       107.59        32     1.564     1.432  49.33   0
        34    701.5147    906.9563 300.1131048 +22.8660711     727.2188     72.47977      1.945     5.90     5.419976     20.45917     48.05949        17     1.389     0.901  30.36   0
        35    146.1968    965.0165 299.9212963 +22.7162535     893.6428     72.42431      9.703    12.10     52.43925     20.45917     38.92361        21     2.783     1.464 -86.52   3
        36    736.3567    901.5512 300.1257265 +22.8749570     1082.187     72.55366      2.006     4.98     5.365381     20.45917     59.94825        21     1.401     1.067  70.01   0
        37    514.5869    902.1392 300.0564143 +22.8086699     377.2224     72.47977      1.745     4.09     5.591863     20.45917     30.56745         5     1.166     0.410  75.53   0
        38     87.6564    900.6554 299.9240214 +22.6802258     1089.828     72.57211      3.897     3.89      16.8716     20.45917      37.0508         5     0.963     0.450 -50.62   3
        39    153.9568    983.0100 299.9178574 +22.7237439     993.4699     72.51672      4.225    15.96     68.47478     20.45917     49.11751        28     5.187     1.366  10.93   3
        40    758.6624    895.3115 300.1347116 +22.8798465     11522.28     72.59057      2.052     4.74     5.381069     20.45917     572.4714        57     1.615     1.578  10.69   0
        41    191.6028    896.8864 299.9575756 +22.7103232      891.765      72.4428      5.498     6.36      11.9671     20.45917     36.75555         7     1.380     0.822 -89.98   2
        42    148.7233    978.0648 299.9178381 +22.7207551     1655.648     72.60902      3.672    10.63       64.027     20.45917     49.70683        33     1.899     1.657  44.78   3
        43    805.4865    894.9451 300.1494348 +22.8937680     352.6002     72.57211      1.435     3.79     5.367333     20.45917     33.73606         6     0.824     0.500 -89.34   0
        44    147.9558    972.4834 299.9194148 +22.7189235     1318.461     72.47977      3.810     9.99     58.66972     20.45917      47.6221        24     2.391     1.163   6.77   3
        45     71.2047    886.0557 299.9236530 +22.6711017     862.0665     72.47977      2.784     6.24     13.48892     20.45917     40.48536        12     1.633     0.671  69.02   2
        46    949.5187    895.2273 300.1942847 +22.9369871      455.929     72.53519      2.092     6.12     5.464579     20.45917     32.51343         9     1.403     0.751  66.09   0
        47    810.5870    883.7019 300.1546820 +22.8920647     490.6115     72.40582      2.107     6.01     5.430724     20.45917     32.96505         8     1.329     0.764  31.32   0
        48    463.6854    882.9174 300.0468092 +22.7878927     494.8089     72.66434      2.123     5.58     5.682176     20.45917      33.1814         7     1.324     0.663  75.35   0
        49    767.4488    877.8985 300.1431141 +22.8774750     1532.344     72.55366      2.311     5.44     5.444837     20.45917     109.4807        23     1.634     1.080 -22.72   2
        50    952.4572    876.8322 300.2011837 +22.9325790      359.032     72.53519      1.535     4.29     5.582436     20.45917     32.99022         6     1.317     0.398 -76.18   0
        51    619.2214    874.3707 300.0980478 +22.8320518     549.1861     72.51672      2.180     7.01     5.543681     20.45917     28.51444         9     1.334     1.034 -88.55   0
        52    805.0467    871.2963 300.1569876 +22.8868400      957.578     72.53519      2.246     7.15     5.451424     20.45917     45.42122        17     1.233     1.163   2.31   0
        53    913.9847    867.7541 300.1921282 +22.9184486     533.5999     72.53519      2.321     7.67     5.684779     20.45917      42.0796         9     1.592     1.033 -47.98   0
        54    853.4887    862.0560 300.1751041 +22.8986934     505.8835     72.55366      1.765     6.01      5.69826     20.45917     30.60869        10     1.442     0.705  52.34   0
        55    705.3389    860.9126 300.1292691 +22.8539877       705.19     72.60902      1.978     7.54     5.514479     20.45917     46.92281        17     1.519     1.048 -32.97   0
        56    716.3372    858.3585 300.1335288 +22.8565486     754.3663     72.49825      2.216     7.45     5.525432     20.45917     39.65867        16     1.527     1.018 -14.50   0
        57    417.7231    857.1837 300.0408621 +22.7667255     4263.392     72.51672      1.967     4.35     5.668318     20.45917     291.3458        39     1.490     1.446  44.24   0
        58     14.0977    854.8105 299.9160575 +22.6450055     1125.358     72.40582      0.510     0.84     5.859533     20.45917     753.4344         5     0.459     0.281 -74.47   0
        59    196.9732    846.8776 299.9755050 +22.6975809     212.5646     72.51672      1.118     3.84     7.589146     20.45917     32.93444         5     0.817     0.517 -57.19   0
        60    461.4207    845.3787 300.0583086 +22.7764335     346.1569     72.51672      1.829     4.15     5.645896     20.45917     30.72469         6     1.117     0.440 -55.93   0
        61    143.3848    843.0789 299.9600708 +22.6804195     771.0635     72.53519      1.990     5.23     8.998017     20.45917     53.25757        14     1.271     1.107  30.13   0
        62    120.0697    839.9618 299.9538329 +22.6725323     1628.523     72.47977      2.159     4.08      8.84708     20.45917     149.6514        31     1.536     1.451  29.11   0
        63    991.8760    829.2805 300.2289495 +22.9307103     2124.522     72.62746      2.284     5.79     5.664151     20.45917     92.13632        38     1.615     1.536  80.49   0
        64    946.2312    827.9169 300.2151446 +22.9166520     2154.844     72.51672      2.098     4.85     5.676319     20.45917     112.2418        38     1.568     1.466  17.34   0
        65    652.6050    827.4729 300.1237007 +22.8285807      452.018     72.46129      2.270     4.87     5.521769     20.45917     33.49636         5     1.135     0.591 -29.72   0
        66    729.8488    821.5777 300.1496997 +22.8500269     700.2812     72.51672      1.903     5.48      5.56358     20.45917     53.45548        17     1.335     1.061 -11.21   0
        67    597.7114    815.4584 300.1104970 +22.8086821     4695.337     72.59057      1.869     4.11     5.526737     20.45917     303.4312        42     1.477     1.402  68.76   0
        68     88.2030    815.5640 299.9518539 +22.6559729     449.8782     72.53519      1.705     3.71     6.824792     20.45917     34.98147         5     1.013     0.391  84.15   0
        69    399.9558    812.6738 300.0497990 +22.7486180       608.35     72.49825      1.772     5.56     5.656979     20.45917     55.70621        15     1.387     0.900  10.70   0
        70    147.7662    808.9803 299.9725173 +22.6719470     1401.997     72.53519      2.150     5.55     6.363713     20.45917     91.05686        27     1.541     1.255  21.49   0
        71    618.3072    808.0079 300.1193377 +22.8127123     812.9538     72.42431      2.020     5.12     5.536063     20.45917     54.04749        14     1.124     0.974 -10.40   0
        72    167.8719    806.3628 299.9796219 +22.6772250     375.9787     72.47977      1.511     5.21     6.108945     20.45917     41.96102         8     1.375     0.558  57.72   0
        73    990.7206    795.7664 300.2394838 +22.9207276     1104.234     72.46129      1.950     5.92     5.680598     20.45917       66.328        21     1.378     1.132  53.79   0
        74    773.8108    795.2998 300.1719517 +22.8556425     4232.842     72.42431      1.965     4.24     5.575875     20.45917     263.9675        43     1.547     1.419  44.60   0
        75    505.4952    792.5488 300.0892106 +22.7744685     325.1089     72.59057      1.771     5.21     5.492655     20.45917     35.28775         6     1.088     0.704  46.51   0
        76    182.9561    789.4103 299.9898239 +22.6768822     375.0227     72.51672      1.630     4.90     5.753362     20.45917     38.14783         7     0.913     0.744 -64.22   0
        77    490.7755    787.8326 300.0861581 +22.7687027     515.2932     72.49825      1.603     3.94     5.506835     20.45917     64.39069        11     1.217     0.754 -25.41   0
        78    137.3706    785.6108 299.9768795 +22.6621219     1045.266     72.51672      2.076     5.95     5.695129     20.45917     78.28157        21     1.511     1.257  81.26   0
        79    552.0770    781.0839 300.1074497 +22.7851331     474.2757     72.62746      1.900     6.67     5.398477     20.45917     44.73461        11     1.431     0.871  42.05   0
        80    286.7641    777.5723 300.0259713 +22.7046076     54104.35     72.53519      1.935     4.22     5.719288     20.45917     4202.145       105     1.686     1.601  32.45   0
        81    544.7098    776.6249 300.1066035 +22.7816447     1626.304     72.46129      1.824     4.25     5.380038     20.45917     112.9351        28     1.417     1.205  74.23   0
        82    957.8182    776.4169 300.2355025 +22.9053135     921.7662     72.49825      2.018     7.32     5.680598     20.45917     52.45185        20     1.298     1.238   7.59   0
        83    215.8949    775.7097 300.0045240 +22.6828256     277.1767     72.70119      1.170     2.99     5.748879     20.45917     44.65237         5     0.907     0.346 -45.29   0
        84    573.4785    772.7670 300.1168215 +22.7891560     859.9491     72.49825      1.829     5.11     5.388614     20.45917     72.20516        19     1.389     0.987  43.10   0
        85    584.8870    771.1429 300.1209045 +22.7921075     511.9345     72.60902      1.753     6.53     5.389781     20.45917     60.17395        14     1.458     0.876  19.81   0
        86    689.7548    767.7866 300.1546830 +22.8225585     362.4204     72.51672      1.561     6.05     5.499469     20.45917     38.36012        10     1.329     0.775 -60.48   0
        87    727.2579    758.0097 300.1695541 +22.8309817     782.2411     72.47977      2.015     5.79     5.536192     20.45917     63.44215        16     1.517     0.908   7.94   0
        88    336.5331    754.8174 300.0488573 +22.7129926     31780.61     72.49825      1.893     3.99      5.59637     20.45917     2274.539        83     1.612     1.527  33.59   0
        89    350.6869    755.3190 300.0531004 +22.7173791     1979.364      72.6459      2.025     4.22     5.590719     20.45917     142.2659        30     1.424     1.284  -3.56   0
        90    859.7083    751.1451 300.2130986 +22.8686729     2878.051     72.57211      1.973     4.15     5.605372     20.45917     167.6943        38     1.502     1.391   6.75   0
        91    347.6791    749.7958 300.0539589 +22.7148914     723.1979     72.42431      2.322     4.00     5.576434     20.45917     51.72162        11     1.085     0.718 -37.34   0
        92    888.3458    748.6757 300.2228369 +22.8765374     399.3193     72.55366      1.963     4.83     5.636271     20.45917     28.71825         6     0.924     0.715  -9.38   0
        93    617.4990    747.0461 300.1388995 +22.7949538      953.111     72.53519      1.815     5.19     5.319952     20.45917     74.01028        15     1.278     0.877  46.99   0
        94    454.2065    746.6912 300.0881384 +22.7459262     439.4674     72.42431      2.106     4.77     5.489173     20.45917     29.11914         7     1.192     0.541 -21.71   0
        95    219.2548    746.7762 300.0149719 +22.6755264     762.3646     72.53519      1.896     4.37     5.580886     20.45917     70.35748        13     1.266     0.843 -12.57   0
        96    464.8090    741.6400 300.0930822 +22.7476523     990.3107     72.51672      1.922     4.20     5.472431     20.45917     86.97426        22     1.298     1.199  89.56   0
        97     24.7321    742.7396 299.9557871 +22.6160371     411.0468     72.55366      1.799     4.12      5.45335     20.45917     41.77019         6     0.732     0.663 -78.16   0
        98    865.7037    739.3785 300.2187933 +22.8670850     603.3624     72.42431      2.077     6.61     5.590878     20.45917     33.72781        13     1.130     1.085  39.87   0
        99    367.1523    738.4241 300.0637167 +22.7174621     290.6958     72.53519      1.509     4.25     5.531227     20.45917     32.55335         5     0.899     0.573 -45.44   0
       100    411.0960    737.1409 300.0778162 +22.7302636     448.5867     72.59057      1.882     3.53     5.504391     20.45917     43.65566         7     0.827     0.686  58.62   0
       101     53.6902    735.8276 299.9670356 +22.6227382     430.5429     72.49825      1.688     4.38     5.474345     20.45917     36.38988         5     1.246     0.438 -59.50   0
       102    217.3058    731.2196 300.0194205 +22.6704756     441.2103      72.4428      1.719     3.35     5.522795     20.45917     54.30294         8     0.923     0.736   5.65   0
       103    541.0212    722.0950 300.1231751 +22.7648727     510.4566     72.42431      2.179     5.00     5.270991     20.45917     46.56143         9     1.182     0.727  71.87   0
       104    509.7014    719.7547 300.1141778 +22.7548166      556.174     72.53519      1.681     4.17     5.364892     20.45917     51.95479        11     1.066     0.798  19.07   0
       105    419.3082    719.3506 300.0861543 +22.7276145     282.4915     72.55366      1.208     3.38      5.50297     20.45917     39.29789         5     0.735     0.462  12.21   0
       106    926.0673    716.4471 300.2450822 +22.8785634     4508.773     72.49825      1.912     4.27     5.742567     20.45917     279.1951        40     1.473     1.419  46.56   0
       107    531.7620    717.3011 300.1218479 +22.7607212     1393.589     72.51672      1.860     4.05     5.298253     20.45917     115.2306        23     1.270     1.133  30.29   0
       108    914.7226    707.7365 300.2443721 +22.8726623     1688.121     72.59057      1.816     4.25     5.758901     20.45917     114.7078        28     1.354     1.279  12.16   0
       109    277.8642    701.4039 300.0479521 +22.6800680     1030.116     72.49825      1.834     4.55     5.535029     20.45917      87.0994        17     1.412     1.127 -17.93   0
       110    741.1121    699.0152 300.1930451 +22.8181735     2452.035     72.46129      1.778     3.64     5.530846     20.45917     164.2593        33     1.405     1.247   3.05   0
       111    945.6184    697.9174 300.2572054 +22.8790872     1597.631     72.47977      1.894     4.23     5.740306     20.45917      113.653        26     1.389     1.197  37.20   0
       112    823.6142    685.0864 300.2233036 +22.8388730      567.866     72.46129      2.032     6.54      5.62782     20.45917     45.94241        11     1.144     1.050 -89.79   0
       113    127.2378    685.2314 300.0063443 +22.6302688     509.3728     72.51672      1.740     3.28     5.530889     20.45917     59.94093         8     1.017     0.610 -89.12   0
       114    859.4313    675.9834 300.2374356 +22.8469788     148905.4     72.49825      1.845     3.95     5.833391     20.45917     10311.14       169     1.665     1.625 -78.87   0
       115    622.5328    679.8573 300.1623002 +22.7771530     452.0172     72.55366      1.828     4.98     5.262896     20.45917     28.63221         8     1.062     0.661  31.08   0
       116   1006.2740    677.9120 300.2826403 +22.8914883      1303.26     72.66434      1.909     4.72     5.445411     20.45917     94.74276        25     1.396     1.297  60.69   0
       117    711.6990    676.1671 300.1912966 +22.8027972     983.4656     72.49825      2.093     4.72      5.42891     20.45917     57.76558        18     1.298     1.023  36.11   0
       118    892.0911    668.4666 300.2500687 +22.8545945     507.9202     72.66434      2.274     6.23     5.892374     20.45917     31.81472         7     1.304     0.837  24.46   0
       119    545.6920    664.6407 300.1432973 +22.7497628      1719.08     72.51672      1.693     3.74     5.289589     20.45917      143.368        23     1.225     1.145 -84.80   0
       120    726.9036    662.0171 300.2006347 +22.8032827     9327.014     72.42431      1.718     3.49     5.533319     20.45917     673.3409        48     1.419     1.378 -88.99   0
       121    228.3360    656.8831 300.0470028 +22.6524370     4872.797     72.62746      1.854     3.95      5.53744     20.45917     393.7384        44     1.500     1.402  39.68   0
       122    310.6934    655.2071 300.0731775 +22.6766400     1118.949     72.42431      1.668     3.64     5.507934     20.45917     101.9717        20     1.168     1.122 -53.26   0
       123    186.3783    652.8024 300.0352744 +22.6386880     564.8726     72.46129      1.838     6.14     5.573252     20.45917     48.63223        11     1.232     0.936  27.00   0
       124    518.9382    650.6687 300.1395005 +22.7377333     798.5165     72.57211      1.802     4.62     5.433266     20.45917     78.32687        15     1.214     0.978  30.76   0
       125    510.3438    642.7015 300.1394110 +22.7328692     3257.969     72.60902      1.723     3.45     5.500577     20.45917     314.7816        34     1.387     1.256 -67.06   0
       126    500.6860    636.3813 300.1384552 +22.7281599     1458.057     72.46129      1.792     3.48     5.566001     20.45917     139.1683        22     1.346     1.062  53.83   0
       127    894.5200    634.8136 300.2617592 +22.8456432     440.7042     72.49825      1.855     4.70     5.977379     20.45917     36.13349         9     1.156     0.636 -48.13   0
       128    178.3281    631.2551 300.0397688 +22.6300875     745.2618     72.53519      1.908     4.96     5.620287     20.45917     75.24895        15     1.278     1.104 -77.31   0
       129    163.8625    632.7195 300.0347933 +22.6261717     733.2812     72.62746      1.918     3.47     5.638691     20.45917     66.48897        11     0.969     0.943  50.66   0
       130    947.5508    628.0475 300.2805079 +22.8595699     516.5045     72.55366      1.810     6.26     5.751141     20.45917     39.99972        10     1.473     0.748  10.35   0
       131    204.0191    627.9482 300.0488353 +22.6368388     622.8917     72.49825      2.083     4.25     5.580214     20.45917     47.07325        10     1.168     0.753   1.40   0
       132    524.0720    626.9028 300.1488196 +22.7324416     466.5356      72.6459      1.654     5.13     5.517959     20.45917     37.27588        10     1.092     0.682   9.59   0
       133    425.2729    626.1690 300.1182831 +22.7026324     1833.467     72.51672      1.756     3.57     5.535798     20.45917     168.7716        26     1.360     1.122  34.49   0
       134   1002.6281    624.0633 300.2989956 +22.8749069     613.4807     72.51672      2.105     5.30     5.250594     20.45917     51.03492        10     1.412     0.655 -65.31   2
       135   1000.0000    624.1099 300.2981600 +22.8741339      551.886     72.38731      2.057     5.51     5.277821     20.45917     55.98528         9     1.278     0.670 -82.45   3
       136     79.2620    620.8806 300.0123269 +22.5974100     19942.89     72.62746      2.031     4.24     5.501633     20.45917     1471.962        74     1.681     1.580  25.03   0
       137      1.3025    622.7664 299.9874772 +22.5745763     406.0697     56.22365      0.965     2.23     5.416495     20.45917     72.69042         5     0.713     0.437 -75.55  24
       138    510.4063    621.5389 300.1463044 +22.7268065     1073.059     72.47977      1.718     3.52     5.595556     20.45917     98.55135        19     1.160     1.057  84.47   0
       139    545.5489    620.3918 300.1576261 +22.7370037     440.1561     72.51672      1.677     5.87     5.462359     20.45917     41.57399        10     1.229     0.790  28.00   0
       140    881.9528    616.5593 300.2637671 +22.8366315     153.8104     72.57211      1.452     4.68     6.060768     20.45917     26.41111         5     1.056     0.589  73.57   0
       141    928.3253    608.0665 300.2809974 +22.8480685     1096.055     72.59057      1.817     4.95     5.940228     20.45917     86.26837        23     1.359     1.222   8.56   0
       142     25.4552    604.9717 300.0007643 +22.5767102     1584.027     72.51672      2.317     5.80     5.487634     20.45917     75.79131        27     1.574     1.254  55.46   0
       143    794.9391    606.1536 300.2399998 +22.8075914     466.0804     72.55366      1.568     4.31     5.967061     20.45917      39.9917         8     0.850     0.743   9.34   0
       144     92.4266    605.2089 300.0215102 +22.5968573     385.7557     72.51672      1.725     3.52     5.556195     20.45917     39.25819         5     0.844     0.423  69.44   0
       145    868.3795    600.7565 300.2646645 +22.8280236        831.1     72.55366      2.208     4.38     6.119649     20.45917     61.74389        13     1.144     0.869  58.79   0
       146    613.0074    597.4797 300.1860900 +22.7506225     832.2438      72.4428      0.731     3.59     5.585041     20.45917     499.0231         6     0.947     0.392  88.64   0
       147    430.6382    594.2629 300.1303164 +22.6950724     838.2999     72.51672      1.692     3.85     5.676803     20.45917     91.39713        17     1.264     0.979 -13.92   0
       148    578.6507    593.1133 300.1768005 +22.7390780     565.8911     72.51672      1.713     4.98     5.619254     20.45917     46.79826        11     1.118     0.840 -41.98   0
       149    625.7762    592.0569 300.1918310 +22.7528876      564.973     72.51672      1.934     5.05     5.621368     20.45917     53.43624        10     1.430     0.874  -5.24   0
       150    596.2733    591.6229 300.1827765 +22.7439274     649.8533     72.57211      1.667     4.81     5.621477     20.45917     57.70067        11     1.203     0.807   9.99   0
       151    474.5976    590.5280 300.1452211 +22.7071682     1092.615     72.46129      2.032     4.43     5.846909     20.45917     93.25012        21     1.302     1.164  -8.43   0
       152    908.5016    586.0806 300.2819512 +22.8358113     3218.241      72.6459      1.759     3.70     6.012241     20.45917     271.8109        33     1.337     1.289  23.32   0
       153    440.2194    585.6685 300.1360915 +22.6954732     1748.941     72.51672      1.657     3.46     5.761594     20.45917     187.1988        22     1.209     1.113  40.95   0
       154   1005.8512    584.1757 300.3129575 +22.8643961      703.506     72.53519      2.098     6.38     5.153661     20.45917     43.00964        12     1.389     0.938  82.14   0
       155      2.6251    579.0459 300.0020861 +22.5624223     4155.055     63.36929      1.676     3.44     5.767008     20.45917     409.0568        31     1.503     1.094 -89.75  24
       156    947.5726    576.0627 300.2973992 +22.8446226     377.4227     72.51672      1.615     5.74     5.780324     20.45917     35.89256         8     1.257     0.737   9.21   0
       157    469.5494    576.2041 300.1483002 +22.7015397     282.0656     72.51672      1.387     3.60     5.910864     20.45917     38.27067         5     0.803     0.673 -54.87   0
       158    303.5998    572.3755 300.0978713 +22.6507209     9434.626      72.4428      1.758     3.38     5.570165     20.45917     885.7243        47     1.419     1.361  42.94   0
       159    426.0525    569.5182 300.1369240 +22.6865883     8918.529     72.55366      1.661     3.23     5.832821     20.45917     848.9802        46     1.344     1.331  60.28   0
       160    837.8269    563.6912 300.2671693 +22.8082181       2007.4     72.46129      1.749     3.67     6.046177     20.45917      150.442        25     1.272     1.128 -82.80   0
       161    922.4692    561.1237 300.2944153 +22.8328125     12601.73     72.60902      1.806     3.59     6.015208     20.45917     999.8137        58     1.504     1.419 -60.66   0
       162    486.6774    559.1052 300.1591880 +22.7017562     11647.81     72.62746      1.642     3.20     6.012605     20.45917     1031.637        52     1.396     1.303  62.22   0
       163    214.0211    554.5865 300.0757707 +22.6187670     1227.267     72.49825      1.658     4.06      5.96015     20.45917     111.0496        22     1.273     1.187  57.75   0
       164    656.1019    554.8976 300.2133513 +22.7512858     577.1715     72.71962      1.537     4.99      5.89611     20.45917     55.87759        12     1.161     0.837  61.83   0
       165    372.0826    553.6050 300.1252854 +22.6658472     433.1019      72.4428      1.413     3.38     5.723528     20.45917     52.87864         9     1.010     0.653  70.66   0
       166    460.7097    551.9600 300.1534193 +22.6919245     338.0356     72.51672      1.369     4.90     6.024483     20.45917     39.01321         9     0.987     0.790  46.66   0
       167    418.2940    547.2092 300.1417517 +22.6778534     4453.204      72.4428      1.663     3.29      5.98679     20.45917     423.5533        35     1.298     1.248  63.45   0
       168    761.1134    547.4789 300.2485042 +22.7805922     715.5967     72.66434      1.490     3.80     5.997421     20.45917     70.77034        12     0.983     0.895  81.76   0
       169    396.7481    545.7557 300.1355142 +22.6709813     1224.751     72.55366      1.709     3.43      5.89026     20.45917     125.2792        22     1.247     1.085  23.10   0
       170    150.9320    544.8259 300.0593131 +22.5970554     819.1525     72.49825      1.717     4.44      6.15237     20.45917     80.65036        19     1.452     1.027  42.45   0
       171    838.2850    543.2098 300.2739631 +22.8024644     1557.388     72.46129      1.699     3.65     6.035582     20.45917      125.519        25     1.357     1.119 -31.41   0
       172    535.0057    534.8564 300.1821179 +22.7092614     206573.7     72.47977      1.605     3.13     6.044478     20.45917     17800.91       197     1.575     1.548   1.65   0
       173    359.0934    541.2367 300.1252572 +22.6584019     386.3885     72.47977      1.661     4.30     5.699939     20.45917     34.35199         5     0.942     0.606  32.52   0
       174    718.6240    539.8922 300.2377170 +22.7656906     836.8323      72.4428      1.571     3.54      6.00988     20.45917     78.67821        15     1.117     0.897   6.55   0
       175    220.9909    534.5695 300.0844384 +22.6151061      3579.02     72.51672      1.783     3.63     6.014722     20.45917     339.6446        37     1.410     1.346  -6.06   0
       176    786.9056    531.3971 300.2617706 +22.7836880     633.5838     72.42431      2.199     4.69     6.053291     20.45917     41.16513        11     1.081     0.798  19.37   0
       177    425.6650    515.1637 300.1544515 +22.6708524      2688.19     72.51672      1.659     3.24     6.059618     20.45917     233.9754        29     1.248     1.181 -30.74   2
       178    269.9013    517.3950 300.1052342 +22.6248286     328.5045     72.40582      1.475     5.48     5.788954     20.45917     44.35966         9     1.282     0.708  47.70   0
       179    836.7930    511.8026 300.2836951 +22.7929839     291.3304     72.33178      1.599     4.64     6.056845     20.45917     34.93365         6     0.935     0.653  77.46   0
       180    742.9785    504.1404 300.2569196 +22.7627000     397.9369     72.49825      1.365     4.14     6.154157     20.45917     38.34274         8     1.129     0.550 -13.50   0
       181    822.6766    501.4089 300.2826655 +22.7857693     1806.395     72.47977      1.753     3.38     6.079429     20.45917     162.7518        25     1.226     1.178  62.62   0
       182    693.7870    499.2206 300.2431775 +22.7465595     2523.091     72.47977      1.583     3.14     6.309024     20.45917     226.7471        27     1.263     1.149  39.43   0
       183    937.0848    492.8899 300.3211321 +22.8175555     992.0323     72.66434      2.603     8.18     5.974888     20.45917     55.51109        19     1.714     1.090 -86.13   2
       184    598.4564    495.7208 300.2145962 +22.7170115     433.8965     72.55366      1.584     5.22     6.345978     20.45917     48.10483        11     1.208     0.852 -63.31   0
       185    481.1774    495.1588 300.1782361 +22.6817296     722.8672     72.55366      1.462     3.46     6.151346     20.45917     72.84029        13     1.043     0.853 -13.69   0
       186    951.1670    493.4723 300.3253386 +22.8219365     1133.789     72.51672      1.637     3.81     5.870985     20.45917     95.55779        22     1.376     0.964  21.84   0
       187    822.8682    491.5125 300.2859381 +22.7829800     2336.708      72.6459      1.995     4.27     6.088667     20.45917     165.2225        35     1.827     1.181  73.64   0
       188    576.4164    489.5072 300.2097445 +22.7086257     640.9077      72.4428      1.619     2.82     6.306118     20.45917     78.01032        10     0.950     0.679  89.93   0
       189    861.0471    486.7120 300.2994082 +22.7930248     4262.151     72.49825      1.668     3.29     6.039932     20.45917     366.1614        36     1.343     1.284 -45.99   0
       190    414.8558    488.4569 300.1597551 +22.6599393     394.9088     72.59057      1.528     4.13     6.078228     20.45917     40.10333         7     1.007     0.484   7.70   0
       191    576.0884    485.4156 300.2109705 +22.7073511     475.8752     72.46129      1.764     3.42      6.33699     20.45917     34.22793         5     0.760     0.445  20.07   0
       192    522.0188    482.5318 300.1950586 +22.6903311     326.4142     72.51672      1.445     2.86     6.189509     20.45917     38.40828         6     0.776     0.498  -2.70   0
       193    952.9204    477.6392 300.3310259 +22.8179054     704.2711     72.49825      1.635     3.59     5.884815     20.45917     73.56889        12     1.140     0.779   6.37   0
       194     93.3432    476.7599 300.0634980 +22.5602465     939.0624     72.49825      1.671     3.84     6.021213     20.45917     101.4675        16     1.268     0.839  48.96   0
       195    892.0318    474.2906 300.3131091 +22.7987233     218.5532     72.46129      1.435     5.05     6.035037     20.45917      30.8533         6     1.295     0.558  28.11   0
       196    753.9756    470.9978 300.2711083 +22.7564596     215.1404     72.46129      1.210     3.79     6.185205     20.45917     32.59717         5     1.051     0.393 -32.69   0
       197    761.9727    468.3376 300.2744660 +22.7580881     817.7357     72.51672      0.550     0.80     6.162872     20.45917     463.7546         5     0.474     0.301  85.16   0
       198    949.2744    466.6518 300.3334545 +22.8136530     196.4746     72.53519      1.239     4.04     5.927321     20.45917     38.43555         6     0.928     0.503  39.17   0
       199    693.3879    461.4797 300.2553044 +22.7355865     393.6659     72.49825      1.532     3.20     6.409542     20.45917     46.81201         7     0.943     0.493  -5.94   0
       200    634.4507    457.2302 300.2383096 +22.7167209     664.4974     72.53519      1.540     4.16     6.520374     20.45917     65.97575        14     1.228     0.835  43.46   0
       201    948.9891    449.6689 300.3388781 +22.8086807     656.7203     72.51672      1.609     3.69     5.954316     20.45917     64.17676        13     1.059     0.902 -42.14   0
       202    695.3693    449.5107 300.2598071 +22.7327374     869.0617     72.49825      1.615     3.18     6.379156     20.45917     81.51933        15     1.051     0.931 -23.58   0
       203    852.6937    445.7534 300.3100972 +22.7787417     939.3755     72.53519      1.509     4.18     6.042767     20.45917     109.8204        16     1.280     0.934 -27.21   0
       204    836.5501    442.1187 300.3062401 +22.7728652     705.7277     72.53519      1.688     4.19     6.051371     20.45917      65.6832        13     1.101     0.923  18.61   0
       205    581.0517    439.7901 300.2273267 +22.6957191     3143.024     72.51672      1.545     3.05     6.389786     20.45917     301.3612        29     1.209     1.175  74.38   0
       206    941.4556    439.1064 300.3399550 +22.8033874     723.1791     72.57211      1.985     2.97     6.001186     20.45917     71.06938        11     1.035     0.734   5.93   0
       207    420.6256    426.8228 300.1815566 +22.6439525     369.2178     72.47977      1.433     5.00      6.19365     20.45917     44.38107         8     1.061     0.666  47.79   0
       208    992.4812    419.1638 300.3623562 +22.8129128     1334.754     72.46129      1.763     3.80     5.902497     20.45917     100.5188        21     1.188     1.130 -20.81   0
       209    950.8190    417.7842 300.3497979 +22.8000527     1001.042     72.49825      1.771     4.28     6.000563     20.45917     84.12048        18     1.252     1.037 -54.54   0
       210    864.5961    419.1088 300.3224588 +22.7746372     468.9812     72.42431      1.325     3.85     6.034262     20.45917     57.12305        10     0.951     0.713   5.80   0
       211    691.8546    413.8289 300.2702918 +22.7214229     1042.689     72.51672      1.521     3.64     6.354281     20.45917     102.9262        18     1.196     1.028  84.47   0
       212    487.4546    414.4721 300.2063801 +22.6604149     466.6227     72.51672      1.557     3.45     6.215026     20.45917     61.93647        12     1.047     0.825  36.82   0
       213    196.1509    411.8619 300.1165382 +22.5724117     698.4091     72.57211      1.564     3.01     6.111095     20.45917     69.87949        11     0.978     0.710 -80.40   0
       214    991.1823    406.3880 300.3660969 +22.8088473     4373.949     72.47977      1.775     3.54     5.912827     20.45917     343.8328        37     1.395     1.279  85.07   0
       215    257.9231    407.4802 300.1371814 +22.5896591     3750.658     72.62746      1.713     3.41     6.148572     20.45917     351.1711        33     1.345     1.231  45.21   0
       216    205.1726    402.1696 300.1224902 +22.5723299     7645.992     72.51672      1.751     3.46     6.173268     20.45917     733.4863        49     1.472     1.348  49.19   0
       217    971.2125    397.3911 300.3627822 +22.8002843     1902.963     72.40582      1.781     3.56     5.942692     20.45917     156.7056        26     1.353     1.145  43.69   0
       218    346.0821    396.5073 300.1681830 +22.6129131     4877.981     72.66434      1.605     3.04     6.354276     20.45917     493.1026        35     1.361     1.155  56.43   0
       219    590.3239    393.4013 300.2452707 +22.6851557     18549.31     72.40582      1.576     2.84     6.459921     20.45917     1965.717        61     1.376     1.303  72.00   0
       220    607.7745    393.4783 300.2506846 +22.6904019     858.7939     72.51672      2.164     7.47     6.507446     20.45917     49.08897        20     1.612     0.969 -33.30   0
       221    787.4573    384.0360 300.3097747 +22.7414644     327.7237     72.51672      1.539     4.81     6.074327     20.45917     34.15533         7     0.916     0.714 -21.19   0
       222    210.5191    380.5389 300.1311722 +22.5677165     325.4282     72.60902      1.648     4.82     6.255518     20.45917     44.92039         7     1.323     0.498  -0.25   0
       223    923.9905    376.0152 300.3549786 +22.7800063      735.748     72.42431      1.838     5.29     5.960576     20.45917     57.09985        15     1.262     0.968 -52.33   0
       224    144.9608    373.1873 300.1131622 +22.5459629     1951.755     72.51672      1.741     3.46     6.173282     20.45917     184.4978        29     1.339     1.310  35.91   0
       225    530.9168    362.7831 300.2366929 +22.6585662     6699.566     72.47977      1.568     3.09     6.416916     20.45917     671.8289        37     1.310     1.187  70.23   0
       226    944.5989    363.3933 300.3655066 +22.7825385     1157.822     72.33178      1.665     3.72     5.925785     20.45917     109.3206        18     1.193     1.012  57.06   0
       227    245.9736    362.1125 300.1481828 +22.5730425     684.3261     72.49825      1.465     3.42      6.35948     20.45917     80.07191        14     1.094     0.891  35.50   0
       228    790.7835    355.0335 300.3202227 +22.7341153     318.3667     72.49825      1.517     4.20     6.118341     20.45917     42.65715         5     0.863     0.583  -3.73   0
       229    103.8657    355.1595 300.1062292 +22.5284705     559.5107     72.47977      1.682     5.19     6.350364     20.45917     51.23466         8     1.071     0.712 -14.38   0
       230    644.6754    353.4337 300.2751802 +22.6899304     434.0944     72.51672      1.397     3.86     6.521009     20.45917     40.84374         9     0.916     0.745  -2.46   0
       231    735.1633    351.8298 300.3039144 +22.7165501     1244.004     72.53519      1.618     4.11        6.263     20.45917     98.45832        18     1.357     0.906  72.84   0
       232    437.5947    349.0269 300.2120845 +22.6266698     6138.576     72.49825      1.579     2.95     6.279058     20.45917     601.3815        37     1.290     1.201  51.36   0
       233    927.0934    344.1468 300.3662872 +22.7717627     523.1299     72.57211      1.481     3.92     5.910456     20.45917     54.90162        10     1.026     0.765 -65.59   0
       234    829.6145    343.6242 300.3360381 +22.7424508      1447.51     72.53519      1.659     3.20     6.030194     20.45917     141.9219        21     1.155     1.059 -20.90   0
       235    387.7049    342.0397 300.1988145 +22.6097220     7942.287     72.51672      0.518     0.86     6.362008     20.45917     5193.576         8     0.476     0.283  -4.21   0
       236    422.2195    337.6844 300.2109756 +22.6188050     635.7407      72.4428      1.951     4.60     6.302087     20.45917     54.26577         8     1.007     0.850  42.71   0
       237    504.7892    335.6069 300.2373693 +22.6429295     514.6618     72.38731      1.542     4.69     6.332633     20.45917      51.6498         9     1.230     0.506  47.01   0
       238    802.4342    331.3690 300.3315347 +22.7307922     522.7791     72.53519      1.358     3.47      6.09426     20.45917      61.0116        13     0.994     0.914   7.44   0
       239    325.1934    328.1443 300.1838595 +22.5870074     2655.783     72.49825      1.604     3.07     6.431382     20.45917     259.2719        25     1.212     1.112  59.67   0
       240     43.5561    325.4652 300.0971079 +22.5018689     873.0093     72.49825      1.679     3.93     6.570916     20.45917     96.39484        20     1.292     1.156 -26.49   0
       241    673.1266    323.0945 300.2938927 +22.6897184     349.8167     72.66434      1.543     4.54     6.469268     20.45917     37.80036         5     0.954     0.614  59.61   0
       242    294.4423    317.5480 300.1777244 +22.5747520     30172.92     72.51672      1.688     3.07      6.43498     20.45917     3310.727        76     1.498     1.371  59.02   0
       243    829.1734    315.4619 300.3450369 +22.7342147     1293.368     72.51672      1.448     2.75      6.06596     20.45917     145.7643        19     1.055     1.015  -7.24   0
       244    744.6597    304.2921 300.3222978 +22.7057148      467.642     72.59057      1.480     3.86     6.023639     20.45917     59.06297         9     1.053     0.728 -10.61   0
       245    168.8309    303.6410 300.1431480 +22.5331311     512.3298     72.53519      1.920     5.49     6.444661     20.45917     39.22354        10     1.011     0.840 -25.40   0
       246    392.8462    302.4157 300.2132689 +22.5998700     540.9156     72.53519      1.808     5.08     6.368235     20.45917     58.47971        12     1.421     0.976  81.80   0
       247    705.0005    297.5935 300.3121030 +22.6919205     1958.009     72.33178      1.586     3.15     6.201114     20.45917     182.2091        25     1.255     1.089  63.87   0
       248    513.2277    292.3811 300.2540199 +22.6330252     301.8967     72.51672      1.272     3.46      6.32978     20.45917     39.11118         5     0.779     0.444  17.90   0
       249    920.2591    290.5919 300.3815276 +22.7543038      642.047     72.47977      1.812     4.23     5.934686     20.45917     54.45755        15     1.119     1.044  41.11   0
       250    366.6606    281.8505 300.2117854 +22.5861167     2184.496     72.57211      1.766     4.68     6.409137     20.45917     182.6554        30     1.493     1.105  67.32   0
       251    578.9951    281.2964 300.2781087 +22.6495229     288.1732     72.42431      1.393     5.20     6.401222     20.45917     42.76528         8     0.966     0.790 -75.16   0
       252    805.7308    275.0054 300.3508463 +22.7155591     533.9807     72.47977      1.477     5.55     6.167611     20.45917     58.72578        10     1.194     0.745  46.54   0
       253    688.5159    273.3138 300.3148381 +22.6800023     370.0915     72.62746      1.359     3.81     6.314385     20.45917     47.36517         6     0.918     0.464  -0.98   0
       254    442.6149    261.3858 300.2420757 +22.6029731     1249.183     72.46129      1.648     2.99     6.349534     20.45917     129.2019        17     1.189     0.926  70.05   0
       255    954.4217    257.7661 300.4028379 +22.7550716     371.2147     72.53519      1.216     3.16      5.91984     20.45917      52.4549         6     0.898     0.423  -1.71   0
       256    687.5804    253.3881 300.3210087 +22.6739894     2342.168     72.47977      1.604     2.90      6.35396     20.45917     250.3737        29     1.254     1.182 -81.26   0
       257    948.8351    247.9265 300.4042851 +22.7505682     3103.833     72.49825      1.655     3.22     5.919569     20.45917     280.7917        33     1.342     1.230 -60.31   0
       258   1010.1381    243.2349 300.4249451 +22.7675490     389.2649     72.53519      1.538     4.21     5.971735     20.45917     43.29559         7     1.120     0.451  27.01   0
       259   1018.1124    235.8953 300.4298152 +22.7678201     1652.186     72.70119      1.718     3.78     5.988949     20.45917     138.0991        24     1.273     1.153  60.03  16
       260    395.8601    237.0222 300.2354154 +22.5819699      709.556     72.49825      1.746     3.96     6.437559     20.45917     69.74874         9     1.048     0.622  49.96   0
       261     70.6481    231.1480 300.1361196 +22.4828877     1616.731     72.55366      2.082     3.70     6.621689     20.45917     153.5485        28     1.518     1.276 -12.94   0
       262    101.1927    231.2218 300.1455945 +22.4920589     531.7288     72.49825      1.531     4.21     6.616096     20.45917      62.4699         9     1.118     0.697 -37.43   0
       263    964.6647    228.9501 300.4153805 +22.7498386     678.8821     72.57211      2.318     3.23     5.941808     20.45917       58.359         9     0.970     0.631  32.00   0
       264    154.6107    223.1163 300.1648378 +22.5057301     608.3624     72.47977      2.109     6.40     6.522557     20.45917     54.03645        11     1.359     0.847  41.14   0
       265    830.7299    217.0931 300.3774265 +22.7063694     353.4579      72.6459      1.692     3.94      6.40549     20.45917     37.80441         6     0.900     0.493 -53.03   0
       266    759.3456    215.0291 300.3558277 +22.6844223     756.7393     72.51672      1.631     4.50     6.377291     20.45917     72.22691        15     1.238     0.972  75.54   0
       267    349.7445    214.2021 300.2284558 +22.5616016     311.2487      72.4428      1.236     4.40     6.489356     20.45917      41.2848         6     0.962     0.571  25.99   0
       268    850.1182    208.1367 300.3863799 +22.7095904     220.3354     72.62746      1.354     4.36     6.397432     20.45917     32.78822         6     0.929     0.583 -20.43   0
       269    857.3329    204.0925 300.3899424 +22.7105840      2026.08     72.66434      1.621     3.17     6.396159     20.45917     187.9267        26     1.227     1.180 -71.61   0
       270    275.7463    200.7556 300.2097803 +22.5355795     2243.234     72.53519      1.775     3.67     6.507947     20.45917      199.365        32     1.487     1.230  71.43   0
       271    353.6258    196.1076 300.2355308 +22.5575607     1110.916     72.46129      1.789     3.96     6.487719     20.45917     93.82676        20     1.263     1.081  15.57   0
       272    755.6682    195.7201 300.3609415 +22.6777652     596.1962     72.62746      1.605     3.18     6.302519     20.45917     67.15916        12     0.948     0.900  64.57   0
       273    105.0205    196.2326 300.1581292 +22.4831503     489.1789     72.51672      2.046     4.39     6.540263     20.45917     40.60935         6     0.864     0.635  -5.32   0
       274    401.1690    193.8664 300.2510615 +22.5711491     332.0667     72.51672      1.768     5.49     6.460659     20.45917     32.51818         6     1.340     0.634  83.53   0
       275    170.7696    187.8618 300.1812947 +22.5004368     781.0604     72.53519      1.697     3.38      6.51112     20.45917     78.40213        14     1.019     0.972 -55.55   0
       276    708.4944    185.3876 300.3495798 +22.6606795     1716.441      72.4428      1.548     2.90     6.191605     20.45917     198.4697        26     1.267     1.097 -60.20   0
       277    773.2994    184.9980 300.3699171 +22.6799533     554.7562     72.38731      1.392     3.50     6.323113     20.45917     66.01353         9     0.964     0.666 -61.73   0
       278    192.1830    181.5704 300.1899964 +22.5050412     671.0743     72.51672      1.868     3.52     6.508849     20.45917      59.2236         9     0.958     0.702  29.46   0
       279    980.1180    178.4392 300.4365830 +22.7399155     798.7371     72.47977      1.560     3.83      6.27256     20.45917     70.42052        15     1.229     0.909   3.68   0
       280    481.9331    177.9116 300.2813896 +22.5907350     308.9247     72.62746      1.569     3.31      6.46818     20.45917     38.27533         6     0.837     0.682 -44.42   0
       281    712.3344    176.5508 300.3536422 +22.6592851      914.045     72.51672      1.779     5.07     6.149411     20.45917     66.94269        15     1.071     0.968  72.75   0
       282    632.8651    176.1963 300.3289800 +22.6354076     1269.866     72.53519      1.478     2.96     6.306589     20.45917       134.31        18     1.055     1.000  53.74   0
       283    454.7163    172.2400 300.2747501 +22.5809576     402.0087     72.47977      1.464     3.73     6.475151     20.45917     37.74375         5     0.933     0.429 -44.13   0
       284    840.4755    167.0534 300.3966914 +22.6948800     918.7001     72.53519      1.741     3.89     6.423043     20.45917     75.56286        18     1.191     1.038 -24.92   0
       285    828.5389    167.6231 300.3927825 +22.6914741     1263.412     72.49825      1.593     3.33     6.422927     20.45917      137.434        19     1.148     1.020  32.64   0
       286    559.2817    167.8341 300.3087566 +22.6109839     906.3315     72.47977      1.571     3.06      6.44838     20.45917      97.2701        15     1.065     0.904  17.44   0
       287   1001.4948    157.6695 300.4499907 +22.7403257     1728.992     72.62746      1.834     3.47     6.369254     20.45917      147.103        31     1.548     1.236 -35.26   0
       288    957.1425    157.1017 300.4363281 +22.7269018     1051.961     72.60902      1.620     3.58     6.402887     20.45917     98.51777        18     1.286     0.863  32.17   0
       289    191.2484    150.0296 300.1999299 +22.4956944     671.5573     72.53519      1.582     3.53     6.503253     20.45917     85.34499        10     1.076     0.600  -9.33   0
       290     52.8742    144.3762 300.1587228 +22.4526280     2238.789     72.55366      2.000     3.95     6.567963     20.45917     188.6292        35     1.530     1.391  40.69   0
       291    876.2950    142.1675 300.4159358 +22.6984274     761.2268     72.49825      1.607     3.03     6.437438     20.45917      72.9388        11     0.961     0.730   7.49   0
       292      2.7767    141.7271 300.1440056 +22.4368605     408.7044     64.04211      1.479     4.56     6.692109     20.45917     46.47432         6     1.049     0.564 -23.92  24
       293    210.4514    137.7496 300.2098851 +22.4979142      5689.11     72.55366      1.757     3.32     6.499084     20.45917     560.5534        43     1.432     1.348  62.01   0
       294    192.7074    139.3734 300.2038379 +22.4930678     313.3164     72.46129      1.280     3.29     6.494397     20.45917     45.90219         5     0.720     0.472 -11.07   0
       295    193.7770    129.0533 300.2075156 +22.4904212     591.4728     72.53519      1.604     3.19     6.486515     20.45917     74.73749        11     1.016     0.808 -67.56   0
       296   1009.4973    125.7014 300.4628523 +22.7335114     18406.94     72.70119      1.858     3.76     6.361353     20.45917     1431.224        70     1.625     1.471 -89.58   0
       297    854.6059    119.6722 300.4164596 +22.6854650     3630.877     72.46129      1.651     3.10     6.450044     20.45917     355.6613        35     1.358     1.243  50.08   0
       298    958.3848    118.4382 300.4492490 +22.7161394     2812.625     72.53519      1.830     3.45     6.406945     20.45917     251.7252        33     1.387     1.265  89.17   0
       299    404.0406    115.1090 300.2774856 +22.5493576     647.0345     72.51672      1.419     3.07     6.468476     20.45917     72.15997        10     0.879     0.791 -19.19   0
       300    157.3272    115.6918 300.2005061 +22.4756654     401.2255     72.68277      1.152     2.39     6.459851     20.45917     60.69107         5     0.710     0.449 -11.30   0
       301    328.3179    106.6558 300.2566474 +22.5242609     807.2283     72.55366      2.697     5.31     6.455432     20.45917     52.48026        11     1.446     0.667 -20.42   2
       302     94.9020    103.5151 300.1850353 +22.4534712     579.7532     72.68277      1.528     3.06     6.570022     20.45917     63.90833         9     0.996     0.674 -44.54   0
       303    455.4614    101.8116 300.2978106 +22.5609218     1753.134     72.47977      1.615     3.50     6.494093     20.45917      161.456        25     1.296     1.153  89.16   0
       304    383.2011    102.2816 300.2751533 +22.5394307     571.5061     72.40582      1.838     4.72     6.466461     20.45917     52.71731        10     1.098     0.841 -78.95   0
       305    517.0169    101.5427 300.3170743 +22.5792646     387.2632     72.49825      1.450     2.25     6.487237     20.45917     48.55593         6     0.749     0.495  -5.87   0
       306    198.8115     97.2421 300.2193917 +22.4827829     398.2883     72.51672      1.746     4.83     6.464818     20.45917     37.52017         7     1.021     0.648 -16.85   0
       307   1019.9785     83.0446 300.4799507 +22.7243583     3601.306     71.97907      1.925     3.47     6.325471     20.45917     329.7999        43     1.506     1.479  49.37  16
       308    229.4959     81.5774 300.2340159 +22.4874656     6004.039     72.42431      1.768     3.33     6.469879     20.45917     634.0147        44     1.460     1.325  52.81   0
       309     80.8956     81.3291 300.1878689 +22.4428993     744.9532     72.62746      1.621     3.65     6.820566     20.45917     87.46645        16     1.247     0.885  71.30   0
       310    736.7117     82.2552 300.3918092 +22.6394361      287.347     72.55366      1.359     3.89     6.613165     20.45917     31.32701         5     0.927     0.469 -44.32   0
       311    858.5376     80.1265 300.4305033 +22.6752543     282.0263     72.55366      1.536     4.14     6.632453     20.45917     40.26961         5     0.881     0.556 -45.22   0
       312    200.9007     75.7302 300.2270128 +22.4772232     329.0029     72.62746      1.449     4.57     6.557046     20.45917     47.06827         8     0.969     0.611  -4.22   0
       313    245.2004     73.2918 300.2415880 +22.4897847     341.4915     72.38731      1.320     3.38     6.449792     20.45917     41.68349         5     0.757     0.437  11.76   0
       314    475.5563     67.0921 300.3153216 +22.5569467     6214.412     72.49825      1.651     3.07     6.487213     20.45917     647.5421        41     1.442     1.232  71.61   0
       315    360.9917     66.8854 300.2797082 +22.5226023      685.091     72.46129      1.601     4.16      6.44133     20.45917     69.83656        11     1.029     0.837 -32.70   0
       316    532.7412     62.4150 300.3346537 +22.5727112     376.7305     72.49825      1.363     2.90      6.30726     20.45917     50.01623         6     1.015     0.427  83.99   0
       317    228.6509     61.5724 300.2402353 +22.4814602     178.2625     72.53519      1.370     4.16     6.450683     20.45917     29.47618         5     1.013     0.487   5.69   0
       318    727.9420     57.3357 300.3971495 +22.6296398     784.4529     72.55366      1.549     2.95     6.914684     20.45917     82.09177        11     0.922     0.795 -35.06   0
       319    669.7658     58.4770 300.3786390 +22.6125685     294.0415     72.49825      1.705     4.26      6.60521     20.45917     29.45313         5     0.883     0.586  48.52   0
       320    820.8334     56.2827 300.4264659 +22.6571149     321.9234     72.47977      1.328     2.57     6.862645     20.45917     48.50158         7     0.743     0.632 -14.04   0
       321    129.3202     52.6910 300.2122093 +22.4491672     223.0598     72.62746      1.530     3.98     7.031466     20.45917     31.62442         6     0.874     0.520  43.95   0
       322    168.7491     51.1698 300.2249676 +22.4605353     432.2012     72.53519      1.555     2.55     6.961728     20.45917     58.99979         6     0.839     0.629 -26.32   0
       323    603.9916     47.3027 300.3617555 +22.5896778     6398.196     72.38731      1.603     3.01     6.166843     20.45917     632.4714        43     1.394     1.263  86.64   0
       324    526.9158     50.0427 300.3368475 +22.5674082     472.2691     72.47977      1.460     3.06     6.275478     20.45917     49.19223         6     0.765     0.666 -72.04   0
       325    378.9565     46.1763 300.2920123 +22.5220220       1504.5     72.57211      1.566     3.08     6.438016     20.45917     152.6805        24     1.231     1.128  33.60   0
       326    645.2898     44.5900 300.3755080 +22.6012504     870.4503     72.46129      1.589     3.27     6.465271     20.45917     88.89391        16     1.091     0.922 -72.80   0
       327    661.0116     41.0686 300.3815504 +22.6049393     641.4008     72.53519      1.692     3.85     6.619403     20.45917     61.29282         9     0.935     0.860 -13.02   0
       328    930.9974     38.9638 300.4664557 +22.6850636     537.3943     72.51672      1.801     2.57     6.465986     20.45917     57.65248         6     0.701     0.691 -68.37   0
       329    127.7008     38.7946 300.2162079 +22.4446871     567.6683     72.40582      1.619     3.62     7.200691     20.45917     72.33234         9     1.102     0.660 -31.48   0
       330    699.6969     36.4655 300.3951039 +22.6151845     571.9166     72.62746      1.687     2.95     6.969368     20.45917     70.99989         7     0.997     0.489 -30.16   0
       331    663.1999     31.1735 300.3854388 +22.6027456     1041.088     72.47977      2.342     4.73     6.683334     20.45917     77.32973        18     1.512     0.866  46.97   0
       332    648.2555     32.1375 300.3804673 +22.5985532     2838.439     72.57211      1.642     3.23     6.516402     20.45917     307.1785        30     1.319     1.174  80.91   0
       333    289.1181     33.1727 300.2682560 +22.4913935     389.9941     72.51672      1.590     4.56     6.409226     20.45917     41.97285         7     0.935     0.640 -19.10   0
       334    554.1431     28.0824 300.3524471 +22.5692343     1018.288     72.57211      0.469    -6.53     6.070812     20.45917     754.5853         5     0.407     0.273  -6.19   0
       335    734.7474     23.6827 300.4101760 +22.6219868     1443.365     72.55366      1.654     4.72     7.402341     20.45917     133.5396        22     1.362     1.133  87.70   0
       336    894.9808     23.3305 300.4602798 +22.6697943     307.0431     72.53519      1.699     4.17     6.859169     20.45917     32.17631         6     0.874     0.586  89.14   0
       337    672.7999     17.2847 300.3929318 +22.6016188     671.3161     72.38731      1.378     3.08     6.880993     20.45917      76.8429        10     1.021     0.644 -10.94   0
       338     60.0156    954.2591 299.8979962 +22.6873119     5305.163     72.47977     23.024   110.44     36.18801     20.45917     194.6254      3489    22.696    14.911 -15.03  19
       339     51.0280     16.0239 300.1997397 +22.4151825     591.7026     72.51672      1.913     5.74     7.161618     20.45917      47.4046        13     1.345     0.724 -10.28   0
       340    278.2689   1013.1549 299.9467264 +22.7696833     327.1917     72.49825      1.167     3.70     19.35674     20.45917     59.12282         8     0.904     0.591 -89.61   0
       341    275.3109   1011.5186 299.9463382 +22.7683265    -204.2386     72.62746      0.880     3.59     22.66368     20.45917     29.12852         5     1.401     0.266 -45.54   0
       342    112.6007   1009.3182 299.8964382 +22.7188839     1442.444     72.40582      3.149    11.47     91.46725     20.45917      60.5443        29     2.422     1.513 -39.28  18
       343    182.8126   1005.3894 299.9195533 +22.7388213     1943.063     72.40582      3.478    24.88     83.46337     20.45917     57.98531       109     5.039     3.412 -19.89  19
