#   1 NUMBER                 Running object number                                     
#   2 X_IMAGE                Object position along x                                    [pixel]
#   3 Y_IMAGE                Object position along y                                    [pixel]
#   4 ALPHA_J2000            Right ascension of barycenter (J2000)                      [deg]
#   5 DELTA_J2000            Declination of barycenter (J2000)                          [deg]
#   6 FLUX_APER              Flux vector within fixed circular aperture(s)              [count]
#   7 FLUXERR_APER           RMS error vector for aperture flux(es)                     [count]
#   8 FLUX_RADIUS            Fraction-of-light radii                                    [pixel]
#   9 FWHM_IMAGE             FWHM assuming a gaussian core                              [pixel]
#  10 BACKGROUND             Background at centroid position                            [count]
#  11 THRESHOLD              Detection threshold above background                       [count]
#  12 FLUX_MAX               Peak flux above background                                 [count]
#  13 ISOAREA_IMAGE          Isophotal area above Analysis threshold                    [pixel**2]
#  14 A_IMAGE                Profile RMS along major axis                               [pixel]
#  15 B_IMAGE                Profile RMS along minor axis                               [pixel]
#  16 THETA_IMAGE            Position angle (CCW/x)                                     [deg]
#  17 FLAGS                  Extraction flags                                          
         1    486.9901     12.9763 300.3325368 +22.5431564      481.752      69.4503      1.478     4.65    -8.276092     19.59404     52.20589        11     1.159     0.817 -45.21   0
         2     60.0890     12.5557 300.1999266 +22.4150855     271.1093     69.46799      1.345     4.32    -8.970749     19.59404     37.18967         6     0.981     0.542 -65.32   0
         3    390.9851     11.1929 300.3032404 +22.5138788     375.8322     69.36179      1.483     4.21    -8.537588     19.59404     45.86542         7     1.161     0.574  48.00   0
         4    162.3005      1.6918 300.2352093 +22.4426095     1382.066     56.12521      1.186     2.41    -9.150431     19.59404      240.204        15     1.142     0.762  13.89  24
         5    730.4944      1.6514 300.4120376 +22.6128337     280.9831     55.88391      1.066     3.03    -8.335946     19.59404     49.15433         5     0.722     0.448  66.88  24
         6    164.0792    988.0684 299.9153271 +22.7261402     1003.154     69.55636      8.676    16.23     20.93706     19.59404     37.71555        27     4.082     1.794  49.57   2
         7    959.3842   1021.9849 300.1518520 +22.9745941     270.5097     62.34724      1.411     4.63     -13.8328     19.59404     48.42987         7     1.009     0.602  67.73  24
         8     95.2648    938.0067 299.9102414 +22.6911217     1647.164     69.41491     21.271    27.72   -0.5033262     19.59404     44.39241       131     6.554     3.254 -20.64   3
         9     66.3532    944.1293 299.8992679 +22.6841907     2350.649     69.43261     30.151   101.92    -3.157277     19.59404     71.48424      2224    25.196    11.438 -86.33  18
        10     71.7754   1015.9946 299.8775593 +22.7064111     4045.904     69.43261     14.301    47.72     19.37527     19.59404     92.75821       751    10.563     7.258 -54.31  27
        11    163.4919    993.4069 299.9134067 +22.7274937     1222.944     69.36179      5.421     6.24     23.03248     19.59404     46.41648        12     1.319     0.870 -35.33   3
        12    158.8170    976.6580 299.9174062 +22.7212895      843.707     69.43261      3.912     6.62     16.58716     19.59404     41.52233        10     1.334     0.922 -10.81   3
        13    158.1817    971.3220 299.9189457 +22.7195694     1004.106      69.4503      4.729     8.95     14.13087     19.59404     44.66518        16     1.975     1.132  64.63   3
        14    624.9823    983.6135 300.0601449 +22.8632531     4179.788     69.41491      1.361     2.33    -13.04388     19.59404     533.9927        30     1.115     1.049 -74.55   3
        15     99.9186    972.8398 299.9003497 +22.7025016     963.1292     69.41491      4.479     4.32     14.65333     19.59404     28.80353         5     1.069     0.497 -38.10   0
        16     43.1090    995.6080 299.8752924 +22.6919569     565.6227     69.36179      5.233     4.58    0.6707669     19.59404     37.47054         5     1.045     0.632 -62.21   0
        17    917.6012    967.3776 300.1566035 +22.9463864     296.5913     69.37951      1.285     3.58    -13.38685     19.59404     53.16014         6     0.876     0.485   0.88   0
        18    346.7668    995.4377 299.9697195 +22.7831220     335.4522     69.48567      1.026     2.91    -12.84085     19.59404     40.38624         5     0.729     0.439 -23.39   0
        19     95.5876   1014.2416 299.8855267 +22.7130635     3014.302      69.4503      6.861    28.33     31.50077     19.59404     80.12064       254     6.143     3.627  -1.29  19
        20    210.8351    983.6261 299.9313037 +22.7389117     2258.729     69.46799     13.200    25.08     16.88069     19.59404     58.13318       151     6.046     2.890 -32.31   3
        21    208.2478    977.6561 299.9324429 +22.7364235     1604.007     69.48567      9.370    13.79     14.38465     19.59404     78.64072        43     2.876     1.925  58.67   3
        22    122.2054    952.1334 299.9140132 +22.7032631     578.6287      69.4503      3.103     4.27       5.9902     19.59404     29.39719         5     1.419     0.366 -82.83   0
        23    643.1144    950.7998 300.0764730 +22.8592807     3185.384     69.32636      1.333     2.37    -12.94987     19.59404     392.3259        27     1.095     1.074 -41.58   0
        24    221.6039    965.3883 299.9405874 +22.7369188     1982.487     69.30864      7.726    14.22     7.731685     19.59404     58.71483        49     3.083     1.824  18.85   3
        25    137.5174    952.5867 299.9186231 +22.7079927     811.2244     69.43261      3.401     3.96      6.57079     19.59404     34.88307         5     1.129     0.398 -15.96   0
        26    231.7717    973.2474 299.9411896 +22.7422254     4033.951     69.46799      7.299    30.48     8.600683     19.59404     91.81322       292     7.307     4.490  59.10   3
        27    228.9109    959.8100 299.9446743 +22.7375145     1541.372     69.39721      3.509    10.68     4.179277     19.59404     52.10988        32     2.401     1.323   3.30   3
        28    794.8322    944.4224 300.1258099 +22.9029718     232.9331      69.4503      1.128     3.44     -13.0628     19.59404     25.50663         5     0.785     0.437 -20.69   0
        29    551.8047    941.4321 300.0510939 +22.8291902     746.5197     69.43261      1.230     2.16    -12.82092     19.59404     111.7237        11     0.849     0.724 -50.91   0
        30    445.7291    938.4293 300.0190601 +22.7964884     520.2537      69.4503      1.515     3.31    -12.83767     19.59404     64.77901        10     1.029     0.635  81.08   0
        31    376.1470    936.1774 299.9981471 +22.7749528     3250.882     69.46799      1.341     2.37    -12.69251     19.59404       428.11        26     1.049     1.040  43.00   0
        32    164.7126    997.2559 299.9125331 +22.7289634     1411.062     69.50335      6.277     8.85     24.58586     19.59404     39.15454        14     1.557     1.404 -11.14   3
        33    538.5060    988.4032 300.0316642 +22.8386714     1175.099     69.36179      1.370     2.59    -12.91471     19.59404     133.2526        18     1.015     1.000  21.34   0
        34    179.9529    988.9573 299.9199705 +22.7311633     424.2488     69.48567      3.546     5.02     20.58217     19.59404     31.85835         5     1.165     0.612 -74.93   0
        35    187.6788    981.0844 299.9249343 +22.7312277     1477.675     69.55636      6.089     8.40     16.78096     19.59404     47.08911        13     2.096     0.941  74.05   3
        36    922.5961    914.5687 300.1753509 +22.9327238     1009.376     69.43261      1.329     3.14    -12.80986     19.59404     119.9928        16     1.061     0.960  24.83   0
        37    711.4164    903.9472 300.1129953 +22.8663308     333.8857     69.43261      1.708     4.03    -12.72367     19.59404     55.18426         6     1.239     0.627  52.22   0
        38    192.7686    984.5752 299.9253798 +22.7337571     1867.981      69.4503      8.662    18.48     18.23689     19.59404     54.82404        51     4.465     2.126 -66.91   3
        39    746.3027    897.9427 300.1258173 +22.8750735     597.3512      69.5387      1.298     2.97    -12.66178     19.59404     92.78589        11     1.120     0.605  62.14   0
        40    523.7393    898.2849 300.0564011 +22.8083896     263.2418     69.55636      1.275     3.83    -12.34072     19.59404      29.3825         5     0.905     0.465 -45.52   0
        41    768.2271    891.4176 300.1347717 +22.8797777     5535.845     69.46799      1.243     2.16    -12.59744     19.59404     741.8504        31     1.130     0.972  60.89   0
        42    959.4152    890.9619 300.1945148 +22.9369868     291.0427     69.46799      1.342     2.87    -12.71699     19.59404     35.39854         6     0.784     0.492  87.55   0
        43    630.4434    981.4091 300.0625630 +22.8642597     4560.561     69.46799      1.286     2.26    -13.03497     19.59404     514.1199        31     1.124     1.039 -47.43   3
        44    776.8336    873.4498 300.1433005 +22.8772020     628.2689     69.48567      1.199     2.14    -12.44802     19.59404      105.458        10     0.813     0.731  20.40   0
        45    815.0450    866.8759 300.1573470 +22.8867761     461.1495     69.43261      1.379     2.12    -12.40102     19.59404     68.37219         7     0.693     0.651 -16.21   0
        46    863.7490    858.3059 300.1753156 +22.8989226     233.3752     69.52103      1.299     4.22    -12.28179     19.59404     34.32793         6     0.747     0.679  73.99   0
        47    714.5589    856.9512 300.1292677 +22.8537858      382.252     69.46799      1.258     2.72    -12.28237     19.59404     70.08093         9     0.846     0.760 -59.90   0
        48    427.3963    853.8712 300.0408735 +22.7667329     2054.763     69.39721      1.213     2.10     -11.6708     19.59404     312.8075        17     0.943     0.844 -73.24   0
        49    726.0428    854.4884 300.1336464 +22.8565239     254.4805      69.4503      1.443     3.18    -12.24584     19.59404     37.26851         5     0.736     0.608  82.61   0
        50    129.7839    836.5777 299.9539694 +22.6724189     652.9728     69.43261      1.244     2.43    -10.65489     19.59404     95.98602        11     0.827     0.790 -84.28   0
        51   1001.4947    825.3191 300.2289986 +22.9307519     1041.809     69.59167      1.336     2.71    -12.48707     19.59404     122.8523        16     1.027     0.876  64.59   0
        52    955.6855    823.8611 300.2151865 +22.9165995     1034.691     69.55636      1.290     2.43     -12.2456     19.59404     151.5948        16     1.023     0.881  58.74   0
        53    607.3545    811.8860 300.1105427 +22.8086907     2343.555     69.43261      1.222     2.01     -11.7584     19.59404     352.0969        17     0.954     0.839  70.90   0
        54    409.5251    808.9332 300.0499336 +22.7484786     340.5885     69.52103      1.317     2.04    -11.52878     19.59404     49.85483         6     0.723     0.499 -88.68   0
        55    157.6180    805.6428 299.9726814 +22.6719092     602.4393     69.46799      1.395     3.03    -11.45465     19.59404     83.38087        14     1.088     0.827  69.76   0
        56    627.8724    804.5067 300.1193322 +22.8127286     411.7576     69.57402      1.468     3.30    -11.68724     19.59404     51.04334         7     0.909     0.622  49.12   0
        57    783.2719    791.5290 300.1719603 +22.8556159     1998.887     69.52103      1.139     1.89    -11.50606     19.59404     322.7778        21     0.948     0.931  -2.07   0
        58   1000.5526    791.7720 300.2396189 +22.9208340     538.1548     69.46799      1.222     2.55    -12.37331     19.59404     81.41279        12     0.889     0.814  77.24   0
        59    724.8868    984.3813 300.0910095 +22.8934535     410.2792     69.39721      1.636     4.08     -13.3941     19.59404     43.40106         7     1.009     0.472   7.47   0
        60    500.4472    784.2722 300.0862463 +22.7686897     215.0887     69.43261      1.072     3.00    -11.47592     19.59404      38.5931         5     0.715     0.460  69.76   0
        61    146.5685    782.0486 299.9769222 +22.6618267     551.6954     69.48567      1.181     3.03    -11.65151     19.59404     64.22765         8     0.841     0.656  39.24   0
        62    561.7980    777.0428 300.1076939 +22.7850235     164.9646      69.4503      1.371     4.49    -11.40284     19.59404     37.89297         5     1.029     0.557  12.78   0
        63    296.4252    774.2304 300.0260459 +22.7045765     26212.63      69.4503      1.280     2.17    -11.36167     19.59404     3477.644        63     1.197     1.170  58.59   0
        64    554.2006    773.3536 300.1065288 +22.7816853     844.9667      69.4503      1.261     2.23    -11.36674     19.59404     131.9998        13     0.962     0.777  86.50   0
        65    224.4931    772.4029 300.0042773 +22.6824580     318.8669     69.36179      1.149     3.71    -11.35916     19.59404     38.12992         6     0.946     0.418  71.13   0
        66    967.1185    772.2705 300.2355355 +22.9052099     544.3644     69.55636      1.325     2.26    -11.91306     19.59404     66.13979         7     0.698     0.648  -3.36   0
        67    583.1019    769.1791 300.1168840 +22.7891583     382.0614      69.3795      1.077     1.68    -11.31046     19.59404     83.98421         6     0.682     0.514  45.61   0
        68    594.1556    767.4375 300.1208919 +22.7919747     301.2878     69.52103      1.096     1.94    -11.28289     19.59404     51.43419         5     0.660     0.477  17.47   0
        69    699.9050    763.9947 300.1549440 +22.8227080     330.0482     69.34408      1.373     3.68    -11.36781     19.59404     40.39666         7     0.911     0.711   5.70   0
        70    737.3726    754.2452 300.1697869 +22.8311464       347.35     69.48567      1.078     2.35    -11.29184     19.59404     53.80463         5     0.707     0.449  70.86   0
        71    346.1234    751.4948 300.0488951 +22.7129728     15508.16     69.57402      1.260     2.08    -11.28261     19.59404      2160.06        51     1.199     1.084  81.52   0
        72    360.3895    751.9805 300.0531741 +22.7173939     1042.164     69.43261      1.402     2.05    -11.29033     19.59404     146.7083        12     0.914     0.733 -63.43   0
        73    869.1329    747.2362 300.2131275 +22.8686440      1412.93      69.4503      1.243     2.39    -11.11951     19.59404     209.7009        16     0.918     0.858 -48.89   0
        74    357.2085    745.9444 300.0541478 +22.7147077     427.9494      69.4503      1.551     2.28     -11.2677     19.59404     48.54292         5     0.745     0.480  30.64   0
        75    626.8878    743.3822 300.1389075 +22.7948896     399.1516     69.39721      1.084     2.26    -11.07125     19.59404     91.66224         9     0.809     0.708  13.44   0
        76    228.7737    743.0980 300.0151385 +22.6753392     299.0579     69.39721      1.231     3.32    -11.25511     19.59404     51.13363         7     0.843     0.611  62.80   0
        77    473.8774    738.1259 300.0929866 +22.7474761     486.8512     69.55636      1.314     3.49    -11.05701     19.59404     74.92526        10     1.035     0.784 -53.65   0
        78     61.2947    732.8120 299.9664420 +22.6221040     179.0516      69.3795      1.495     3.69    -11.49038     19.59404     27.51491         5     1.197     0.326  10.76   0
        79    853.0633    730.1639 300.2136709 +22.8589231     111.4013      69.4503      1.229     4.20    -11.07095     19.59404     33.22218         6     1.097     0.460  25.71   0
        80    226.5778    728.0546 300.0193479 +22.6703657     192.5946     69.46799      1.362     3.84    -11.15056     19.59404     40.02715         6     1.028     0.411  73.11   0
        81    549.0421    718.1187 300.1228869 +22.7642861     184.7808     69.41491      1.322     3.62    -10.97225     19.59404     41.16706         5     1.069     0.597 -86.56   0
        82    519.0168    716.1183 300.1141915 +22.7547042     164.2419     69.43261      1.158     3.67    -10.97057     19.59404     40.22453         5     0.644     0.601 -87.85   0
        83    428.3730    715.0894 300.0863191 +22.7272120     173.4184     69.43261      1.095     3.86    -11.14202     19.59404     29.07859         5     0.884     0.483  88.17   0
        84    935.5543    712.4567 300.2451468 +22.8785672     2143.845     69.48567      1.246     2.16    -11.22152     19.59404     292.9715        20     0.989     0.940 -62.60   0
        85    541.1170    713.6404 300.1218762 +22.7606233      728.215     69.41491      1.332     2.22    -10.96576     19.59404     114.2624        12     0.908     0.749 -62.31   0
        86    924.0403    703.6815 300.2444103 +22.8725951     932.0954     69.41491      1.327     2.31     -11.1367     19.59404     143.8449        14     0.961     0.864 -82.49   0
        87    286.8431    698.0004 300.0478562 +22.6798353      482.302      69.4503      1.355     3.15    -11.05219     19.59404     71.13286         9     0.998     0.694  72.37   0
        88    750.3344    695.2737 300.1930033 +22.8181015     1344.714     69.48567      1.319     2.13    -11.02903     19.59404      195.896        21     1.207     0.937  -5.91   0
        89    955.1587    693.9311 300.2572844 +22.8791219     905.0909     69.43261      1.352     1.95    -11.23476     19.59404     147.3076        13     0.921     0.752 -77.69   0
        90    135.6214    681.8198 300.0061131 +22.6298005     406.0632      69.4503      1.223     2.02    -10.96643     19.59404     43.49978         5     0.683     0.455  70.82   0
        91    868.7586    672.1964 300.2374134 +22.8469797     71717.89     69.46799      1.229     1.97    -10.95666     19.59404     11408.46       116     1.288     1.224  85.04   0
        92   1015.8513    673.8022 300.2827588 +22.8915290     535.6777     69.43261      1.273     3.64    -11.26519     19.59404     70.91626         8     0.934     0.657 -27.16   0
        93    721.5579    672.6116 300.1914068 +22.8029653     453.8615      69.4503      1.077     3.30    -10.92219     19.59404      63.4859         5     0.784     0.475  44.33   0
        94    901.7900    664.3377 300.2502662 +22.8546239     173.2123     69.37951      1.301     3.63    -10.96288     19.59404     33.09283         5     0.949     0.399  84.48   0
        95    555.1141    660.9810 300.1433554 +22.7497077     811.8599     69.39721      1.295     2.57    -10.74719     19.59404     132.1248        11     0.861     0.820  68.09   0
        96    736.2577    658.3373 300.2006273 +22.8032742     4611.311     69.50335      1.190     1.92    -10.89564     19.59404     727.2934        32     1.102     0.980  75.79   0
        97    237.8522    653.6636 300.0470394 +22.6524130     2352.567     69.50335      1.293     2.28     -10.6474     19.59404     325.7112        22     1.052     0.928  55.26   0
        98    319.9004    651.4487 300.0732701 +22.6764018     603.9258     69.48567      1.307     2.39    -10.80858     19.59404     81.96326         9     0.817     0.668  53.87   0
        99    195.5728    649.2945 300.0353177 +22.6384694     170.0284     69.37951      0.911     4.12     -10.6143     19.59404     32.63084         7     0.992     0.487  84.42   0
       100    527.9762    647.2485 300.1393723 +22.7376255     301.3912      69.4503      1.173     2.12    -10.60288     19.59404     58.54424         7     0.721     0.614   3.32   0
       101    519.7875    639.1519 300.1394556 +22.7328452     1628.972     69.46799      1.233     2.06    -10.51989     19.59404     242.9139        19     1.000     0.869  65.02   0
       102    510.0657    632.8391 300.1384819 +22.7281169     640.9317     69.41491      1.244     2.27    -10.45613     19.59404     105.1211         9     0.797     0.689  71.20   0
       103    173.1110    629.3335 300.0348252 +22.6260017     235.4652     69.55636      1.080     2.85    -10.61931     19.59404     49.90752         5     0.747     0.430  18.37   0
       104    187.6960    627.9877 300.0397955 +22.6299936     357.4345     69.36179      1.522     2.45    -10.60827     19.59404     46.56139         7     0.712     0.648 -72.97   0
       105    213.5020    624.6992 300.0488853 +22.6367959     259.5289     69.66225      1.117     3.18    -10.58692     19.59404     35.78123         5     0.727     0.467  71.39   0
       106    434.6912    622.8937 300.1182590 +22.7026510       854.03     69.60933      1.302     2.54    -10.43923     19.59404     131.2852        13     0.971     0.783 -73.40   0
       107    533.8563    623.0927 300.1490551 +22.7324555     189.4121     69.50335      1.280     3.93    -10.36083     19.59404     31.23429         5     0.820     0.538  35.78   0
       108     88.7883    617.8567 300.0123546 +22.5973975     9746.623     69.43261      1.338     2.27    -10.88224     19.59404     1359.194        44     1.171     1.132  75.91   0
       109   1010.4984    619.6458 300.2986963 +22.8743636     255.7816     69.46799      0.868     2.79    -11.02802     19.59404       70.269         7     0.827     0.633  18.04   0
       110      9.4595    619.0555 299.9873245 +22.5739242     424.1035     69.52103      1.481     3.60    -11.61774     19.59404     41.94144         6     0.816     0.619  58.03   0
       111    519.6223    617.8490 300.1463290 +22.7266808     488.4709      69.4503      1.210     2.47    -10.30542     19.59404      86.0771        10     0.835     0.761 -67.40   0
       112    937.6307    603.9315 300.2810790 +22.8480119     513.4832     69.43261      1.097     2.56    -10.71844     19.59404     80.33878         8     0.849     0.584  77.59   0
       113     34.7634    602.3628 300.0006085 +22.5767350     892.1534     69.52103      1.995     6.01    -11.31102     19.59404     58.00505        17     1.420     1.010 -89.27   0
       114    877.3911    597.5899 300.2643586 +22.8281357     489.7579     69.34408      1.835     6.51    -10.66186     19.59404     63.97894        10     1.745     0.729 -49.18   0
       115    439.6031    591.0071 300.1301515 +22.6949729     416.6209     69.27318      1.614     4.67    -10.21265     19.59404     40.00495         7     0.921     0.671  21.34   0
       116    588.0034    589.5568 300.1768121 +22.7390677     231.9521     69.46799      1.201     4.95    -10.07609     19.59404     33.55148         7     0.846     0.819  70.25   0
       117    605.3264    587.2635 300.1829512 +22.7436042     338.4899     69.48567      1.280     3.66    -10.04926     19.59404      41.6952         6     0.766     0.570  52.21   0
       118    483.9836    586.9067 300.1452943 +22.7071088     493.0595      69.3795      1.371     2.78    -10.04597     19.59404     61.34687         9     0.801     0.710  43.61   0
       119    917.7225    582.2311 300.2819249 +22.8358106     1581.775     69.43261      1.202     2.19    -10.61874     19.59404     248.8985        17     0.989     0.823 -84.22   0
       120    449.5802    582.2891 300.1360893 +22.6954636     685.7164     69.39721      1.113     2.66    -10.13753     19.59404      113.522        12     0.921     0.757 -13.28   0
       121   1015.8912    580.1498 300.3132168 +22.8646295     266.7773     69.46799      1.350     3.87    -10.76604     19.59404     36.30357         8     0.832     0.669  45.45   0
       122     11.6549    576.0539 300.0019814 +22.5622529     2411.645     69.48567      1.382     2.33    -11.18182     19.59404      308.046        24     1.089     0.992  50.65   0
       123    313.0061    569.1385 300.0978792 +22.6507159     4545.037     69.41491      1.276     2.12    -10.42612     19.59404     719.6216        24     1.043     0.917  75.65   0
       124    435.4144    566.0978 300.1369435 +22.6865668      4432.91     69.34408      1.268     2.18    -10.14452     19.59404     607.9636        28     1.061     0.989  82.24   0
       125    847.1525    559.8367 300.2672030 +22.8082265     932.7433     69.48567      1.245     2.09    -10.54686     19.59404     154.4267        13     1.090     0.726 -32.81   0
       126    931.6370    557.2793 300.2943731 +22.8328109     6005.992     69.41491      1.192     2.04    -10.54175     19.59404     904.8614        32     1.047     0.990 -88.95   0
       127    496.0461    555.6519 300.1592057 +22.7017548     5680.364     69.48567      1.240     1.99    -9.830832     19.59404     948.6669        31     1.100     0.967  69.36   0
       128    339.0399    557.0067 300.1099180 +22.6550456     658.4555     69.48567      0.428     1.63     -10.3742     19.59404     612.5391         5     0.303     0.289  -1.94   0
       129    223.3717    551.1755 300.0758478 +22.6186654     810.2173      69.4503      1.462     2.40    -10.65662     19.59404      94.8106        12     0.867     0.811  31.34   0
       130    665.3474    550.8791 300.2134672 +22.7511537     283.8466     69.46799      1.269     2.38     -10.0449     19.59404     40.82362         5     0.721     0.438 -70.95   0
       131    427.6678    543.8862 300.1417512 +22.6778676     2059.005      69.5387      1.281     2.15    -10.11504     19.59404     319.6159        19     0.994     0.923  65.48   0
       132    770.3766    543.9048 300.2484532 +22.7806372     505.2642     69.34408      1.247     2.15    -10.38735     19.59404     72.48927         7     0.706     0.632 -86.26   0
       133    405.9630    542.2781 300.1355209 +22.6708953     541.2809     69.41491      1.159     2.28    -10.19744     19.59404     87.57045         9     0.845     0.639 -48.58   0
       134    160.3222    541.4792 300.0594019 +22.5969622     425.5569     69.55636      1.488     3.79     -10.7156     19.59404       63.792         9     1.117     0.589 -86.36   0
       135    847.5350    539.1594 300.2740419 +22.8024005     745.0626     69.41491      1.233     2.39    -10.46424     19.59404     108.7625        12     0.928     0.723 -39.49   0
       136    544.2893    531.3930 300.1821048 +22.7092585     98234.28     69.36179      1.246     2.16    -9.708526     19.59404     13660.24       138     1.358     1.295  59.49   0
       137    727.9252    536.1163 300.2377575 +22.7656745     453.9861      69.5387      1.245     2.74    -10.18427     19.59404     81.03355         7     0.947     0.495  35.35   0
       138    230.3557    531.4749 300.0844201 +22.6151087     1773.342     69.43261      1.249     2.13    -10.59478     19.59404     211.8162        19     1.059     0.840  56.76   0
       139    796.2144    527.3985 300.2618685 +22.7836400     271.0712     69.29091      1.271     3.43    -10.37045     19.59404     32.60618         5     0.726     0.470  14.46   0
       140    721.5049    518.5702 300.2414587 +22.7587099     11985.46     69.37951      0.971     1.72    -10.05647     19.59404     5270.801        20     1.164     0.518  68.91   0
       141    434.8436    511.9368 300.1543649 +22.6708487     1384.907      69.4503      1.373     2.23    -9.870989     19.59404     195.9192        18     1.196     0.829 -74.23   0
       142    278.7135    513.6285 300.1052528 +22.6244976     161.8101      69.4503      0.959     4.11    -10.20384     19.59404     36.75202         7     0.948     0.531  61.28   0
       143    831.7819    497.7787 300.2825776 +22.7857900     759.6605      69.4503      1.176     1.96    -10.20416     19.59404     153.9088        14     0.900     0.833  85.26   0
       144    702.9383    495.3305 300.2432256 +22.7464688     1292.146     69.48567      1.240     2.26    -9.852151     19.59404     180.3211        14     0.968     0.765  77.33   0
       145    490.1581    491.4412 300.1782367 +22.6815542     403.8475      69.5387      1.440     2.45    -9.580354     19.59404     50.48735         7     0.824     0.559  73.50   0
       146    960.5266    489.1186 300.3255305 +22.8218791     501.2632     69.55636      1.151     2.50    -10.42937     19.59404      85.0639         9     0.823     0.697  26.08   0
       147    946.1077    488.2460 300.3213175 +22.8173083     425.7254     69.46799      1.432     4.06     -10.4287     19.59404     54.09885         8     1.049     0.674 -47.19   0
       148    832.1183    488.2245 300.2857867 +22.7831456     899.1646     69.41491      1.120     1.84    -10.14072     19.59404      171.906        10     0.785     0.661 -81.71   0
       149    870.2431    482.9167 300.2993951 +22.7930453     1966.517     69.41491      1.179     2.03    -10.13352     19.59404     355.0659        21     0.986     0.873 -15.24   0
       150    962.0623    473.0375 300.3312340 +22.8177172     333.2025     69.46799      1.192     2.51    -10.39117     19.59404     78.63509         8     0.873     0.629 -84.84   0
       151    102.4562    473.3728 300.0635474 +22.5600575     292.7225      69.4503      1.227     3.20    -10.63537     19.59404     51.38945         8     0.820     0.748 -23.80   0
       152    702.6451    457.1653 300.2555329 +22.7354176     213.7364     69.50335      0.979     2.37    -9.663601     19.59404      42.2913         5     0.719     0.441 -70.89   0
       153    643.7014    453.4517 300.2383799 +22.7166820     355.5114      69.5387      1.344     2.20    -9.513316     19.59404     55.00745         5     0.659     0.486 -13.70   0
       154    958.3614    445.6243 300.3389852 +22.8087291     273.3449     69.46799      1.035     2.43    -10.28696     19.59404      49.5882         5     0.716     0.432 -68.31   0
       155    704.5806    445.5014 300.2599247 +22.7326470     429.7828     69.37951      1.262     2.66    -9.619807     19.59404     59.80544         7     0.809     0.617  75.99   0
       156    861.6840    441.5833 300.3101544 +22.7786025     455.4723     69.41491      1.167     2.48    -9.943644     19.59404     76.72706         8     0.761     0.732 -82.94   0
       157    845.6014    438.0072 300.3063027 +22.7727559       333.11     69.27318      1.237     1.90     -9.90079     19.59404     59.40214         6     0.728     0.490  89.83   0
       158    590.2979    436.2433 300.2273399 +22.6957297     1556.995      69.4503      1.275     2.32    -9.366256     19.59404     212.2052        20     1.086     0.919  75.10   0
       159    950.7778    434.6306 300.3401914 +22.8032972     298.8404      69.4503      1.184     1.76    -10.23116     19.59404     55.30995         5     0.679     0.436  23.52   0
       160   1001.4057    415.1246 300.3623172 +22.8128556     584.4816      69.3795      1.105     1.99    -10.29305     19.59404      103.683        10     0.797     0.680   6.37   0
       161    873.5424    414.8192 300.3225444 +22.7744638     180.6338      69.4503      1.202     1.96    -9.874956     19.59404      45.2765         5     0.668     0.469  69.24   0
       162    959.9136    413.5307 300.3498939 +22.7999688     488.0051     69.55636      1.488     2.70    -10.18051     19.59404     60.65261         8     0.831     0.660  44.59   0
       163    700.8915    410.0277 300.2702974 +22.7213500     505.0194     69.41491      1.220     2.52    -9.461003     19.59404     78.52745         9     0.869     0.658  73.86   0
       164    204.5811    408.8566 300.1162383 +22.5721891      250.032     69.43261      1.126     3.46     -9.74036     19.59404     48.34912         8     0.883     0.660  28.10   0
       165    267.2956    404.2487 300.1372314 +22.5896803     1827.794     69.50335      1.277     2.33    -9.409295     19.59404     236.3305        20     1.088     0.856  65.82   0
       166   1000.1685    402.5623 300.3660114 +22.8088735     2079.112      69.4503      1.255     2.09    -10.27613     19.59404     292.2076        20     0.998     0.891  83.06   0
       167    214.5299    399.0460 300.1225168 +22.5723582     3704.917     69.43261      1.294     2.28    -9.639898     19.59404     463.3737        30     1.137     1.026  86.12   0
       168    980.1332    393.4911 300.3627084 +22.8002646     876.6115     69.57402      1.235     2.14    -10.21698     19.59404     133.2391        13     0.898     0.783 -77.30   0
       169    355.2270    393.2734 300.1681407 +22.6129038     2353.665      69.4503      1.305     2.37    -9.281381     19.59404     308.2514        20     1.008     0.955 -89.10   0
       170    599.4015    389.8524 300.2452411 +22.6851338      8908.57     69.41491      1.287     2.16    -9.094366     19.59404     1249.735        36     1.140     1.032  55.37   0
       171    616.6927    389.9242 300.2506021 +22.6903376     460.0326     69.60933      1.894     4.98    -9.144211     19.59404     38.14448         7     1.380     0.509 -31.50   0
       172    932.8970    372.1266 300.3549155 +22.7799737     361.9888     69.57402      1.280     2.57    -10.10438     19.59404     52.64283         5     0.618     0.577  73.99   0
       173    154.1793    369.8420 300.1132420 +22.5458713     1110.555     69.48567      1.338     2.61    -9.754037     19.59404     144.5762        15     1.072     0.818  68.69   0
       174    540.0577    359.3305 300.2366764 +22.6585771     3207.281     69.46799      1.309     2.26    -8.851339     19.59404     439.1268        26     1.121     0.962  87.34   0
       175    953.8997    359.3966 300.3655988 +22.7826050       607.36     69.34408      1.280     2.74    -10.14131     19.59404     92.41209        10     0.861     0.775  72.38   0
       176    254.7359    358.4883 300.1481854 +22.5727777     443.5776     69.55636      1.468     2.69    -9.319777     19.59404     51.53625         5     0.757     0.575  56.02   0
       177    744.1708    348.3698 300.3038034 +22.7166036     609.9197     69.43261      1.457     3.37    -9.383079     19.59404     80.99664        12     1.052     0.857  43.16   0
       178    654.1594    349.0402 300.2755459 +22.6898220     283.3452     69.52103      1.711     4.73    -9.171688     19.59404     40.82561         7     1.116     0.568 -33.48   0
       179    446.6871    345.6266 300.2120658 +22.6266485     3075.136     69.43261      1.274     2.29     -9.27846     19.59404     394.9203        24     1.043     0.956  46.00   0
       180    838.5498    339.7285 300.3360213 +22.7423975     732.7285      69.4503      1.253     3.46    -9.398599     19.59404     96.80051        12     1.058     0.852  67.94   0
       181    811.5308    327.5443 300.3315559 +22.7308008     286.7039     69.46799      0.994     2.98    -9.409295     19.59404     47.81721         7     0.812     0.682  12.50   0
       182    334.2303    324.9575 300.1837915 +22.5869928     1228.862     69.48567      1.291     2.38    -9.089261     19.59404     166.1541        16     1.021     0.809  54.27   0
       183     52.8337    322.3475 300.0971729 +22.5018353     437.6784     69.46799      1.368     3.47    -9.548923     19.59404       65.998         9     1.057     0.660  84.54   0
       184    303.6092    314.3184 300.1777222 +22.5747553     14724.25     69.39721      1.317     2.30    -9.025156     19.59404     1760.498        54     1.256     1.104  74.34   0
       185    838.3409    311.5364 300.3451093 +22.7342314     697.4558     69.48567      1.295     2.75    -9.383166     19.59404     97.81681        12     0.982     0.765  85.25   0
       186      1.2491    302.4615 300.0876058 +22.4806512     667.0171     53.68624      1.073     2.42    -9.530682     19.59404     174.8011        11     1.298     0.503 -88.26  24
       187    753.3360    300.5048 300.3221991 +22.7055939     233.0827      69.5387      1.288     2.94    -9.367739     19.59404     43.20526         6     0.844     0.472 -89.38   0
       188    177.5364    300.7587 300.1429287 +22.5330503     348.4594     69.43261      1.262     2.16    -9.461565     19.59404     52.98347         5     0.704     0.478 -74.03   0
       189    402.2662    298.9042 300.2134127 +22.5999121     351.4016     69.57402      1.712     4.88    -9.246228     19.59404      33.0614         7     0.962     0.701 -83.54   0
       190    713.9730    293.7801 300.3121180 +22.6918673     970.1321      69.4503      1.282     2.23    -9.344174     19.59404     155.4552        12     0.947     0.792 -66.94   0
       191    928.8026    286.8307 300.3813325 +22.7542249     266.4507     69.41491      1.060     2.83    -9.385963     19.59404     41.17674         6     0.724     0.576  40.96   0
       192    375.8365    278.6628 300.2117608 +22.5861748     1002.971      69.4503      1.492     3.05    -9.067116     19.59404     135.8348        17     1.241     0.788  73.45   0
       193    815.2829    271.2517 300.3509996 +22.7157439     374.0022     69.48567      1.462     3.20    -9.356596     19.59404     50.71866         9     0.886     0.732  12.19   0
       194    451.5081    258.0622 300.2419908 +22.6029442     578.6838     69.55636      1.268     3.21    -9.324664     19.59404     72.68481         9     0.914     0.721  76.68   0
       195    696.5244    249.7939 300.3209598 +22.6739979     1080.257      69.3795      1.273     2.36    -9.354767     19.59404     138.3996        16     0.970     0.922  45.11   0
       196    957.6089    243.9648 300.4042296 +22.7505256     1549.364      69.4503      1.225     2.11    -9.570838     19.59404     238.0419        17     0.971     0.869  60.91   0
       197    404.6555    234.0086 300.2352189 +22.5819900      360.472      69.4503      1.476     4.59    -9.243705     19.59404      43.6726         8     1.082     0.553 -66.80   0
       198    110.2957    228.0536 300.1456290 +22.4920116     409.2297     69.52103      1.607     2.82    -9.598008     19.59404      37.2112         7     0.736     0.644 -89.95   0
       199     79.4267    228.0108 300.1360519 +22.4827399     597.0153      69.4503      1.265     2.70    -9.557208     19.59404     88.61919        10     0.965     0.632 -29.60   0
       200    973.0205    224.7211 300.4152816 +22.7496064     335.2197      69.4503      1.544     3.26    -9.554793     19.59404     36.56382         5     0.806     0.502  61.23   0
       201    163.3093    219.2831 300.1649493 +22.5053944     272.4687     69.57402      1.435     3.81    -9.696547     19.59404     35.98293         5     0.953     0.437  44.57   0
       202    768.2407    211.2666 300.3558074 +22.6844086     248.0184     69.41491      1.126     3.43    -9.282694     19.59404     42.38612         5     0.832     0.473  45.78   0
       203    866.1944    200.1604 300.3899417 +22.7105539     1052.556     69.46799      1.321     2.58    -9.324681     19.59404     140.6702        11     0.862     0.772 -83.71   0
       204    284.7923    197.8141 300.2096816 +22.5356592     1079.931     69.36179      1.334     2.70    -8.980838     19.59404     128.6804        14     1.045     0.792  53.81   0
       205    362.8083    192.5776 300.2356446 +22.5575448     411.9854      69.4503      1.269     3.21    -8.953969     19.59404     60.61872         8     0.929     0.597  64.88   0
       206    764.5762    191.8114 300.3609786 +22.6777180     211.3436      69.4503      1.222     2.21    -9.254356     19.59404     46.21671         5     0.704     0.438  65.52   0
       207    179.1670    184.7834 300.1810719 +22.5002452     430.2103     69.43261      1.477     3.34    -9.332425     19.59404     55.32093         8     1.028     0.547  57.07   0
       208    717.2277    181.5892 300.3495427 +22.6605962     681.0571      69.4503      1.233     2.74    -9.291177     19.59404     101.9145        10     0.986     0.673  89.00   0
       209    782.3550    181.1655 300.3699732 +22.6799826      239.889     69.50335      1.065     3.25     -9.23389     19.59404     35.79463         5     0.729     0.457  75.67   0
       210    988.7486    174.1309 300.4366039 +22.7397651     448.9188     69.43261      1.542     3.24    -9.330091     19.59404     65.36705         6     0.993     0.420  59.17   0
       211    641.8101    172.3458 300.3290496 +22.6353458     531.6766      69.4503      1.227     2.42    -9.374326     19.59404     87.14452        10     0.866     0.716  36.03   0
       212    837.3506    163.8578 300.3927294 +22.6914773     629.9964     69.50335      1.225     2.66    -9.253177     19.59404     107.0279        10     0.910     0.679  52.72   0
       213    568.0469    164.2632 300.3087025 +22.6109220      463.922     69.46799      1.133     2.73    -9.357813     19.59404     75.44312         7     0.786     0.684  -8.96   0
       214    849.3544    162.3368 300.3969647 +22.6946347     442.7806     69.48567      1.697     4.28    -9.265614     19.59404     46.48917         7     1.167     0.448 -81.07   0
       215   1010.1649    153.7019 300.4499125 +22.7403002     799.7099      69.4503      1.228     2.49      -9.1546     19.59404     127.1855        13     1.030     0.711  72.94   0
       216    966.0840    152.9957 300.4363922 +22.7269004     414.1537      69.3795      1.214     2.87    -9.239479     19.59404      65.4733        10     0.883     0.723 -87.55   0
       217    200.0370    146.4451 300.1999965 +22.4954950     248.4815     69.48567      1.175     3.20    -9.124185     19.59404     48.83253         7     0.897     0.600  53.86   0
       218     61.9451    141.3203 300.1587464 +22.4526119     1139.139     69.48567      1.378     2.57    -9.221978     19.59404     137.5388        17     1.103     0.858  53.86   0
       219    885.0212    138.0751 300.4159550 +22.6983380     316.4873      69.4503      1.226     2.86    -9.235978     19.59404      65.1448         8     0.923     0.638  27.89   0
       220    219.4106    134.6248 300.2098533 +22.4979096      2807.09      69.4503      1.370     2.45    -9.081515     19.59404     313.8791        24     1.147     0.949  86.07   0
       221      3.1469    128.9123 300.1445072 +22.4314144      673.546     62.93562      1.435     2.95    -9.201811     19.59404     77.33322        12     0.974     0.794  11.97  24
       222    202.3216    125.0320 300.2076526 +22.4900310     292.0323     69.43261      1.448     4.19    -9.122211     19.59404     40.48172         6     1.152     0.435  60.35   0
       223   1018.1854    121.8371 300.4627520 +22.7335345     8878.257      69.4503      1.280     2.11    -8.780581     19.59404     1416.207        39     1.162     1.029 -88.88  16
       224    863.4746    115.9683 300.4164091 +22.6855286     1657.505      69.4503      1.241     2.25    -9.160401     19.59404     234.7365        17     0.980     0.862 -78.69   0
       225    967.1873    114.5789 300.4491991 +22.7161802     1429.766     69.43261      1.372     2.29    -8.976136     19.59404     194.4823        15     0.920     0.844  84.91   0
       226    336.8672    102.6786 300.2567389 +22.5239454     348.0594     69.55636      1.617     3.95    -9.059254     19.59404     35.03109         5     0.999     0.515  34.31   0
       227    340.9816    101.5559 300.2583828 +22.5248561     380.6572     69.46799      1.907     3.88    -9.054007     19.59404     33.13588         5     1.279     0.337  49.32   0
       228    102.9084    100.2606 300.1847909 +22.4531086     269.2301     69.52103      1.365     5.07    -9.137874     19.59404     36.56031         8     0.971     0.749  67.96   0
       229    464.3565     98.7008 300.2976937 +22.5610109     858.0107      69.4503      1.453     3.30    -8.895725     19.59404     102.9421        14     1.109     0.913  47.22   0
       230    392.2852     98.8959 300.2752048 +22.5394685     352.3169     69.62698      1.878     4.39    -8.999951     19.59404     32.42089         7     0.883     0.621  58.35   0
       231    898.6375     82.3812 300.4382661 +22.6863965     264.7794      69.4503      1.277     3.45     -9.07816     19.59404     28.68332         5     1.036     0.332  69.23   0
       232    238.2397     78.4749 300.2339186 +22.4874284     2824.792     69.41491      1.359     2.51    -9.120442     19.59404     318.9421        25     1.129     0.980  88.33   0
       233     89.3177     77.9141 300.1878153 +22.4426169     395.0768     69.57402      1.500     4.35    -9.093977     19.59404      45.0549         7     1.057     0.511  22.66   0
       234    484.3670     63.7085 300.3152700 +22.5569511      3125.54     69.41491      1.376     2.47    -8.618138     19.59404     356.7991        30     1.175     1.035  61.27   0
       235    369.7536     63.6733 300.2796184 +22.5225960     266.5276      69.4503      1.275     3.83    -8.963795     19.59404     47.79759         7     0.978     0.617  87.53   0
       236    736.8645     53.3853 300.3972474 +22.6296183     429.1512     69.41491      1.403     4.54    -8.626195     19.59404     43.79702         8     1.075     0.545  56.25   0
       237    612.7671     43.8340 300.3616890 +22.5897047     3153.163     69.52103      1.337     2.36    -9.150543     19.59404     413.0438        27     1.157     1.021 -61.18   0
       238    535.4214     46.2268 300.3368308 +22.5672229      272.094     69.43261      1.303     3.40    -9.062764     19.59404     31.32058         5     0.794     0.422  67.55   0
       239    387.8437     42.9272 300.2919736 +22.5220563      644.445     69.43261      1.252     2.83    -8.740809     19.59404     96.48015        13     1.070     0.706 -76.09   0
       240    653.8489     41.0990 300.3753704 +22.6012234     566.8514     69.48567      1.356     3.17    -8.866035     19.59404     65.08194        11     0.977     0.766  87.61   0
       241    136.8230     35.2260 300.2164190 +22.4446027     333.4944     69.41491      1.164     3.76    -9.099056     19.59404     53.98943         6     0.946     0.430 -35.97   0
       242    656.9489     28.6302 300.3803790 +22.5985669      1243.04     69.46799      1.288     2.33    -8.773342     19.59404     171.5671        15     0.951     0.835  79.95   0
       243    297.7767     29.4198 300.2683383 +22.4911830     208.2978      69.4503      1.188     3.74    -9.146665     19.59404     26.27671         5     0.997     0.403  83.48   0
       244    671.9651     27.0835 300.3855579 +22.6026194      421.106     69.41491      1.821     3.15    -8.632029     19.59404     41.25535         5     0.637     0.585   2.63   0
       245    743.4168     20.2413 300.4100365 +22.6220493     808.7935     69.46799      1.384     2.91    -8.429946     19.59404     92.18792        14     0.984     0.883  54.74   0
       246    286.7568   1009.6478 299.9464332 +22.7691736      418.779     69.48567      1.399     4.76     -11.5101     19.59404      68.8901        12     1.248     0.831  89.70   0
       247    681.4391     13.1688 300.3930207 +22.6014557     365.0817      69.4503      1.343     2.54    -8.496598     19.59404     61.77013         7     0.879     0.509  31.85   0
       248    190.4480   1004.8325 299.9180640 +22.7388656      615.825     69.48567      2.980     4.03     26.96447     19.59404     33.27166         5     1.116     0.416 -73.82   2
       249    122.3231   1004.5530 299.8969866 +22.7183199     694.7661      69.4503      3.202     5.09     28.13664     19.59404     43.86055         8     1.136     0.644 -44.04   0
       250    159.6702    991.2852 299.9129099 +22.7257377     669.4409     69.55636      3.811     3.94     22.30596     19.59404     41.08613         5     1.512     0.294  76.63   2
