#   1 NUMBER                 Running object number                                     
#   2 X_IMAGE                Object position along x                                    [pixel]
#   3 Y_IMAGE                Object position along y                                    [pixel]
#   4 ALPHA_J2000            Right ascension of barycenter (J2000)                      [deg]
#   5 DELTA_J2000            Declination of barycenter (J2000)                          [deg]
#   6 FLUX_APER              Flux vector within fixed circular aperture(s)              [count]
#   7 FLUXERR_APER           RMS error vector for aperture flux(es)                     [count]
#   8 FLUX_RADIUS            Fraction-of-light radii                                    [pixel]
#   9 FWHM_IMAGE             FWHM assuming a gaussian core                              [pixel]
#  10 BACKGROUND             Background at centroid position                            [count]
#  11 THRESHOLD              Detection threshold above background                       [count]
#  12 FLUX_MAX               Peak flux above background                                 [count]
#  13 ISOAREA_IMAGE          Isophotal area above Analysis threshold                    [pixel**2]
#  14 A_IMAGE                Profile RMS along major axis                               [pixel]
#  15 B_IMAGE                Profile RMS along minor axis                               [pixel]
#  16 THETA_IMAGE            Position angle (CCW/x)                                     [deg]
#  17 FLAGS                  Extraction flags                                          
         1    768.5138     14.3290 300.4261971 +22.6181600      381.697     69.40545      1.327     3.63    -7.640892     19.55153     51.74081         7     0.959     0.486  81.90   0
         2    788.4098     10.9672 300.4334856 +22.6231511     1096.984     69.29962      1.203     2.41    -7.495465     19.55153     139.9779        13     0.881     0.814  62.24   0
         3    171.7529      6.4270 300.2430992 +22.4370820     416.6376     69.31727      1.202     2.97    -7.931283     19.55153     60.96934         8     0.939     0.621  38.86  16
         4    963.1609      4.2882 300.4901147 +22.6735477     510.4928     66.83764      1.217     3.13    -8.609153     19.55153     63.38149         9     0.953     0.615 -48.42  16
         5    736.9595      3.6395 300.4198347 +22.6056372     437.5925     64.79319      1.210     2.83    -7.746686     19.55153     55.33252         7     0.739     0.637   4.99  16
         6    106.7441   1009.4937 299.8969646 +22.7052749     666.5622     69.35255      9.387     9.37     15.22478     19.55153     35.43018        12     2.019     1.213  60.69  16
         7    244.3783   1023.6486 299.9351111 +22.7506810     801.3928     54.00188      3.882     7.33     7.364684     19.55153     35.76092        10     2.221     0.677  -0.74  27
         8    247.3012   1020.3479 299.9370942 +22.7506133     1029.624     67.99886      3.814     4.46     5.339548     19.55153     37.15486         5     1.168     0.485 -26.93  19
         9    227.7677   1023.6299 299.9299557 +22.7456857     517.7164     54.13762      1.774     3.00     14.36524     19.55153     67.07571         7     0.941     0.475  -6.32  24
        10    237.1346    997.6756 299.9413178 +22.7410623     3886.811     69.38783      8.954    30.08     4.666495     19.55153     91.06386       391     8.135     4.152  59.96  18
        11     75.4724    941.2898 299.9094589 +22.6763395     1782.711     69.45831     22.616    41.74    -6.558407     19.55153     58.81683       347     7.459     6.483 -45.13   3
        12     77.2689    976.6133 299.8985172 +22.6869990     2636.551     69.31727     26.915    80.36     1.418594     19.55153     61.74377      1279    15.890    11.276 -84.28  19
        13     79.7792   1021.9751 299.8845268 +22.7007478     1787.992     62.25128     11.030    22.94     12.32032     19.55153      55.5862       143     7.909     1.847   1.49  27
        14     76.5248   1013.8123 299.8861743 +22.6974316     2293.807     69.31727     15.681    23.82     9.411455     19.55153      58.4514       133     4.953     3.181 -18.63  19
        15     55.9607   1021.2214 299.8773765 +22.6933744     842.6274     65.22597      8.209    10.59     2.734962     19.55153     35.83762        16     1.793     1.743  43.88  27
        16    650.3958    977.2928 300.0764867 +22.8593043     3383.786     69.19363      1.097     1.91     -12.2302     19.55153     594.0479        22     0.946     0.862  48.57   0
        17    143.8471    978.5953 299.9185486 +22.7075704     745.9948     69.28197      3.661     6.40     6.752758     19.55153     34.35361        10     1.166     0.988  20.67   0
        18    217.0595   1009.5984 299.9311977 +22.7384483      2606.93     69.26431     13.348    35.52      12.2785     19.55153     56.74387       294     7.422     4.717 -34.54  27
        19    529.7425    971.5817 300.0407965 +22.8214507     217.5034     69.28197      1.012     2.26    -12.85995     19.55153      41.6536         5     0.681     0.468  18.35   0
        20    632.0280   1010.1538 300.0600682 +22.8632165     4119.325     69.33492      1.066     1.64    -12.17452     19.55153     973.0736        24     0.955     0.810 -63.18   2
        21    637.6634   1007.8679 300.0625668 +22.8642524      4399.33     69.35255      1.071     1.71    -12.17789     19.55153     909.4886        22     0.939     0.814 -57.22   3
        22    558.9893    968.0563 300.0510448 +22.8292192     655.3557     69.28197      1.012     1.59     -12.6893     19.55153      189.004         9     0.671     0.637 -67.34   0
        23    452.7516    964.6064 300.0191169 +22.7963364     497.3808     69.29962      1.107     2.06    -12.77884     19.55153     92.99078         8     0.796     0.578  19.26   0
        24    383.3172    962.6807 299.9981508 +22.7749359     3285.171     69.44069      1.069     1.83    -12.68422     19.55153     549.0709        20     0.900     0.870  55.86   0
        25    109.6022    962.1474 299.9132675 +22.6925694      1240.75     69.28197      9.792    10.48     1.791563     19.55153     34.70063        26     2.021     1.516 -79.58   1
        26    101.6391    963.4797 299.9103608 +22.6905587     1192.629     69.26431      4.530     4.63     2.023578     19.55153     35.02141         5     1.321     0.461  29.23   1
        27    732.2679   1010.8477 300.0910514 +22.8935005     331.2185     69.28197      1.132     2.45    -13.09422     19.55153     59.70864         6     0.728     0.535 -54.95   0
        28    169.3471   1022.9190 299.9120372 +22.7279308     1510.936     57.91478      6.858    15.92     18.43743     19.55153     48.49702        53     4.150     1.699  -0.47  27
        29    415.8292    949.7609 300.0124670 +22.7809941     266.5828     69.29962      1.093     3.17    -12.60287     19.55153     42.38302         6     0.747     0.565  46.85   0
        30    929.6014    941.1458 300.1752274 +22.9327031     1130.537     69.24665      1.065     1.79    -12.58696     19.55153       218.85        15     0.943     0.805 -23.84   0
        31    165.7310   1000.9160 299.9180786 +22.7205403     1062.268     69.40545      6.282    11.16     12.56834     19.55153     42.96682        23     2.568     1.351  62.07   1
        32     57.2390    994.8997 299.8863441 +22.6862188     2038.774     69.31727     16.198    25.96   -0.6076527     19.55153     52.58085       138     5.958     3.141  18.14  19
        33    496.2892    998.9791 300.0214677 +22.8192635     249.4221     69.22898      1.162     2.33    -13.17283     19.55153     41.76586         5     0.756     0.471  28.42   0
        34    924.9005    993.8171 300.1566113 +22.9464105     403.6038     69.21131      1.190     2.42    -13.09644     19.55153     86.31545         8     0.932     0.608   2.60   0
        35    753.2275    924.1382 300.1258122 +22.8749129     539.8362     69.29962      1.073     1.72    -12.36136     19.55153     120.0449         8     0.718     0.582 -59.10   0
        36    775.4250    917.8862 300.1347612 +22.8797787     5455.605     69.24665      1.004     1.67    -12.37644     19.55153     1165.066        23     0.855     0.832  -4.89   0
        37    821.1222    917.6253 300.1490812 +22.8934130     252.1899     69.29962      1.035     2.03    -12.40843     19.55153     53.64332         5     0.677     0.459 -18.05   0
        38     87.1823    909.5550 299.9234249 +22.6707651     353.6087     69.31727      1.392     2.78    -9.339663     19.55153     44.02267         5     0.724     0.448 -22.24   0
        39    784.0159    900.0704 300.1432367 +22.8772436     694.1126     69.31727      0.979     1.63    -12.37269     19.55153     175.8525         8     0.677     0.602 -38.26   0
        40    967.1108    898.8574 300.2006869 +22.9318132     277.3444     69.33492      1.067     1.73    -12.51806     19.55153     69.02144         6     0.681     0.527 -41.12   0
        41    822.3174    893.6420 300.1572608 +22.8868886     480.1872     69.26431      1.574     3.30    -12.39288     19.55153     87.41602         8     1.046     0.536  74.01   0
        42    930.8444    890.1401 300.1922197 +22.9184346     137.9984     69.31727      1.163     3.10    -12.44819     19.55153     47.28843         6     0.837     0.631  86.45   0
        43    870.7208    884.9846 300.1751603 +22.8989225     284.4177     69.31727      1.174     2.95    -12.41835     19.55153       54.915         9     0.932     0.650 -60.88   0
        44    721.8997    884.0186 300.1291156 +22.8540017     335.7353     69.21131      1.034     1.75    -12.33226     19.55153     85.86198         6     0.682     0.513 -61.12   0
        45    324.8334    883.6003 300.0057105 +22.7347034     79.55988     69.26431      1.071     3.51    -11.97544     19.55153     30.40863         5     0.974     0.365 -85.29   0
        46    434.5689    880.3334 300.0408947 +22.7667129     1940.216     69.29962      1.023     1.83     -12.0986     19.55153     365.6811        14     0.800     0.754  65.87   0
        47    733.2265    880.5422 300.1337745 +22.8564025     301.1679     69.29962      1.210     1.63    -12.33633     19.55153     70.25308         5     0.641     0.485  15.76   0
        48    159.6661    865.9445 299.9601307 +22.6800411     401.8472     69.35255      1.141     2.50    -11.60486     19.55153     72.89742        10     0.918     0.697  47.07   0
        49    136.8062    863.0837 299.9539609 +22.6723550     954.7593     69.22898      1.305     2.10    -11.65245     19.55153     151.2633        13     0.875     0.824 -59.70   0
        50     68.3587    864.2365 299.9323287 +22.6521248     90.62311     69.38783      1.049     3.38    -11.60308     19.55153     36.53868         5     0.769     0.431  70.67   0
        51     11.7155    853.1171 299.9183608 +22.6319220     233.7742     69.42307      1.296     3.66    -11.60858     19.55153     38.83595         5     0.737     0.695  39.26   0
        52   1008.4938    851.7440 300.2289242 +22.9306952     1023.718     69.35255      1.014     1.98    -12.30347     19.55153      197.008        12     0.847     0.691 -43.97   0
        53    962.7838    850.2274 300.2151668 +22.9165539     1034.389     69.31727      1.017     1.80    -12.28901     19.55153     214.0786        10     0.727     0.684  -1.07   0
        54    746.2057    844.2577 300.1496260 +22.8498838     454.4177     69.26431      1.165     1.89    -12.32348     19.55153     65.48656         6     0.631     0.570  38.64   0
        55    614.4611    838.3284 300.1105365 +22.8086556     2442.079     69.33492      1.024     1.72    -12.05984     19.55153     415.8158        18     0.885     0.804  65.43   0
        56    416.7089    835.2047 300.0500268 +22.7484097     253.0862     69.21131      1.155     2.15    -11.79692     19.55153     58.01122         6     0.682     0.624  -1.73   0
        57    164.8213    832.1911 299.9727157 +22.6719151     648.6674     69.28197      1.125     2.13    -11.69295     19.55153     117.5744         9     0.741     0.693 -42.08   0
        58    635.2249    830.5645 300.1195264 +22.8126583     363.7655     69.31727      1.010     1.67    -12.08654     19.55153     74.76535         5     0.653     0.463  22.80   0
        59   1007.6373    818.0670 300.2396171 +22.9207680     586.2996     69.28197      1.011     2.04     -11.8528     19.55153     123.8544         9     0.710     0.687  49.57   0
        60    790.4280    817.8776 300.1719848 +22.8555776     2125.249     69.29962      1.055     1.92    -12.33365     19.55153     412.9054        17     0.903     0.770  75.95   0
        61    199.0829    812.5596 299.9897474 +22.6765770     208.0637     69.26431      1.098     4.43    -11.72872     19.55153     34.55716         8     1.123     0.496  -0.78   0
        62    153.7252    808.7984 299.9768801 +22.6618776     477.4536     69.21131      1.107     2.11    -11.69383     19.55153     100.3883         9     0.776     0.701  -6.46   0
        63    857.0410    807.9297 300.1959751 +22.8727006     4331.337     69.26431      0.505     2.68    -12.34133     19.55153     2707.402         9     0.477     0.447  31.14   0
        64    303.5854    800.8120 300.0260456 +22.7045871     26080.27     69.22898      1.088     1.81    -11.89704     19.55153     4724.331        53     1.062     0.992 -89.29   0
        65    859.7108    801.0786 300.1990364 +22.8715344     1251.685     69.42307      0.673     0.98    -12.33425     19.55153     625.7316         7     0.506     0.466 -37.94   0
        66    561.3110    799.9062 300.1064971 +22.7816836     784.2474     69.45831      1.097     2.11    -11.66098     19.55153     147.4707        11     0.815     0.727 -69.98   0
        67    974.1930    798.6584 300.2355055 +22.9051675       446.61     69.28197      1.037     2.06    -11.72352     19.55153     97.34889         8     0.821     0.576 -11.71   0
        68    231.6228    798.6493 300.0043839 +22.6823604     222.9737     69.29962      1.160     3.61    -11.76736     19.55153     42.04749         6     0.826     0.551 -46.86   0
        69    865.1053    797.7404 300.2018035 +22.8721939     3146.408     69.37019      0.947     3.11    -12.30382     19.55153     987.1186        10     0.968     0.382 -24.61   0
        70    590.2723    795.7225 300.1168715 +22.7891734     387.7526     69.40545      0.992     2.70    -11.67335     19.55153     90.68503         9     0.830     0.768  27.65   0
        71    601.2501    794.0048 300.1208471 +22.7919744     295.9356     69.28197      1.054     2.60    -11.67548     19.55153     50.60666         7     0.734     0.627  83.78   0
        72    706.5161    790.5999 300.1547263 +22.8225783     217.2919     69.17595      1.067     2.80    -12.14001     19.55153     48.50376         5     0.713     0.478 -73.89   0
        73    353.2875    778.0195 300.0489120 +22.7129719     15086.22     69.24665      1.125     1.85    -11.74827     19.55153     2894.341        39     1.006     0.945 -80.93   0
        74    367.5767    778.3922 300.0532335 +22.7173681     958.2361     69.29962      1.027     1.92    -11.71703     19.55153     148.3593        11     0.846     0.646  68.70   0
        75    876.3551    773.5930 300.2131659 +22.8686346      1356.72     69.31727      0.982     1.72    -12.01265     19.55153     281.5226        13     0.785     0.714 -79.78   0
        76    634.4026    769.8085 300.1390388 +22.7949780     503.2395     69.12288      1.108     2.10    -11.71535     19.55153     90.44098         8     0.734     0.672  85.69   0
        77    235.8190    769.7144 300.0151011 +22.6753246     385.3831     69.24665      1.140     2.21    -11.72674     19.55153     66.43781         7     0.689     0.635 -20.90   0
        78    470.5615    769.4819 300.0881605 +22.7457224     349.5542     69.26431      1.352     2.87    -11.55796     19.55153     48.67803         5     0.870     0.549 -42.66   0
        79    481.5497    764.7230 300.0931269 +22.7476548     382.3647     69.29962      1.051     2.60    -11.54025     19.55153     70.76045         8     0.924     0.523  66.56   0
        80     40.2596    765.1273 299.9558495 +22.6152824     124.0053     69.33492      1.067     3.93    -11.65709     19.55153     41.63046         5     0.948     0.467  41.57   0
        81    382.7307    760.6136 300.0637291 +22.7168179     222.5783     69.31727      1.240     5.09    -11.64197     19.55153     36.19368         7     1.677     0.436  50.44   0
        82    427.2386    759.4481 300.0779494 +22.7298422     218.6867     69.31727      1.009     3.31    -11.58759     19.55153     38.79858         5     0.771     0.413  25.17   0
        83    859.9934    756.1812 300.2137322 +22.8587292     176.1456     69.26431      1.067     1.96    -11.87348     19.55153     53.56397         5     0.740     0.455 -58.52   0
        84    233.2226    753.9908 300.0194090 +22.6700367     365.4642     69.29962      1.225     2.61    -11.70256     19.55153     47.88246         5     0.773     0.480  29.51   0
        85    942.5500    738.9184 300.2450777 +22.8785252      2166.26     69.31727      0.980     1.67    -11.64036     19.55153     447.2765        16     0.809     0.747  36.45   0
        86    548.2247    740.2150 300.1218441 +22.7606307     730.7441     69.31727      1.090     1.90    -11.48223     19.55153     130.7411         8     0.695     0.643 -39.70   0
        87    931.0724    730.4970 300.2442395 +22.8726658     763.1727     69.42307      1.002     1.76     -11.6137     19.55153     170.6058        11     0.833     0.683 -80.71   0
        88    294.2340    724.9325 300.0478225 +22.6800206     384.1025     69.29962      1.008     2.68    -11.39699     19.55153     93.52918         7     0.914     0.504 -71.89   0
        89    757.3501    721.8563 300.1929212 +22.8180937     1138.082     69.33492      1.041     1.81    -11.49782     19.55153     227.9763        10     0.729     0.695  63.83   0
        90    962.2897    720.3812 300.2572612 +22.8791193     697.6172     69.22898      1.036     2.12    -11.47624     19.55153     142.9811        10     0.828     0.726 -79.47   0
        91    142.9789    708.4575 300.0061812 +22.6298861     178.2122     69.31727      0.884     1.87    -11.62849     19.55153     63.20834         5     0.679     0.514 -86.67   0
        92    875.8754    698.6687 300.2373894 +22.8469771     72720.45     69.37019      1.078     1.65    -11.54582     19.55153     15687.84        94     1.123     1.031  83.23   0
        93   1022.8428    700.2275 300.2826963 +22.8914815      511.714     58.23074      0.985     1.74    -11.28093     19.55153     129.9502         7     0.751     0.498 -42.84  24
        94    728.3904    698.9237 300.1913608 +22.8028252     477.4359     69.28197      0.935     1.65    -11.31791     19.55153     98.09219         6     0.700     0.480 -80.20   0
        95    562.2926    687.6094 300.1433319 +22.7497560     771.8522     69.22898      1.078     2.00    -11.02959     19.55153     127.1134        10     0.787     0.707  78.40   0
        96    743.4034    684.8064 300.2006278 +22.8032748     4597.381     69.12288      1.108     1.94    -11.22631     19.55153     782.6199        26     0.955     0.902  80.30   0
        97    244.9630    680.2986 300.0470247 +22.6524300     2382.218     69.29962      1.173     2.26    -11.21677     19.55153     370.7932        18     0.971     0.806  77.12   0
        98    326.8210    678.3103 300.0731147 +22.6764303     511.1178     69.22898      1.107     2.02    -10.84319     19.55153      110.106        10     0.784     0.753  -8.67   0
        99    202.5899    675.2628 300.0354953 +22.6382656      316.558     69.24665      1.452     3.54    -11.41995     19.55153     37.27084         5     0.802     0.452 -72.91   0
       100    841.8967    671.0707 300.2357771 +22.8288646     1452.079     69.42307      0.732     2.04     -11.3525     19.55153     611.9838         7     0.760     0.340 -83.44   0
       101    526.8785    665.7205 300.1394301 +22.7328501     1537.557     69.42307      1.212     1.95    -10.75754     19.55153     288.9117        17     0.903     0.872   2.69   0
       102    517.1066    659.6450 300.1383653 +22.7281750     665.1691     69.31727      1.128     2.13    -10.69521     19.55153     125.9831        10     0.812     0.696  89.13   0
       103    180.5914    655.8458 300.0349741 +22.6260935     401.6323     69.31727      1.339     2.86    -11.26627     19.55153     57.66716         6     0.750     0.637  69.78   0
       104    251.5012    650.9844 300.0585886 +22.6459855     210.8494     69.21131      1.065     2.30    -10.91963     19.55153     35.92368         6     0.743     0.499  86.63   0
       105    220.5703    650.8127 300.0490324 +22.6366517     323.4325     69.29962      1.131     2.16    -11.11379     19.55153     44.77791         5     0.683     0.465  70.17   0
       106    441.8959    649.0910 300.1183997 +22.7025811     872.9307     69.47591      1.129     1.96    -10.68068     19.55153     164.7471        11     0.842     0.709 -65.48   0
       107   1017.5679    646.3095 300.2985868 +22.8744115     506.0797     69.24665      1.126     2.06    -11.04823     19.55153     83.60074         9     0.773     0.671  66.23   0
       108     95.9441    644.3976 300.0124028 +22.5973973     9548.065     69.24665      1.179     1.97    -11.20608     19.55153     1604.912        35     1.028     0.973  82.55   0
       109     16.8581    645.9930 299.9873269 +22.5741072     222.1277     69.28197      1.154     2.78    -10.87674     19.55153     49.82771         8     0.799     0.670  49.85   0
       110    526.9080    644.4823 300.1463453 +22.7267642       448.98     69.44069      0.983     1.98    -10.45648     19.55153     79.81369         8     0.750     0.612  80.39   0
       111    944.7050    630.3950 300.2810449 +22.8480017     518.7335     69.21131      1.048     1.88    -10.87446     19.55153     105.7708         6     0.626     0.586  -7.20   0
       112     41.8465    628.6574 300.0007212 +22.5766412     816.0422     69.35255      1.863     5.58    -10.87461     19.55153     70.81183        14     1.515     0.710  87.99   0
       113    884.9836    623.3228 300.2647302 +22.8280690     459.9821     69.29962      1.391     2.07    -10.84965     19.55153     78.51519         7     0.680     0.652 -17.66   0
       114    447.0201    617.4886 300.1302686 +22.6950507     368.0819     69.24665      1.066     1.85    -10.49713     19.55153     65.61101         6     0.705     0.500  -0.73   0
       115    595.1395    615.9125 300.1768683 +22.7390314     285.9561     69.38783      1.140     3.20    -10.30687     19.55153     56.85947         6     0.889     0.566 -29.34   0
       116    612.6094    614.1177 300.1828895 +22.7437560     385.2369     69.24665      1.400     2.22    -10.40189     19.55153     45.15554         5     0.701     0.449 -69.28   0
       117    490.8917    613.3341 300.1452668 +22.7070205     496.9688     69.42307      1.341     1.75    -10.36097     19.55153     84.21023         6     0.675     0.544  68.39   0
       118    924.8626    608.6412 300.2819329 +22.8358055     1580.871     69.28197      1.054     1.64    -10.69387     19.55153     349.6641        13     0.792     0.726 -70.36   0
       119    456.6286    608.7878 300.1360861 +22.6954367     740.2849     69.29962      1.107     2.68    -10.44341     19.55153     139.0427        11     0.877     0.784 -87.76   0
       120   1022.8398    606.7251 300.3131019 +22.8646187    -386.8571     58.25175      0.966     1.74    -10.85996     19.55153     80.03128         6     0.633     0.551  40.73  24
       121     18.7037    602.5947 300.0020084 +22.5622202     2467.121     69.21131      1.161     2.16    -10.71507     19.55153     347.1683        18     0.897     0.895 -87.56   0
       122    320.1233    595.6661 300.0979028 +22.6507131     4325.588     69.38783      1.169     2.02    -10.44784     19.55153     724.5024        27     0.992     0.948  88.06   0
       123    442.5581    592.5600 300.1369849 +22.6865586      4424.13     69.38783      1.140     2.05     -10.3202     19.55153     684.5647        27     1.040     0.956  77.23   0
       124    854.1598    586.3913 300.2671320 +22.8082217     959.0298     69.29962      1.076     1.75    -10.58543     19.55153     172.3081        11     0.773     0.712  59.58   0
       125    938.7743    583.7122 300.2943740 +22.8328138     5969.983     69.24665      1.059     1.77    -10.57619     19.55153     1263.887        26     0.923     0.860 -69.65   0
       126    503.0514    582.2053 300.1591695 +22.7017345     5776.626     69.28197      1.209     2.03    -10.00884     19.55153     952.0238        28     1.038     0.909  83.51   0
       127    672.4327    577.6620 300.2133651 +22.7512308     275.9472     69.29962      1.513     4.26    -10.23064     19.55153     35.16881         7     0.864     0.691 -77.62   0
       128    230.4317    577.6674 300.0758759 +22.6186327     662.4326     69.29962      1.128     2.00    -10.51642     19.55153      115.486        10     0.776     0.732  59.76   0
       129    434.7410    570.4271 300.1417481 +22.6778620     2210.055     69.29962      1.167     2.02    -10.14546     19.55153     340.7263        17     0.974     0.826 -81.93   0
       130    777.4091    570.1237 300.2485083 +22.7805414     317.4993     69.28197      1.055     2.20    -10.44365     19.55153     66.64824         7     0.717     0.583  59.00   0
       131    413.0757    568.7286 300.1355619 +22.6708748     595.8203     69.37019      1.229     2.24    -10.19073     19.55153      99.2929         9     0.826     0.640  69.35   0
       132    167.4391    568.2676 300.0593586 +22.5970297     274.2086     69.26431      1.273     2.06    -10.64819     19.55153        53.86         5     0.666     0.467  69.31   0
       133    854.5637    565.6486 300.2740009 +22.8023848     850.5353     69.29962      1.224     2.59     -10.5136     19.55153     119.9498        13     0.941     0.805 -32.30   0
       134    551.3875    557.9021 300.1821097 +22.7092571     100165.4     69.19363      1.203     2.03    -9.642252     19.55153     15403.54       127     1.256     1.213 -61.23   0
       135    735.1331    562.7736 300.2377298 +22.7657559     421.5926     69.28197      1.168     2.36    -10.34563     19.55153     69.15034         8     0.764     0.662  40.47   0
       136    237.5585    557.9365 300.0845038 +22.6151119     1607.313     69.28197      1.167     2.30     -10.4316     19.55153     257.5484        17     0.976     0.789 -87.35   0
       137    442.0120    538.1448 300.1545023 +22.6707787     1301.865     69.29962      1.232     2.01    -9.883009     19.55153     214.9305        14     0.898     0.785  78.86   0
       138    759.1791    526.7969 300.2569127 +22.7626329     165.4227     69.24665      0.988     3.40     -10.2397     19.55153     31.41317         5     0.975     0.344  45.07   0
       139    838.9625    524.2873 300.2825836 +22.7858276     871.7407     69.28197      1.179     1.90    -10.32421     19.55153     165.8834        11     0.866     0.631 -75.65   0
       140    710.1384    521.8621 300.2432431 +22.7465136     1239.744     69.33492      1.137     2.04    -10.02334     19.55153     230.2617        15     0.978     0.764 -81.74   0
       141    954.6238    519.3699 300.3202295 +22.8190778     226.2121     69.29962      1.217     4.37    -10.26483     19.55153     46.68273         7     1.131     0.481  82.52   2
       142    953.3403    514.7665 300.3213255 +22.8173705     353.8763     69.33492      0.976     1.67    -10.25072     19.55153     70.05254         5     0.624     0.469 -81.04   2
       143    497.3619    517.7256 300.1783569 +22.6815206     311.1084     69.24665      1.060     2.48    -9.595147     19.55153     58.29498         6     0.801     0.494  48.43   0
       144    967.3882    515.8061 300.3253671 +22.8218786     604.7596     69.17595      0.984     1.92    -10.25242     19.55153     130.3312         9     0.841     0.615  63.19   0
       145    839.3521    514.7426 300.2858070 +22.7832026     1027.436     69.35255      1.107     1.69    -10.27602     19.55153     199.0404        14     0.893     0.824  79.94   0
       146    877.2194    509.3218 300.2993687 +22.7929946     2088.139     69.29962      1.139     1.98    -10.25233     19.55153      376.598        17     0.922     0.819  68.15   0
       147    969.1282    499.5974 300.3311772 +22.8177425     370.9071     69.24665      1.056     2.10    -10.19551     19.55153     76.50565         8     0.771     0.647 -53.51   0
       148    109.4053    500.1683 300.0634624 +22.5600790     498.1383     69.28197      1.168     2.45    -10.40388     19.55153     66.11169         7     0.765     0.599 -75.17   0
       149    709.6670    484.0255 300.2553921 +22.7355061     212.8859     69.28197      1.114     2.43    -9.799365     19.55153     43.01127         7     0.699     0.663 -81.77   0
       150    650.8042    480.1995 300.2383070 +22.7167602     332.1969     69.12288      1.166     2.48     -9.44951     19.55153     66.09501         8     0.853     0.619   5.61   0
       151    965.4212    472.1966 300.3389258 +22.8087578     171.3536     69.26431      0.906     1.63    -10.12758     19.55153     59.22656         5     0.619     0.480  72.71   0
       152    711.5856    472.2203 300.2598256 +22.7326907     368.1264     69.26431      0.968     3.13    -9.745794     19.55153     63.07593         5     0.728     0.455 -70.52   0
       153    868.6260    468.3592 300.3100020 +22.7786507     528.7727     69.35255      1.111     2.84    -10.10697     19.55153     83.30905        11     0.921     0.858 -14.86   0
       154    597.3441    462.8441 300.2273042 +22.6957477     1635.102     69.29962      1.231     2.20    -9.299346     19.55153       221.32        17     0.980     0.810  76.31   0
       155   1008.6259    441.6073 300.3623358 +22.8129107     668.3585     69.29962      1.075     1.93    -10.12989     19.55153      118.479        10     0.745     0.716  32.92   0
       156    966.9193    440.4972 300.3496927 +22.8000969     416.5001     69.42307      0.932     1.76    -10.12543     19.55153     100.0486         7     0.662     0.587  33.34   0
       157    880.7635    441.4122 300.3225401 +22.7745454     222.0393     69.28197      1.070     2.85    -10.09137     19.55153     36.25545         5     0.704     0.476 -13.86   0
       158    707.7890    436.7943 300.2701534 +22.7213775     566.2213     69.17595      1.261     2.46    -9.533709     19.55153     88.26399        10     0.876     0.688  -0.50   0
       159    212.0148    435.0919 300.1164826 +22.5722040     393.0253     69.22898      1.271     2.14      -9.9636     19.55153     71.27428         9     0.760     0.718  22.19   0
       160    274.4256    430.7930 300.1372752 +22.5896957     1864.537     69.29962      1.223     2.21    -9.714731     19.55153     262.6385        17     0.975     0.848 -87.76   0
       161   1007.2746    428.9556 300.3660250 +22.8088695      2157.25     69.28197      1.134     1.79    -10.13017     19.55153     433.2925        18     0.890     0.840  87.91   0
       162    221.5635    425.7018 300.1225001 +22.5723748     3760.513     69.29962      1.204     2.09    -9.899106     19.55153     559.5944        27     1.095     0.921 -86.88   0
       163    362.2712    419.7780 300.1681633 +22.6128866     2224.702     69.31727      1.231     2.29    -9.224784     19.55153     330.3004        20     1.039     0.880  67.98   0
       164    987.1765    420.0580 300.3626489 +22.8002914     883.0892     69.29962      1.012     1.87    -10.12728     19.55153     181.7823         8     0.698     0.626 -72.92   0
       165    606.4903    416.4306 300.2452300 +22.6851616     8884.057     69.26431      1.198     2.17    -9.209002     19.55153     1217.655        35     1.065     1.008  77.15   0
       166    623.5162    416.6118 300.2504711 +22.6903181     434.7659     69.26431      1.873     5.83    -9.237473     19.55153     41.63372         7     1.299     0.737 -35.48   0
       167    643.4179    414.3751 300.2573934 +22.6956419     994.0687     69.29962      0.776     1.05     -9.28033     19.55153     522.0848         5     0.643     0.333  39.71   0
       168    940.0482    398.7119 300.3548905 +22.7800376     246.0951     69.29962      1.087     2.78    -10.07855     19.55153     59.98563         6     0.874     0.488  88.48   0
       169    161.3404    396.6035 300.1132396 +22.5459560      1076.94     69.26431      1.238     2.68    -9.999894     19.55153     144.5992        16     1.031     0.843 -75.45   0
       170    547.1171    385.8271 300.2366916 +22.6585723     3247.768     69.29962      1.274     2.13    -9.270648     19.55153      511.208        26     1.038     0.975  64.38   0
       171    960.7134    386.1089 300.3654267 +22.7826062     612.6425     69.45831      1.062     1.86    -9.972148     19.55153     113.8034         8     0.715     0.634  50.26   0
       172    262.2174    385.3661 300.1482362 +22.5729969     404.4197     69.28197      1.388     2.79    -9.618975     19.55153     48.31856         5     0.733     0.442  19.18   0
       173    119.3057    378.8241 300.1059562 +22.5282419     260.0922     69.21131      1.228     3.31    -9.907259     19.55153     47.37159         6     0.769     0.584 -45.31   0
       174    660.5934    376.1571 300.2751548 +22.6898134     250.6947     69.31727      1.277     3.01    -9.341978     19.55153     33.60463         5     0.740     0.438 -68.12   0
       175    751.2059    374.9441 300.3037669 +22.7166232     488.8051     69.28197      1.242     2.27    -9.479382     19.55153     85.01151        10     0.864     0.685   8.62   0
       176    453.7488    372.2407 300.2120542 +22.6266752     3071.442     69.31727      1.237     2.17    -9.188603     19.55153      446.601        21     0.957     0.946 -77.18   0
       177    942.8644    366.8363 300.3661222 +22.7717198     381.7575     69.29962      1.596     5.18    -9.988079     19.55153     53.35439         9     1.511     0.628 -76.07   0
       178    845.7861    366.3239 300.3360323 +22.7424881     658.9857     69.31727      1.093     2.04    -9.885926     19.55153      113.701         8     0.720     0.641  59.94   0
       179    818.3701    354.1689 300.3314375 +22.7307806     247.7886     69.29962      1.084     3.38    -9.658457     19.55153     36.79083         5     0.803     0.412  68.61   0
       180    341.3166    351.5610 300.1838042 +22.5870205     1295.339     69.26431      1.221     2.22    -9.239728     19.55153     179.4714        16     0.943     0.847 -66.39   0
       181     59.8767    348.9403 300.0972036 +22.5018352     616.8149     69.35255      1.290     2.37    -9.716958     19.55153     86.25943        10     0.850     0.706   3.09   0
       182    310.6744    340.9062 300.1777375 +22.5747716     14597.32     69.44069      1.270     2.07       -9.317     19.55153     2348.479        49     1.184     1.057  72.66   0
       183    845.3219    338.0436 300.3450723 +22.7342221     707.1151     69.28197      1.172     2.18    -9.765643     19.55153     120.7815         9     0.757     0.696  42.90   0
       184      7.0584    328.8915 300.0873134 +22.4802333     2427.071     69.35255      1.211     2.13    -9.608564     19.55153     395.9853        19     0.967     0.849  59.88   0
       185    184.6086    326.5972 300.1432033 +22.5328493     275.0494     69.12288      1.449     3.86    -9.641584     19.55153     31.29549         5     1.058     0.405  73.80   0
       186    408.8930    326.3849 300.2129937 +22.6000586     265.1209     69.22898      1.114     3.16    -8.971015     19.55153       42.526         6     0.803     0.615 -32.42   0
       187    721.0418    320.5522 300.3120365 +22.6919564     924.5931     69.31727      1.293     2.85    -9.373657     19.55153     141.1023        17     1.069     0.889 -82.71   0
       188    935.9670    313.0677 300.3814341 +22.7541985     349.4248     69.29962      1.321     2.47    -9.771448     19.55153     55.32526         7     0.831     0.524  53.68   0
       189    382.8951    305.4129 300.2117180 +22.5862413     1027.295     69.22898      1.395     2.92    -8.858686     19.55153     127.8927        14     1.022     0.804  87.04   0
       190    806.3754    285.4446 300.3500171 +22.7074373     6182.979     69.31727      3.463     7.80    -9.480807     19.55153     828.6311        38     4.274     0.398  83.72   2
       191    809.0000    303.4397 300.3449920 +22.7133952     3720.794     69.28197      1.118     3.94    -9.524429     19.55153     890.9764         6     1.541     0.289  90.00   3
       192    808.0000    298.5513 300.3462677 +22.7116907     3645.223     69.28197      1.124     3.37    -9.517612     19.55153     783.8389        13     1.411     0.397 -89.71   3
       193    595.7486    303.8948 300.2784349 +22.6496198     208.6577     69.37019      1.417     4.64    -9.281681     19.55153     29.37725         5     1.243     0.491 -61.79   0
       194    822.0222    297.8103 300.3508771 +22.7156789     288.3696     69.29962      1.159     2.42    -9.536316     19.55153     51.99124         8     0.760     0.673  36.30   0
       195    704.2749    295.8297 300.3148424 +22.6798286     260.7419     69.31727      1.253     3.44    -9.374888     19.55153     38.32131         5     0.754     0.662  28.08   0
       196    458.6814    284.5586 300.2420608 +22.6029769      466.974     69.26431      1.145     2.10    -8.668371     19.55153     94.51366         9     0.892     0.576 -80.48   0
       197    703.4702    276.4755 300.3208757 +22.6740265      1103.51     69.37019      1.226     2.32    -9.309341     19.55153     143.0107        15     0.997     0.824   4.61   0
       198    964.7679    270.6076 300.4041994 +22.7506185     1624.653     69.29962      1.108     2.05    -9.494761     19.55153     244.4984        13     0.852     0.745 -85.37   0
       199    411.6851    260.2652 300.2353291 +22.5819103     239.7642     69.38783      1.112     2.52    -8.631252     19.55153     51.55667         5     0.726     0.439 -74.82   0
       200     86.9718    254.7424 300.1362007 +22.4829379     724.5529     69.29962      1.474     2.81    -9.403067     19.55153     74.78458        10     0.888     0.730 -71.19   0
       201    117.4014    254.5703 300.1457080 +22.4920174      303.322     69.26431      1.223     3.12    -9.399335     19.55153     52.61678         5     0.727     0.454 -20.37   0
       202    774.7314    237.3932 300.3557587 +22.6841471     278.4666     69.26431      1.181     2.80    -9.161767     19.55153     48.02176         6     0.841     0.657  19.64   0
       203    873.1825    226.6970 300.3899062 +22.7105642     920.9818     69.21131      1.178     2.14    -9.185058     19.55153     177.3966        13     0.896     0.747  73.95   0
       204    291.8926    224.1479 300.2098043 +22.5356204     1156.457     69.35255      1.410     2.45    -8.824548     19.55153     145.9566        18     1.053     0.963  83.71   0
       205    369.7096    219.1210 300.2356303 +22.5575102     477.3716     69.44069      1.272     2.54    -8.725183     19.55153     65.70953         7     0.722     0.642 -71.42   0
       206    186.2132    211.5299 300.1810555 +22.5003051     373.2776     69.29962      1.246     3.16    -9.049603     19.55153      50.9964         8     0.958     0.615  58.13   0
       207    724.2828    208.1095 300.3495501 +22.6606169     888.6141     69.40545      1.185     2.64    -8.984678     19.55153     125.2138        11     0.942     0.709  65.17   0
       208    995.7001    200.2856 300.4366717 +22.7396616     409.9266     69.45831      1.256     2.74    -9.398592     19.55153     57.36882         7     0.788     0.618  65.25   0
       209    208.3143    204.9930 300.1900446 +22.5050570     220.6775     69.22898      1.200     3.03    -8.918749     19.55153     40.71399         7     0.714     0.682  53.53   0
       210    648.8138    199.0881 300.3289773 +22.6354122     498.9598     69.24665      1.255     2.21    -8.946189     19.55153     88.97936         8     0.763     0.644  70.38   0
       211    575.1924    190.8905 300.3087197 +22.6109953     543.3271     69.21131      1.357     2.50    -8.873002     19.55153     69.09792         9     0.867     0.671 -73.94   0
       212    844.2342    190.1856 300.3927359 +22.6913975     661.7369     69.28197      1.170     2.31    -8.957868     19.55153     109.2686         9     0.915     0.654 -53.29   0
       213    856.1942    189.2056 300.3967809 +22.6946980     317.3744     69.15826      1.120     2.24     -8.95627     19.55153     62.25523         8     0.739     0.667 -50.69   0
       214   1017.2484    180.2787 300.4498845 +22.7403600     886.8711     69.29962      1.181     2.24      -9.4413     19.55153     143.1478        12     0.885     0.794  -6.79   0
       215    972.9556    179.7548 300.4362434 +22.7269473     585.4099     69.33492      1.144     2.29    -9.326753     19.55153     86.16862         8     0.775     0.642 -51.47   0
       216    207.2950    172.9662 300.2001211 +22.4955572     386.3075     69.28197      1.296     3.54    -8.704259     19.55153     51.67428         9     1.010     0.767 -83.79   0
       217     69.1041    167.8175 300.1588620 +22.4526321     993.9149     69.21131      1.233     2.46    -8.803556     19.55153     151.7985        11     0.903     0.720 -80.36   0
       218    891.8813    164.7534 300.4158385 +22.6983559     308.0635     69.28197      1.259     3.63    -8.968028     19.55153     54.19865         9     1.160     0.652  12.98   0
       219     18.8315    164.6681 300.1442729 +22.4366475     215.6441     69.28197      1.203     3.52    -8.794767     19.55153     39.64811         5     0.969     0.369 -86.00   0
       220    226.4824    161.1982 300.2099024 +22.4979326     2847.868     69.21131      1.281     2.45     -8.58695     19.55153     337.8001        21     1.048     0.922  87.14   0
       221     10.7548    155.5424 300.1447261 +22.4316057     650.2974     69.33492      1.242     2.31    -8.765591     19.55153      81.3214        10     0.847     0.698  85.11   0
       222    209.8465    152.2686 300.2076300 +22.4903802     266.8473     69.28197      1.200     2.88    -8.607888     19.55153     54.91427         9     0.880     0.718 -86.60   0
       223   1023.8404    148.3320 300.4623076 +22.7331456     1794.525     52.90342      0.870     2.13    -9.313897     19.55153     542.0491        11     1.030     0.402  89.05  24
       224    974.1749    141.2321 300.4491248 +22.7162341     1355.824     69.29962      1.117     2.02    -9.092896     19.55153     250.0242        14     0.918     0.728 -87.42   0
       225    870.4280    142.4321 300.4163955 +22.6855133     1687.036     69.29962      1.191     2.16    -8.753585     19.55153     216.3198        16     0.919     0.839 -82.32   0
       226    420.0119    137.8010 300.2776639 +22.5492347     249.0766     69.12288      1.018     2.22    -8.406532     19.55153     54.15503         7     0.689     0.658 -15.73   0
       227    344.2364    129.4971 300.2567928 +22.5241351     424.9879     69.29962      1.683     3.74    -8.425371     19.55153     44.25991         5     1.072     0.562 -66.28   0
       228    110.3964    127.0318 300.1849201 +22.4533107     290.1249     69.28197      1.464     4.40    -8.647832     19.55153     35.13311         6     0.843     0.654  57.37   0
       229    471.3967    125.1949 300.2977384 +22.5610146     855.4614     69.12288      1.367     2.76    -8.429845     19.55153     104.8955        15     1.082     0.768  58.58   0
       230    245.5070    105.1547 300.2339979 +22.4875453     2913.719     69.31727      1.294     2.41    -8.550941     19.55153      364.711        26     1.081     1.002  82.62   0
       231     96.2633    104.6796 300.1877815 +22.4426557     389.5983     69.40545      1.231     3.18    -8.598155     19.55153     42.46561         6     0.721     0.632  66.73   0
       232    491.3390     90.3127 300.3152595 +22.5569693     3101.303     69.38783      1.267     2.42    -8.421478     19.55153      368.796        23     1.080     0.939  80.51   0
       233    376.5179     90.3154 300.2795423 +22.5225579     329.8156     69.42307      1.322     3.18    -8.413312     19.55153      56.8493         9     0.986     0.652   4.45   0
       234    743.9626     79.9776 300.3972563 +22.6296822     330.2126     69.31727      1.240     2.16    -8.349607     19.55153     51.83004         5     0.606     0.575  -1.32   0
       235    800.8481     75.4453 300.4164474 +22.6454159     2038.722     69.33492      0.694     1.12    -8.219015     19.55153      803.552         6     0.536     0.414  88.33   0
       236    184.6551     74.1750 300.2251366 +22.4604043     192.1775     69.31727      1.222     2.80    -8.433825     19.55153     38.43585         5     0.745     0.432 -70.89   0
       237    619.7342     70.3344 300.3617001 +22.5896984     2990.403     69.35255      1.289     2.37     -8.60001     19.55153     391.1142        23     1.032     0.964 -65.12   0
       238    803.6226     70.9061 300.4187843 +22.6449416      1358.49     69.21131      0.652     1.07    -8.169989     19.55153     651.9377         7     0.520     0.413   0.23   0
       239    394.5849     69.4179 300.2919398 +22.5219701     758.0235     69.28197      1.338     2.81    -8.417208     19.55153     96.29846        10     0.896     0.751  -6.22   0
       240    660.8498     67.8312 300.3753131 +22.6012958       474.18     69.33492      1.309     2.52    -8.445961     19.55153     81.60123         9     0.855     0.699  13.60   0
       241    676.5355     63.3419 300.3816535 +22.6047039     282.8123     69.33492      1.175     3.14    -8.336116     19.55153     42.40749         5     0.710     0.473 -72.68   0
       242    946.5503     61.3511 300.4664283 +22.6849893     219.7696     69.33492      0.962     2.75     -8.62572     19.55153     51.25283         6     0.886     0.422 -70.22   0
       243    143.6448     61.8690 300.2163863 +22.4445741     249.9154     69.26431      1.065     2.02     -8.26776     19.55153     55.77132         5     0.696     0.442  70.01   0
       244    715.8613     59.1350 300.3952648 +22.6152737      292.752     69.33492      1.275     3.85    -8.223948     19.55153     37.90641         6     0.946     0.450  39.16   0
       245    663.8937     55.2278 300.3803490 +22.5985848      1323.51     69.21131      1.254     2.16    -8.292373     19.55153     202.9625        17     0.939     0.882  73.30   0
       246    305.0242     56.2950 300.2683475 +22.4913561      216.673     69.19363      1.380     3.55    -8.600945     19.55153     38.23444         5     0.806     0.488  53.62   0
       247    749.8817     53.7056 300.4076220 +22.6239019     3168.165     69.45831      0.669     0.99     -8.10964     19.55153     1608.415         8     0.507     0.456 -79.62   0
       248    678.5131     53.1439 300.3855771 +22.6023648     373.7213     69.37019      1.480     5.33    -8.215169     19.55153     52.21735         9     1.103     0.727  80.23   0
       249    750.4025     46.7678 300.4100346 +22.6220632     754.5572     69.26431      1.200     2.18    -8.046959     19.55153     108.9964         9     0.769     0.709  73.50   0
       250    688.3269     39.7053 300.3929919 +22.6014411     367.0821     69.44069      1.241     3.79    -8.058777     19.55153     49.97853         8     0.919     0.630  84.78   0
       251    494.1100     39.0862 300.3327377 +22.5430804     543.2014     69.45831      1.331     3.06    -8.407615     19.55153     70.06649         9     0.891     0.715  83.91   0
       252     67.2110     39.1877 300.2000006 +22.4151421       325.15     69.19363      1.350     3.76    -8.315737     19.55153     47.23091         6     0.908     0.490  58.87   0
       253    397.7906     37.6647 300.3032357 +22.5138087     353.8807     69.28197      1.214     3.04    -8.432437     19.55153     44.52033         6     0.728     0.612 -89.38   0
       254    169.3945     27.6293 300.2354910 +22.4424634     1844.187     69.29962      1.312     2.64    -8.055292     19.55153     216.5333        17     1.017     0.878 -86.87   0
       255    737.2764     28.2887 300.4119395 +22.6128192     240.7463     69.42307      1.007     2.43    -7.939718     19.55153     42.27123         5     0.720     0.437  11.91   0
       256    730.4554     20.0880 300.4124746 +22.6084187     392.2907     69.33492      1.152     3.01    -7.869739     19.55153     78.98883         7     0.903     0.549 -68.26   0
       257    285.2336     19.7621 300.2740432 +22.4749305     559.8664     69.33492      1.261     2.60    -8.702186     19.55153     87.82423        12     0.936     0.786  71.27   0
       258    353.6341   1021.8172 299.9696660 +22.7829732     295.4103     62.91584      1.186     2.05    -13.31827     19.55153     44.35673         5     0.677     0.462  73.98  16
       259    198.1817   1009.3716 299.9254064 +22.7327121     2317.078     69.28197     11.147    19.37     13.03182     19.55153     66.93147       102     4.002     2.606 -41.15  19
       260    172.2383   1014.7695 299.9155890 +22.7264646     1413.191     69.29962      9.103    13.25       16.082     19.55153     43.43393        34     2.825     1.728 -22.77  19
       261    545.6086   1014.9562 300.0316092 +22.8386516     1196.873     69.31727      1.112     2.03    -13.33961     19.55153     219.0224        11     0.836     0.674  24.34   0
