#   1 NUMBER                 Running object number                                     
#   2 X_IMAGE                Object position along x                                    [pixel]
#   3 Y_IMAGE                Object position along y                                    [pixel]
#   4 ALPHA_J2000            Right ascension of barycenter (J2000)                      [deg]
#   5 DELTA_J2000            Declination of barycenter (J2000)                          [deg]
#   6 FLUX_APER              Flux vector within fixed circular aperture(s)              [count]
#   7 FLUXERR_APER           RMS error vector for aperture flux(es)                     [count]
#   8 FLUX_RADIUS            Fraction-of-light radii                                    [pixel]
#   9 FWHM_IMAGE             FWHM assuming a gaussian core                              [pixel]
#  10 BACKGROUND             Background at centroid position                            [count]
#  11 THRESHOLD              Detection threshold above background                       [count]
#  12 FLUX_MAX               Peak flux above background                                 [count]
#  13 ISOAREA_IMAGE          Isophotal area above Analysis threshold                    [pixel**2]
#  14 A_IMAGE                Profile RMS along major axis                               [pixel]
#  15 B_IMAGE                Profile RMS along minor axis                               [pixel]
#  16 THETA_IMAGE            Position angle (CCW/x)                                     [deg]
#  17 FLAGS                  Extraction flags                                          
         1    166.4516     14.5859 300.2353416 +22.4424671     1819.695     69.26858      1.293     2.41    -8.605637     19.53282     216.4993        17     0.972     0.907  48.44   0
         2    727.3775      6.7163 300.4124705 +22.6082504     475.8846     69.19804      1.415     2.85    -7.628783     19.53282     59.22263         7     0.874     0.631  89.80   0
         3    282.4668      6.6872 300.2739746 +22.4749707       690.37     69.32143      1.352     2.95    -8.527089     19.53282     72.86442        13     1.031     0.775  38.48  16
         4    765.4886      1.8836 300.4259138 +22.6182717     306.9511     56.94479      1.302     4.50    -7.621904     19.53282     53.36542         8     1.040     0.554  46.96  24
         5    165.9715   1007.2341 299.9127656 +22.7269843     1021.849     69.25095      5.388     9.06     22.40172     19.53282      40.0976        18     2.978     0.770  -7.97  19
         6    291.2157   1023.1124 299.9465320 +22.7691496     655.5845     56.83749      1.274     2.49     -12.3429     19.53282     107.4151        10     0.856     0.767  71.68  24
         7     71.5515    966.5012 299.8966839 +22.6869543     2374.211     69.26858     28.817    86.21    0.9146645     19.53282     78.68006      1628    17.078    12.075 -69.90  19
         8    194.6242    996.6879 299.9251036 +22.7325696     1465.698     69.19804      5.132     7.13     18.30709     19.53282     52.23695        12     2.074     0.686 -27.32   3
         9    629.2309    997.3608 300.0601013 +22.8632421     4069.088     69.23331      1.163     1.94    -13.19457     19.53282      654.992        26     0.987     0.965 -24.86   3
        10    634.8203    995.1519 300.0625610 +22.8642860     4513.997     69.26857      1.197     1.85    -13.15364     19.53282      855.147        25     1.011     0.921 -71.72   3
        11    234.1206    984.7551 299.9412649 +22.7410134     3672.156     69.21568      7.929    28.27     9.318969     19.53282     92.26672       320     7.533     3.623  55.47  16
        12    224.6701   1010.9216 299.9298104 +22.7456714     277.1234     69.33904      1.148     3.34     23.44776     19.53282     54.42039         5     0.787     0.410 -69.96   0
        13    105.5091    991.2432 299.8991818 +22.7042418     619.2672     69.23331      3.660     4.36     15.59084     19.53282      34.8978         5     1.029     0.526  49.98   0
        14    729.9146    998.4163 300.0911199 +22.8937562     305.6539     69.19804      1.354     4.70    -13.04938     19.53282       61.255         6     1.278     0.490  66.74   0
        15    162.4230    984.1606 299.9191725 +22.7193091      756.982     69.26857      4.768     6.36     14.40325     19.53282     39.38821         8     1.840     0.617  55.38   0
        16    922.4005    980.8323 300.1568401 +22.9464515     291.5342     69.19804      1.191     2.40     -12.8944     19.53282     65.28389         8     0.847     0.599 -74.37   0
        17     72.1976    932.7064 299.9078814 +22.6774688     2089.075     69.14508     21.282    36.18    -7.325518     19.53282     49.17108       272     9.686     3.751 -24.61   3
        18     74.0471    919.8826 299.9126285 +22.6743511      1935.43     69.25095     16.090    27.61    -8.597408     19.53282     47.45499       172     8.000     2.646 -18.46   3
        19    140.4298    966.8950 299.9179567 +22.7077573     844.5062     69.14508      3.462     7.18     7.968528     19.53282     35.00742         9     1.735     0.832  48.33   0
        20    647.5961    964.4753 300.0765246 +22.8593230     3398.219     69.14509      1.228     2.12    -12.78405     19.53282     461.5459        28     1.085     1.000  65.15   0
        21     49.9167   1006.6929 299.8768829 +22.6919651     801.4976     69.40943      4.698     5.03     1.411597     19.53282     34.02709         5     1.108     0.646   7.99   2
        22    542.6318   1002.2822 300.0315356 +22.8386628     1302.798     69.23331      1.269     2.10    -13.42558     19.53282     193.0103        18     1.048     0.892  64.67   0
        23    216.7834   1001.0267 299.9305794 +22.7404680     1058.953     69.25095      9.550     9.32     19.48549     19.53282     37.58076        12     2.422     1.002 -26.81   3
        24    238.7910    958.8515 299.9511470 +22.7349943    -124.1148     69.25095      1.115     3.88   -0.8902449     19.53282     37.66279         6     0.785     0.551  53.10   0
        25    167.2896   1003.9681 299.9142383 +22.7264447     1033.444     69.19804      8.173     8.09     21.32915     19.53282      39.1599        13     1.934     0.946  59.50   3
        26    555.9891    955.0701 300.0510603 +22.8291360      716.496     69.21568      1.103     1.88    -12.73258     19.53282     158.5314         9     0.743     0.652 -51.44   0
        27    213.7086    998.2377 299.9305313 +22.7387456     1633.621     69.19804      9.142    10.16     18.33721     19.53282     47.65272        26     2.974     0.967 -22.32   3
        28    449.8227    951.6925 300.0191149 +22.7963026     442.9206     69.16274      1.121     2.05    -12.34163     19.53282     78.67124         7     0.700     0.602  -7.07   0
        29    380.5578    949.8950 299.9981493 +22.7749944     3093.759     69.23331      1.152     1.98     -11.9591     19.53282     499.6175        23     0.995     0.911 -85.93   0
        30    106.8646    948.5481 299.9134973 +22.6924198     1394.989     69.26857     11.989    13.00    0.7468367     19.53282     39.83532        36     2.284     2.059  17.28   1
        31     95.2137    941.7418 299.9120921 +22.6869705     1083.451     69.19804     10.178    10.71      -2.2642     19.53282     38.12321        16     2.790     1.145 -50.87   1
        32    926.7611    928.1765 300.1753376 +22.9326496      872.504     69.25095      1.049     1.93    -12.55767     19.53282     190.6641         9     0.713     0.674  79.45   0
        33    715.5585    916.8596 300.1131904 +22.8660569     265.8615     69.21568      1.411     3.40    -12.46612     19.53282     34.65231         5     0.760     0.439  68.10   0
        34     96.8873   1022.2494 299.8864112 +22.7105318     2061.711     61.02248      8.631    26.96     26.38544     19.53282     67.04689       152     6.643     3.039   6.89  27
        35    351.2933   1008.8704 299.9698519 +22.7831096     288.2574     69.35664      1.143     2.50    -12.34704     19.53282     39.84467         5     0.842     0.454  87.27   0
        36    750.4229    911.5612 300.1257773 +22.8749955     558.1055     69.25095      1.196     2.36     -12.4746     19.53282     84.80508        11     0.844     0.770  53.45   0
        37    772.6668    905.1329 300.1348004 +22.8798236     5683.284     69.28619      1.143     1.85    -12.45171     19.53282     1010.379        31     1.014     0.961 -68.10   0
        38    963.7877    904.6777 300.1945316 +22.9370080     208.1446     69.23331      1.365     3.41    -12.46118     19.53282     33.19751         6     0.716     0.659 -78.53   0
        39    818.3217    905.2321 300.1489968 +22.8935455     170.8311     69.21568      1.138     3.26    -12.46121     19.53282     47.55985         5     0.870     0.565 -38.28   0
        40    213.7417    992.2523 299.9324897 +22.7370408     1989.308     69.28619     10.179    14.66     15.94691     19.53282     51.47589        42     2.638     2.266  49.99   3
        41    781.1525    887.1671 300.1432905 +22.8772144     632.2058     69.26857      1.064     2.22    -12.39828     19.53282     127.9624         9     0.785     0.699 -20.62   0
        42    819.4496    880.8694 300.1572753 +22.8868935     459.3346     69.23331      1.024     2.53    -12.37946     19.53282     69.63612         6     0.758     0.493  83.03   0
        43    867.4038    871.8782 300.1751491 +22.8986942     332.2994     69.14508      1.255     4.05    -12.35516     19.53282     44.64601        10     0.973     0.816  53.68   0
        44    718.8526    871.1409 300.1290922 +22.8539300     223.7789     69.28619      1.073     2.08    -12.36235     19.53282     64.51491         6     0.716     0.572   6.45   0
        45    431.7608    867.4882 300.0408924 +22.7667416     2043.579     69.21568      1.120     1.94    -11.65375     19.53282     327.7861        20     0.969     0.876  88.34   0
        46    730.4699    867.9556 300.1337480 +22.8565009     384.5161     69.19804      1.324     1.62    -12.36145     19.53282     60.47572         6     0.672     0.499 -89.70   0
        47    156.7372    853.2333 299.9600047 +22.6800912      463.458     69.23331      1.263     2.14     -10.7964     19.53282     78.09501         7     0.791     0.563  65.13   0
        48    134.0287    850.2361 299.9539225 +22.6724132     799.7853     69.25095      1.310     2.64    -10.93413     19.53282     127.0557        12     0.961     0.805 -89.28   0
        49   1005.7139    838.8198 300.2290364 +22.9306731     1158.274     69.16274      1.209     2.20     -12.1823     19.53282      174.938        14     0.886     0.862 -56.96   0
        50    960.0175    837.5325 300.2152017 +22.9166049     941.2709     69.23331      1.087     1.92    -12.15965     19.53282     189.7721        12     0.864     0.712 -86.24   0
        51    665.3865    837.7245 300.1233074 +22.8283057     267.8779     69.25095      1.273     3.48     -11.9881     19.53282     29.22799         5     0.767     0.457 -74.11   0
        52    743.4415    831.5993 300.1496169 +22.8499607     410.4778     69.23331      1.020     3.44    -11.98501     19.53282     62.43133         8     1.087     0.472 -80.93   0
        53    197.7015    997.2716 299.9258701 +22.7336611      1634.02     69.37424      6.268    12.46     18.24894     19.53282     78.33755        37     3.322     1.301 -54.09   2
        54    611.5889    825.4696 300.1105387 +22.8086519      2297.35     69.23331      1.073     1.91    -11.80503     19.53282     381.2432        19     0.924     0.851 -80.46   0
        55    413.6459    822.6965 300.0498260 +22.7484626     436.6977     69.25095      1.544     3.27    -11.64679     19.53282     54.61012         8     0.922     0.687 -59.21   0
        56    631.8787    818.1331 300.1192437 +22.8126341     360.5236     69.33904      1.187     2.67    -11.73319     19.53282     64.34895         8     0.877     0.598  88.03   0
        57    161.8593    819.1796 299.9726727 +22.6718710     620.0237     69.18039      1.211     2.21     -10.9206     19.53282     104.9637         9     0.755     0.702 -80.12   0
        58    787.6714    805.1381 300.1720069 +22.8556323     1883.918     69.26857      1.108     1.78    -11.68114     19.53282     374.0031        18     0.984     0.789 -74.74   0
        59   1004.5096    805.3215 300.2395573 +22.9206951     505.4189     69.37424      1.055     2.26    -12.07361     19.53282     88.47763         9     0.780     0.699  42.15   0
        60    196.3624    799.8284 299.9896902 +22.6766847     249.3823     69.23331      1.264     4.52    -11.40738     19.53282     34.06635         5     0.844     0.689  26.25   0
        61    504.6024    797.6516 300.0862775 +22.7685750     270.9099     69.23331      0.930     2.64    -11.63843     19.53282     52.46866         7     0.886     0.475 -81.08   0
        62    150.9864    795.9698 299.9768417 +22.6619551      346.283     69.23331      1.066     2.13    -11.14499     19.53282     79.90968         9     0.759     0.701  36.88   0
        63    300.7668    787.9348 300.0260190 +22.7046172     26134.11     69.23331      1.230     1.97    -11.64919     19.53282     4499.971        64     1.175     1.083  78.69   0
        64    558.5349    786.7921 300.1065985 +22.7816414     682.5701     69.21568      1.112     2.21    -11.57272     19.53282     124.4224        10     0.797     0.756 -23.63   0
        65    971.5008    785.9340 300.2355669 +22.9052347     417.4383     69.32143      1.081     2.34    -11.91259     19.53282     73.10433         6     0.699     0.586 -49.76   0
        66    587.6911    782.8975 300.1169432 +22.7892709      484.414     69.40943      1.263     2.14    -11.46931     19.53282     76.80452         7     0.696     0.624  45.80   0
        67    598.3607    781.2213 300.1208107 +22.7919908     221.0604     69.26857      0.976     2.38    -11.42551     19.53282     45.22129         6     0.683     0.618 -20.61   0
        68    703.6674    777.3395 300.1548726 +22.8224632     195.8231     69.26857      0.982     3.11    -11.55332     19.53282     47.46981         5     0.961     0.338  68.59   0
        69    741.2481    767.6034 300.1697477 +22.8309398     389.1146     69.21568      1.034     2.18    -11.56819     19.53282     70.98975         7     0.772     0.572  69.47   0
        70    350.4381    765.1705 300.0488704 +22.7129991     15392.58     69.26857      1.183     2.01    -11.63384     19.53282     2265.108        48     1.115     1.029  84.68   0
        71    873.5244    760.7123 300.2132167 +22.8686236     1342.555     69.35664      1.057     1.90    -11.64386     19.53282     231.6549        14     0.910     0.740  81.53   0
        72    364.7463    765.5895 300.0531850 +22.7174133     1042.143     69.23331      1.308     2.19    -11.63935     19.53282     155.8332        14     0.981     0.823 -56.53   0
        73    631.3860    756.8039 300.1390358 +22.7948921     521.5137     69.09209      1.196     1.87    -11.31795     19.53282     77.46146         5     0.634     0.482 -80.56   0
        74    232.6893    757.0443 300.0148957 +22.6753272      445.597     69.25095      1.224     2.39    -11.23873     19.53282     69.71472         9     0.864     0.647  25.90   0
        75    478.5808    751.9544 300.0930388 +22.7476615     332.6284     69.26857      1.141     2.67    -11.58514     19.53282     60.62706         9     0.905     0.635 -39.02   0
        76     65.9078    745.9521 299.9666695 +22.6220759     187.1667     69.25095      1.309     2.38    -11.78177     19.53282     34.55869         5     0.852     0.761  -6.42   0
        77    230.3758    741.5439 300.0192163 +22.6701895     129.9362     69.23331      1.122     3.20    -11.05245     19.53282      44.4831         6     0.799     0.569  45.78   0
        78    523.5748    729.6727 300.1142886 +22.7547691      256.433     69.26857      1.092     3.42    -11.45279     19.53282     39.47455         5     0.723     0.469  73.43   0
        79    545.2570    727.3294 300.1218004 +22.7606012     752.4088     69.25095      1.154     1.89    -11.40444     19.53282     121.4808         9     0.747     0.644 -69.34   0
        80    939.8132    726.0863 300.2451463 +22.8785541     2270.218     69.18039      1.166     1.86    -11.51635     19.53282     427.3863        19     0.910     0.854  87.52   0
        81    928.3884    717.5496 300.2443591 +22.8726787     798.1558     69.26857      1.033     1.92    -11.40751     19.53282     135.3481        13     0.837     0.739 -50.72   0
        82    291.4242    711.6561 300.0479154 +22.6799444     342.7787     69.23331      1.169     2.27      -10.938     19.53282     51.38722         5     0.662     0.478 -73.99   0
        83    754.5527    708.7589 300.1930273 +22.8180417      1145.17     69.28619      1.079     1.90    -11.28458     19.53282     201.4043        12     0.794     0.749  83.78   0
        84    959.3096    707.6022 300.2572368 +22.8790903     810.7615     69.14509      1.105     1.97     -11.3222     19.53282     144.8441        11     0.817     0.710  72.10   0
        85    836.8773    694.6501 300.2232723 +22.8386734     253.3859     69.23331      1.295     4.02    -11.16792     19.53282     36.89048         7     0.866     0.616 -26.07   0
        86    139.8042    695.4040 300.0060636 +22.6297754      208.837     69.07442      1.025     1.88    -11.10234     19.53282     44.69246         5     0.650     0.475 -16.16   0
        87    873.0661    685.7634 300.2374432 +22.8469702     71669.66     69.23331      1.177     1.81    -11.12915     19.53282     14277.91       101     1.231     1.108  84.99   0
        88   1020.1351    687.5481 300.2827302 +22.8915599      584.633     68.34589      1.153     2.56    -11.24552     19.53282     108.5411        10     0.903     0.714  73.94  16
        89    635.8178    689.2485 300.1623805 +22.7768380     192.4386     69.26857      1.464     3.86    -10.96715     19.53282     37.63663         5     0.944     0.451 -46.57   0
        90    725.5251    686.0323 300.1913710 +22.8028154     306.9113     69.23331      0.988     2.39    -11.10726     19.53282     62.33021         6     0.769     0.498  86.45   0
        91    559.5256    674.6378 300.1433727 +22.7497645     785.5646     69.18039      1.086     2.18    -10.88201     19.53282      114.649        10     0.831     0.655  59.60   0
        92    740.5770    671.9574 300.2006364 +22.8032887     4542.249     69.28619      1.121     1.94    -11.01502     19.53282     803.8825        25     1.021     0.852  86.37   0
        93    242.1621    667.2396 300.0470357 +22.6524250     2507.583     69.30382      1.221     2.08    -10.68507     19.53282     389.8464        22     0.989     0.915  81.95   0
        94    324.0514    665.1601 300.0731767 +22.6764032     548.9738     69.23331      1.175     2.95    -10.53035     19.53282     91.83956        10     0.968     0.754  55.84   0
        95    524.1234    652.8434 300.1394353 +22.7328931     1494.409     69.21568      1.127     1.91    -10.68382     19.53282     293.8732        14     0.906     0.729  85.59   0
        96    514.1536    646.7496 300.1383124 +22.7281544     725.9349     69.26857      1.191     2.01     -10.6294     19.53282     127.9745        10     0.791     0.705  87.51   0
        97    443.0130    645.7764 300.1164870 +22.7065355     228.9132     69.23331      1.204     4.23    -10.68956     19.53282     31.94104         6     1.022     0.519 -79.55   0
        98    192.0703    641.4234 300.0398536 +22.6299894      294.319     69.25095      1.181     2.26    -10.70245     19.53282     55.08294         6     0.726     0.576 -67.01   0
        99    439.1252    636.4746 300.1183003 +22.7027009     890.4313     69.32143      1.260     2.13    -10.59286     19.53282     143.4615        16     1.065     0.832 -60.39   0
       100     93.1092    631.3900 300.0123591 +22.5974090     9669.462     69.18039      1.245     2.18     -10.9374     19.53282     1361.242        38     1.108     1.026 -87.32   0
       101    523.9717    631.7818 300.1462335 +22.7268048     541.9648     69.21568      1.204     2.30    -10.49337     19.53282     86.07166        10     0.847     0.702  84.69   0
       102    941.9589    617.5181 300.2811088 +22.8480217     359.6259     69.19804      1.129     2.48    -10.67562     19.53282     86.95758         9     0.833     0.730  28.39   0
       103     39.1020    615.3772 300.0007838 +22.5766065     770.4445     69.16274      1.649     4.87    -10.88334     19.53282     83.67617        15     1.441     0.875 -87.62   0
       104    808.6832    615.5914 300.2401821 +22.8075251     201.0348     69.18039      0.914     2.93    -10.66407     19.53282     40.97794         5     0.721     0.448  20.96   0
       105    487.3006    612.3755 300.1411253 +22.7102380      141.172     69.18039      0.891     3.46    -10.31199     19.53282     36.69174         5     0.767     0.451  16.53   0
       106    881.8505    610.5972 300.2646144 +22.8280209     434.0898     69.23331      1.402     3.63    -10.76205     19.53282     50.37351         9     0.958     0.704 -44.19   0
       107    444.0410    604.4421 300.1302400 +22.6949863     379.6755     69.32143      1.224     2.81    -10.26744     19.53282     61.22192         7     0.841     0.563  31.47   0
       108    639.6304    602.0720 300.1919027 +22.7529634     262.9457     69.23331      1.479     3.90    -10.24757     19.53282     32.29577         6     1.051     0.414  75.10   0
       109    609.6395    601.2577 300.1828269 +22.7437370     211.2483     69.21568      1.171     2.96    -10.14515     19.53282     33.13281         5     0.720     0.459 -75.42   0
       110    488.3650    600.3783 300.1453553 +22.7071151     429.2453     69.25095      1.334     2.88    -10.20975     19.53282     59.68912         7     0.811     0.663  16.79   0
       111    921.9789    595.8114 300.2819324 +22.8358005     1572.693     69.21568      1.167     1.89    -10.64726     19.53282     312.9941        14     0.923     0.739 -87.40   0
       112    453.8965    595.8517 300.1360986 +22.6954780     779.8867     69.30382      1.168     2.31    -10.19437     19.53282     143.9464        11     0.852     0.734  46.59   0
       113   1020.0828    593.7560 300.3132002 +22.8646052     344.6348     68.36376      1.215     2.08    -10.63245     19.53282     86.30375         7     0.699     0.636 -62.19  16
       114     15.8710    589.5803 300.0019499 +22.5622384     2410.338     69.26857      1.298     2.35    -10.87644     19.53282      338.268        21     1.013     0.935 -61.15   0
       115    317.2729    582.6055 300.0978969 +22.6506931      4376.13     69.18039      1.177     2.13     -10.4108     19.53282     658.3633        23     1.018     0.863  88.50   0
       116    439.6990    579.6324 300.1369506 +22.6865662     4571.388     69.21568      1.199     2.09    -10.07163     19.53282     712.2822        28     1.141     0.895  82.17   0
       117    851.2511    573.4104 300.2671589 +22.8081719     1003.126     69.25095      1.198     2.06    -10.60178     19.53282     159.9899        14     0.960     0.790 -67.99   0
       118    935.9332    570.8381 300.2943994 +22.8328095     6089.138     69.21568      1.178     1.88    -10.61486     19.53282      1151.98        33     1.042     0.952 -70.70   0
       119    500.2698    569.2402 300.1591788 +22.7017511     5543.066     69.21568      1.187     2.13    -9.953851     19.53282     851.2377        29     1.040     0.928  84.09   0
       120    669.6698    564.8563 300.2133526 +22.7512878     400.9541     69.25095      1.380     2.81     -10.0506     19.53282     45.73617         5     0.732     0.443  74.32   0
       121    227.7680    564.6700 300.0758916 +22.6186940      677.439     69.23331      1.161     2.11    -10.62451     19.53282     119.2542        11     0.898     0.681  47.43   0
       122    431.9573    557.3914 300.1417678 +22.6778631     2131.552     69.25095      1.229     2.16    -9.887698     19.53282     333.9078        16     0.969     0.818  81.62   0
       123    774.9697    557.3444 300.2486023 +22.7806963     331.0141     69.25095      1.264     2.94    -10.16534     19.53282     58.12332         6     0.905     0.448 -11.53   0
       124    410.2801    555.7958 300.1355410 +22.6709034     608.5032     69.14508      1.261     2.21    -9.943848     19.53282     107.1344         9     0.826     0.663 -79.07   0
       125    164.3572    555.4128 300.0591873 +22.5970112     328.6506     69.25095      1.077     2.42    -10.69229     19.53282      62.1198         6     0.772     0.509 -47.53   0
       126    851.6276    552.6928 300.2740080 +22.8023353     776.5505     69.18039      1.241     2.58    -10.52346     19.53282     109.3736        13     0.947     0.790 -39.87   0
       127    732.0865    549.9196 300.2376514 +22.7657107     523.5754     69.39185      1.326     2.54    -10.09172     19.53282     74.73212         8     0.821     0.650 -85.32   0
       128    548.5407    544.9592 300.1820948 +22.7092589     99427.59     69.23331      1.239     2.01    -9.764575     19.53282     15780.79       133     1.307     1.267 -78.48   0
       129    234.6952    545.0501 300.0844194 +22.6151459     1718.225     69.30382      1.280     2.09    -10.60693     19.53282     254.0256        20     0.997     0.942 -45.30   0
       130    439.0453    525.4019 300.1543661 +22.6708105     1465.784     69.23331      1.514     2.49     -9.75136     19.53282     197.9182        18     1.345     0.932 -88.30   0
       131    836.0651    511.2225 300.2826295 +22.7857621     830.2093     69.21568      1.137     2.21    -10.17518     19.53282     143.8413        14     1.093     0.696  85.32   0
       132    707.3331    509.1137 300.2431957 +22.7465754      1216.76     69.33904      1.132     2.19    -9.932815     19.53282     193.4743        15     0.944     0.760  63.37   0
       133    494.4279    504.8725 300.1782716 +22.6815281      450.737     69.23331      1.133     2.72    -9.646113     19.53282     58.75892         7     0.901     0.475  79.66   0
       134    964.6587    502.7467 300.3254812 +22.8218569     612.7218     69.28619      1.064     2.02    -10.31851     19.53282     117.3147         9     0.776     0.657  67.66   0
       135    950.2712    501.9984 300.3212368 +22.8173317     300.6687     69.16274      1.173     1.69     -10.3011     19.53282     73.63336         5     0.691     0.394  68.75   0
       136    836.3079    501.2360 300.2859493 +22.7829668     1022.545     69.18039      1.333     3.90    -10.12225     19.53282     168.2439        16     1.501     0.670  79.58   0
       137    375.6152    499.7526 300.1429614 +22.6444270     206.5195     69.26857      1.018     3.42    -9.858229     19.53282     32.29462         5     0.731     0.463  74.67   0
       138    874.4308    496.5562 300.2993547 +22.7930460     2087.233     69.26858      1.092     1.99    -10.18581     19.53282     314.7941        19     0.979     0.824  65.55   0
       139    589.2126    495.1977 300.2109240 +22.7071711     188.4961     69.07442      1.053     3.53    -9.368408     19.53282     31.52743         5     0.737     0.691 -33.63   0
       140    106.5560    487.2038 300.0633800 +22.5601070     539.3813     69.25095      1.330     2.40    -10.68858     19.53282     73.44063        10     0.806     0.786  66.54   0
       141    966.3757    486.7850 300.3312017 +22.8177857     361.4799     69.25095      0.965     2.50    -10.21417     19.53282     53.18332         7     0.787     0.590  62.86   0
       142    647.8212    466.9158 300.2383630 +22.7166216     281.1339     69.18039      1.190     3.44    -9.453028     19.53282     62.58874         6     0.951     0.564  47.26   0
       143    962.6403    459.7050 300.3388325 +22.8088867     165.3766     69.25095      1.159     3.81    -10.14461     19.53282     37.58693         5     0.883     0.472  43.85   0
       144    708.7814    459.1147 300.2598872 +22.7326533     385.1838     69.18039      1.078     2.31    -9.769534     19.53282     61.89392         8     0.758     0.641  58.58   0
       145    865.9212    455.3882 300.3100733 +22.7786714     446.5247     69.21568      1.127     1.95    -10.01942     19.53282     88.04024         8     0.740     0.621 -84.54   0
       146    850.5215    451.7350 300.3064587 +22.7730081     229.5243     69.32143      0.974     2.17    -10.00272     19.53282     47.16399         5     0.675     0.468  68.88   0
       147    594.5477    449.7788 300.2273369 +22.6957324     1589.455     69.23331      1.231     2.18    -9.119916     19.53282     222.1773        16     0.917     0.845 -74.00   0
       148    434.6305    436.8543 300.1817517 +22.6440769     287.2125     69.25095      1.448     3.34    -9.392637     19.53282     36.47765         5     0.764     0.423  68.52   0
       149   1005.8300    428.9443 300.3622952 +22.8129849     661.4278     69.25095      1.316     1.98    -10.16657     19.53282     116.3225         9     0.837     0.630 -83.01   0
       150    964.3059    427.5228 300.3498038 +22.8001392     493.7199     69.35664      1.079     2.10      -10.105     19.53282      82.3481         6     0.644     0.599 -25.82   0
       151    705.1168    423.9706 300.2701586 +22.7214631     428.7209     69.25095      1.211     2.69    -9.530689     19.53282     87.67112         9     0.847     0.729 -77.42   0
       152    500.8122    424.4252 300.2063860 +22.6603532     194.8237     69.23331      1.235     2.54    -9.263579     19.53282     32.31726         5     0.706     0.462 -19.31   0
       153    209.0742    422.0436 300.1164042 +22.5721780     429.2233     69.21568      1.525     4.53    -10.25475     19.53282     52.42545         7     1.026     0.657 -17.00   0
       154    271.4857    417.6456 300.1372377 +22.5896375     1864.188     69.21568      1.227     2.21    -9.702305     19.53282     257.7563        23     1.133     0.960  47.85   0
       155   1004.4093    415.9729 300.3660644 +22.8088320      2164.08     69.23331      1.189     2.00    -10.14844     19.53282      341.819        18     0.982     0.833  87.51   0
       156    218.7824    412.5536 300.1225037 +22.5723679       3810.5     69.26857      1.264     2.27    -10.17243     19.53282     510.3702        29     1.125     1.032  70.95   0
       157    984.5002    406.9917 300.3627700 +22.8002883     904.7072     69.12743      1.169     2.25    -10.09839     19.53282      163.405        17     1.069     0.808 -77.06   0
       158    359.6065    406.7492 300.1681840 +22.6129398     2450.416     69.23331      1.234     2.27    -9.255421     19.53282     333.9514        22     1.021     0.969  75.13   0
       159    603.6111    403.3573 300.2452337 +22.6851216     8742.217     69.23331      1.213     2.17    -9.004105     19.53282     1196.118        35     1.106     1.002  78.55   0
       160    621.5901    403.1666 300.2508949 +22.6904557     495.9251     69.23331      1.716     5.91    -9.018695     19.53282     41.25744        10     1.732     0.568 -45.03   0
       161    937.0373    386.0084 300.3547793 +22.7800431     383.2228     69.25095      1.195     2.42    -10.03911     19.53282     64.98172         7     0.790     0.559  47.53   0
       162    158.3902    383.6347 300.1131191 +22.5459557     1009.517     69.21568      1.272     2.68    -10.04838     19.53282     125.5462        13     0.989     0.761 -85.17   0
       163    544.2488    372.8372 300.2366583 +22.6585655     3274.664     69.25095      1.253     2.18    -9.211876     19.53282     469.4926        23     1.008     0.932  88.55   0
       164    957.8220    372.9022 300.3655172 +22.7825023     599.4404     69.16274      1.215     1.75     -10.0261     19.53282      109.554         8     0.698     0.630 -41.00   0
       165    259.3813    372.0307 300.1482832 +22.5729197     301.3215     69.23331      1.271     3.44    -9.640584     19.53282     44.71004         8     0.805     0.719 -16.21   0
       166    116.7153    365.5618 300.1060339 +22.5282693     297.4749     69.21568      1.206     3.32    -10.04582     19.53282     45.05627         5     0.752     0.425  24.40   0
       167    748.4138    361.8497 300.3038195 +22.7165961     544.9943     69.26857      1.322     2.98    -9.376729     19.53282     66.59122        11     0.979     0.737  64.00   0
       168    450.9353    359.0728 300.2120799 +22.6266408     3140.951     69.26857      1.311     2.12    -9.239129     19.53282     475.8165        22     1.019     0.939  69.90   0
       169    843.0052    353.2758 300.3360858 +22.7424720     738.4616     69.14508      1.200     2.63    -9.903872     19.53282     108.9305        13     0.957     0.815  36.12   0
       170    435.5436    348.1671 300.2108301 +22.6188958     234.4543     69.25095      1.215     3.08    -9.235185     19.53282       34.813         5     0.737     0.447 -67.87   0
       171    338.4738    338.4518 300.1837821 +22.5870030     1211.332     69.25095      1.268     2.35     -9.27448     19.53282     147.7256        14     0.932     0.830 -85.48   0
       172     57.0418    335.5599 300.0972303 +22.5017613     411.3331     69.32143      1.220     2.70    -9.671962     19.53282     78.26224         9     0.840     0.740 -35.54   0
       173    307.8244    327.8373 300.1776940 +22.5747662      14405.4     69.25095      1.295     2.20    -9.331743     19.53282     2179.481        45     1.188     1.045  84.39   0
       174    842.3280    325.1985 300.3449892 +22.7342022     460.7715     69.12743      1.129     2.65    -9.739592     19.53282     93.81927        10     0.977     0.608  73.55   0
       175      4.2499    315.7250 300.0872681 +22.4802335     2287.609     66.70051      1.268     2.17    -9.308637     19.53282     345.1669        22     1.062     0.927 -76.41  16
       176    718.2004    307.4249 300.3120716 +22.6919106     914.0114     69.18039      1.202     2.26    -9.186415     19.53282     131.7003        12     0.910     0.735  82.31   0
       177    933.3517    300.2298 300.3814762 +22.7542896     239.6257     69.25095      1.134     2.62    -9.958787     19.53282     44.75488         5     0.695     0.469  79.84   0
       178    379.9677    292.1773 300.2117096 +22.5861623     1136.678     69.23331      1.490     2.85    -9.184772     19.53282     119.6981        18     1.194     0.882  69.02   0
       179    819.0768    285.3034 300.3506898 +22.7157749     319.2552     69.35664      1.290     4.26    -9.460117     19.53282     45.14398         6     0.889     0.581 -87.05   0
       180    455.7909    271.4267 300.2420381 +22.6029350     499.0409     69.23331      1.194     2.37    -9.190875     19.53282     94.35887        12     0.904     0.779 -78.23   0
       181    700.6683    263.3139 300.3209248 +22.6739867     1008.939     69.32143      1.210     2.23    -9.256054     19.53282     138.3991        16     0.934     0.894 -89.91   0
       182    961.9709    257.6433 300.4042235 +22.7506196     1567.417     69.26857      1.158     2.02    -9.692951     19.53282     263.2562        14     0.915     0.735  78.99   0
       183     84.0821    241.5863 300.1361271 +22.4829161     580.8446     69.21568      1.512     3.42    -9.453571     19.53282      63.6596        13     1.130     0.857 -38.90   0
       184    977.7925    238.0871 300.4155047 +22.7497355     213.9137     69.14508      1.134     4.27    -9.546696     19.53282     46.20682         9     1.056     0.674  17.22   0
       185    772.1968    224.3081 300.3558708 +22.6842070     298.5363     69.12743      1.266     3.89    -9.449975     19.53282     49.64688         5     0.968     0.448  47.15   0
       186    870.4939    213.6898 300.3899579 +22.7105945     1013.112     69.39185      1.264     2.25     -9.49099     19.53282     155.8614        14     0.963     0.771  72.54   0
       187    289.0170    211.1258 300.2097170 +22.5356296     1053.456     69.23331      1.242     2.31    -9.011211     19.53282     163.0702        11     0.909     0.700 -86.75   0
       188    367.1496    206.2496 300.2356029 +22.5576523     513.1334     69.26857      1.332     3.94    -9.011398     19.53282     66.45999         9     0.921     0.787  45.41   0
       189    768.8723    205.4854 300.3609416 +22.6778027     253.8055     69.33904      1.322     3.43    -9.431198     19.53282      44.9248         5     0.781     0.435  22.30   0
       190    183.7694    198.4217 300.1811130 +22.5004268      404.122     69.23331      1.274     3.01    -9.183865     19.53282     65.22692         7     0.973     0.482  49.85   0
       191    721.5228    195.1057 300.3495537 +22.6606379     775.5504     69.33904      1.224     2.33     -9.35434     19.53282      111.264        11     0.867     0.734  44.99   0
       192    786.6720    194.3167 300.3701127 +22.6799243     352.8249     69.35664      1.391     4.36    -9.436899     19.53282     55.18762         5     0.767     0.706 -51.02   0
       193    205.1612    191.3764 300.1900487 +22.5048192     166.9038     69.25095      1.118     3.44    -9.143571     19.53282     26.81711         5     0.787     0.434  19.16   0
       194    992.8987    187.6854 300.4365701 +22.7397686     451.3223     69.39185      1.359     2.48     -9.31943     19.53282     61.53747         8     0.877     0.583  60.96   0
       195    725.6907    186.3818 300.3536825 +22.6593797     398.0871     69.16274      1.133     3.05    -9.357306     19.53282     59.38312         6     0.756     0.545 -40.78   0
       196    646.0554    185.8355 300.3290497 +22.6353679     531.0942     69.25095      1.140     2.22    -9.096149     19.53282     94.44714        10     0.809     0.702  87.12   0
       197    467.3159    182.4166 300.2745043 +22.5808307     201.5844     69.19804      1.363     4.85    -8.973166     19.53282     31.00101         5     1.040     0.641  62.11   0
       198    841.4398    177.2925 300.3927077 +22.6914332     743.2679     69.23331      1.103     2.17    -9.419424     19.53282      122.507        10     0.795     0.696  57.12   0
       199    572.2760    177.7236 300.3087030 +22.6109338     435.1891     69.32143      1.273     2.88    -8.833365     19.53282     56.47326         8     0.844     0.651  -3.78   0
       200    853.6829    176.4559 300.3967960 +22.6948589      425.384     69.30382      1.352     3.74    -9.416741     19.53282     58.98837         8     0.882     0.680  57.70   0
       201   1014.4288    167.2742 300.4499084 +22.7403451     730.7482     69.25095      1.135     2.25     -9.24445     19.53282     134.2604        10     0.902     0.683  56.93   0
       202    970.2064    166.7795 300.4362732 +22.7269648     506.2275     69.21568      1.209     2.69    -9.255236     19.53282     90.09305        11     0.959     0.721 -84.00   0
       203    204.2951    159.8286 300.2000124 +22.4955049       348.38     69.14508      0.991     2.23    -9.081518     19.53282     68.01357         7     0.800     0.556  31.30   0
       204     66.1509    154.7403 300.1587272 +22.4526207     1095.636     69.28619      1.353     2.42    -9.082572     19.53282     143.3654        15     1.001     0.866  68.29   0
       205    889.1300    151.2909 300.4160114 +22.6982392     268.8081     69.39185      1.184     2.75    -9.217077     19.53282     55.63153         6     0.859     0.443  39.55   0
       206    223.6451    148.2125 300.2097960 +22.4979721     2770.529     69.23331      1.333     2.31    -8.975809     19.53282     346.2148        21     1.121     0.898  77.72   0
       207      7.8414    142.5466 300.1445669 +22.4316343     653.8722     69.23331      1.329     3.18    -9.017657     19.53282     71.62518        12     1.010     0.758  86.48   0
       208   1022.3614    135.3250 300.4627467 +22.7335328     8830.612     60.54041      1.172     2.12    -9.225425     19.53282     1274.904        31     1.097     0.912  85.29  24
       209    867.6059    129.4084 300.4163976 +22.6855044     1589.686     69.09209      1.171     2.21    -8.943488     19.53282     232.4145        16     0.937     0.838 -78.36   0
       210    971.2717    128.1917 300.4491219 +22.7161892     1224.366     69.21568      1.098     2.17    -9.111518     19.53282     215.7064        15     0.943     0.772  78.36   0
       211    417.3046    124.6640 300.2776717 +22.5492582     299.1707     69.32143      1.432     2.65    -8.719668     19.53282     49.28904         6     0.813     0.507  48.38   0
       212    170.2430    125.6219 300.2005203 +22.4754773     189.7377     69.28619      1.030     3.47     -8.91112     19.53282     30.17743         5     0.760     0.457 -15.56   0
       213    107.2209    114.0808 300.1846751 +22.4532687     322.3618     69.19804      1.304     4.77    -8.836614     19.53282     40.35248         8     1.049     0.698  46.31   0
       214    468.5588    112.1135 300.2976932 +22.5610123     765.8373     69.21568      1.291     2.68    -8.652214     19.53282     98.33881        13     1.014     0.717  69.50   0
       215    395.9999    112.7339 300.2749112 +22.5394477     365.5532     69.19804      1.433     2.86    -8.735369     19.53282       37.672         7     0.714     0.677 -16.18   0
       216    242.6023     92.0358 300.2339080 +22.4875286     2850.203     69.21568      1.324     2.41    -8.752582     19.53282      391.185        24     1.057     0.983  45.47   0
       217     93.6955     91.5487 300.1877782 +22.4427466     412.7581     69.30382      1.455     4.13     -8.72878     19.53282      46.4128        10     1.001     0.803 -75.29   0
       218      4.0081     82.8278 300.1627410 +22.4133497     350.0619     65.96428      1.584     3.74     -9.19648     19.53282     32.08909         5     0.812     0.494  66.24  16
       219    488.5846     77.3180 300.3152097 +22.5570178     2919.263     69.21568      1.249     2.31     -8.52041     19.53282      360.284        22     1.021     0.944 -72.15   0
       220    374.0327     76.9637 300.2796752 +22.5225923     299.5439     69.25095      1.199     4.13    -8.725719     19.53282     39.20056         7     0.877     0.554 -46.53   0
       221    545.1793     71.6244 300.3346750 +22.5723370     181.1607     69.23331      1.188     3.49    -8.543085     19.53282     24.29317         5     0.786     0.447 -16.77   0
       222    741.0549     66.4778 300.3973579 +22.6295234     320.7112     69.26857      1.119     2.95     -8.06013     19.53282     60.05844         9     0.918     0.632 -77.08   0
       223    833.6663     65.3090 300.4266028 +22.6569165     216.3745     69.35664      1.141     2.64    -8.216971     19.53282      42.5038         5     0.708     0.462 -79.88   0
       224    181.3940     61.2171 300.2248700 +22.4603332      260.929     69.19804      1.238     3.92    -8.660655     19.53282     46.34047         5     0.840     0.602  52.33   0
       225    616.9928     57.2426 300.3617016 +22.5897156     3043.613     69.25095      1.281     2.34    -8.184373     19.53282     431.6037        23     1.060     0.931  70.13   0
       226    391.8302     56.2788 300.2919193 +22.5219849     827.6995     69.23331      1.356     2.50    -8.624812     19.53282     110.7703        14     0.967     0.923  53.56   0
       227    658.1422     54.7052 300.3753418 +22.6013106     421.3236     69.30382      1.300     2.23    -8.139781     19.53282     68.34791         7     0.783     0.573  35.26   0
       228    674.1502     50.5681 300.3816700 +22.6049158      313.842     69.26857      1.478     5.32    -8.076741     19.53282     34.75608         7     0.974     0.821  66.53   0
       229    141.1320     48.8016 300.2163799 +22.4446994     290.4992     69.19804      1.356     2.08    -8.666365     19.53282     53.09274         6     0.711     0.541 -47.33   0
       230    943.6302     48.0864 300.4664766 +22.6848818     336.8374     69.23331      1.103     3.32    -8.691571     19.53282     53.34656         5     0.776     0.411 -67.37   0
       231    661.1729     41.9536 300.3804201 +22.5985537      1318.85     69.26857      1.279     2.28    -7.963547     19.53282     207.3343        17     1.020     0.848 -88.78   0
       232    675.6899     40.1981 300.3855117 +22.6023966     419.3279     69.14508      1.570     3.16     -7.92703     19.53282     55.71344         7     0.850     0.590  55.81   0
       233    747.4241     33.6404 300.4099892 +22.6219920     684.3414     69.26857      1.138     2.27    -7.841017     19.53282     106.3529        10     0.850     0.685  52.97   0
       234    685.5623     26.5855 300.3930006 +22.6014407     437.8169     69.23331      1.298     3.25    -7.760889     19.53282     53.13568         8     0.961     0.653  58.22   0
       235    490.9766     26.2214 300.3325203 +22.5430559     442.8679     69.23331      1.275     2.86    -8.341822     19.53282     63.81123         9     0.913     0.664 -35.91   0
       236     64.1692     25.6513 300.1999672 +22.4149807     216.3561     69.26857      1.144     2.61     -8.88468     19.53282     43.21514         5     0.755     0.413 -22.06   0
       237    394.7240     24.2867 300.3031912 +22.5136633     271.3931     69.35664      1.202     2.09    -8.568398     19.53282     51.58134         5     0.698     0.435 -79.26   0
       238    777.1625     22.2560 300.4229482 +22.6276232     219.0593     69.23331      1.199     3.36     -7.75885     19.53282      32.0647         5     0.940     0.347 -47.30   0
       239     76.3124   1013.4991 299.8828672 +22.7018446     2809.039     69.39185     15.344    43.01     13.84353     19.53282     79.14062       498     7.856     6.536  80.67  27
       240    734.2800     14.8594 300.4119817 +22.6126579     297.0802     69.28619      1.395     2.69    -7.705237     19.53282     45.39917         6     0.740     0.563 -39.04   0
       241    171.3575   1000.8273 299.9165248 +22.7267669     788.6896     69.25095      3.810     6.11     20.20408     19.53282     32.45757        10     2.094     0.501 -48.60   3
       242    168.8022   1010.4980 299.9125830 +22.7287695     1371.737     69.14508      6.027    11.12     23.44001     19.53282     42.03297        29     2.923     1.180  -6.58  18
