#   1 NUMBER                 Running object number                                     
#   2 X_IMAGE                Object position along x                                    [pixel]
#   3 Y_IMAGE                Object position along y                                    [pixel]
#   4 ALPHA_J2000            Right ascension of barycenter (J2000)                      [deg]
#   5 DELTA_J2000            Declination of barycenter (J2000)                          [deg]
#   6 FLUX_APER              Flux vector within fixed circular aperture(s)              [count]
#   7 FLUXERR_APER           RMS error vector for aperture flux(es)                     [count]
#   8 FLUX_RADIUS            Fraction-of-light radii                                    [pixel]
#   9 FWHM_IMAGE             FWHM assuming a gaussian core                              [pixel]
#  10 BACKGROUND             Background at centroid position                            [count]
#  11 THRESHOLD              Detection threshold above background                       [count]
#  12 FLUX_MAX               Peak flux above background                                 [count]
#  13 ISOAREA_IMAGE          Isophotal area above Analysis threshold                    [pixel**2]
#  14 A_IMAGE                Profile RMS along major axis                               [pixel]
#  15 B_IMAGE                Profile RMS along minor axis                               [pixel]
#  16 THETA_IMAGE            Position angle (CCW/x)                                     [deg]
#  17 FLAGS                  Extraction flags                                          
         1    789.5621     15.3290 300.4334611 +22.6231905     1024.608      69.3399      1.184     2.36    -8.310447     19.56788     125.5801        15     0.996     0.872  66.35   0
         2    173.0047     10.7143 300.2430805 +22.4371324     458.6027     69.28687      1.293     3.60    -8.433242     19.56788     60.18793        10     0.964     0.864 -33.95   0
         3    964.3564      8.5729 300.4901426 +22.6735771     377.4212     69.37523      1.117     3.00    -9.040233     19.56788     59.11029         5     0.704     0.475 -15.26   0
         4    737.8627      7.7446 300.4198116 +22.6055284     401.4444     69.41055      1.256     2.66    -8.302323     19.56788     68.16283         9     0.866     0.682 -64.44   0
         5    638.8738   1012.2372 300.0625562 +22.8643156     4522.434     69.30455      1.174     1.83    -13.46665     19.56788     861.3802        27     1.007     0.921 -57.19   3
         6    200.1021   1014.4380 299.9253542 +22.7331902     2506.212     69.35757     12.485    31.20     9.761755     19.56788     67.95059       208     5.708     4.734  11.23  27
         7    238.9472   1002.4901 299.9413172 +22.7414356     4463.864     69.39289     10.073    32.92    0.3611667     19.56788     109.2079       515     9.257     5.231  66.22  26
         8    172.8360   1018.5206 299.9155521 +22.7261685     1231.963     69.30455      5.008     7.93     14.75156     19.56788     41.11324        17     2.192     0.801 -39.95  19
         9     77.2693   1018.0183 299.8860272 +22.6973104     2321.322     69.37523     24.373    59.09     9.279932     19.56788     64.66761       431    14.279     6.786  32.16  27
        10     77.9030    945.2295 299.9099214 +22.6766482      1605.98     69.30455     24.887    49.74    -6.154734     19.56788     59.53598       387     9.815     6.996 -45.07   3
        11    168.3394   1003.9855 299.9188877 +22.7206530     902.9804     69.32223      5.793     5.69     11.58514     19.56788     35.95777        10     1.571     0.581  61.34   3
        12    109.1161   1007.9160 299.8992087 +22.7039856     647.2286     69.48112      3.833     4.06     13.75506     19.56788     38.19735         5     1.394     0.337 -58.33   0
        13    161.9071   1022.8561 299.9107446 +22.7241272     435.8693     58.30045      2.667     3.79     17.36738     19.56788     40.05624         5     1.065     0.386 -33.60  26
        14     81.8596   1007.1680 299.8909858 +22.6955815      786.986     69.39289      4.599     3.67     8.582757     19.56788     40.91802         5     1.021     0.530 -33.04   1
        15    142.7847    983.3055 299.9176809 +22.7070504     698.7362     69.28687      5.495     8.52     6.890421     19.56788     36.08675        12     1.739     1.167  10.83   0
        16    651.5847    981.6163 300.0764850 +22.8593479     3415.516     69.32223      1.132     1.97    -13.31831     19.56788     540.1316        24     0.999     0.916  71.74   0
        17     82.2359    981.5728 299.8994360 +22.6883622     2763.861     69.37523     23.653    47.06     2.829471     19.56788     60.83091       550    10.794     5.694  57.29  19
        18    242.5557    975.9279 299.9510870 +22.7349074     19.53273      69.3399      0.880     1.88    -4.579987     19.56788     67.74569         6     0.715     0.489 -80.46   0
        19    559.8772    972.2791 300.0509747 +22.8291438     743.6423     69.46349      1.170     3.33     -13.3215     19.56788     143.4849        13     1.058     0.744   3.24   0
        20    106.3244    971.2063 299.9102932 +22.6926298     769.2339     69.28687      3.923     3.80     3.443825     19.56788     28.19495         5     1.041     0.399  -4.16   1
        21    733.4899   1015.0108 300.0911191 +22.8935077     296.1693     69.30455      1.014     1.75    -13.75165     19.56788     70.05255         6     0.689     0.500 -89.76   0
        22     76.3025    964.5447 299.9031366 +22.6817011     2001.787     69.44585     16.564    20.55    -2.196944     19.56788     48.88593       106     6.166     1.902  -6.52   3
        23    453.8823    968.7551 300.0191380 +22.7963131     413.2602     69.32223      1.122     2.11    -13.46599     19.56788     102.9191        10     1.002     0.633 -36.47   0
        24    384.5464    966.9128 299.9981698 +22.7749663      3204.37     69.39289      1.127     1.93    -13.06738     19.56788      542.934        21     0.936     0.866 -36.56   0
        25    114.8829    966.5739 299.9144599 +22.6938739     771.2967      69.3399      5.039     7.04     2.390113     19.56788     37.04659         8     1.417     0.981  58.14   1
        26    109.8294    966.1678 299.9130223 +22.6922392     1004.671     69.35757      4.967     6.68     2.077554     19.56788     41.94668        11     1.377     0.909  81.19   1
        27    416.8266    953.6335 300.0125334 +22.7808517     221.7807     69.37523      1.117     2.32    -13.27687     19.56788     45.85474         6     0.704     0.594 -70.68   0
        28    930.8679    945.4803 300.1752683 +22.9327717     1032.642     69.46349      1.105     1.78    -13.27295     19.56788     187.4814        12     0.871     0.680  86.66   0
        29     62.6282    987.5415 299.8914029 +22.6841805     2146.325     69.35757     23.424    35.17   -0.8116708     19.56788      60.3978       218     6.021     5.701  -5.00  19
        30    885.0015    942.0313 300.1620929 +22.9180245     3458.416     69.32223      0.427   -14.35    -13.18281     19.56788     3026.052         8     0.411     0.391 -46.13   0
        31    166.4550   1006.5825 299.9174566 +22.7208310     990.3414      69.3399      5.617     8.44       12.624     19.56788      34.0443        13     1.787     1.112   9.40   2
        32    719.6449    933.2786 300.1134186 +22.8659050     463.3354     69.35757      1.596     3.57    -12.80253     19.56788     45.84152         5     0.889     0.413 -43.70   2
        33    218.5880   1013.1149 299.9315300 +22.7383644     3116.462     69.30455     11.877    31.60     6.929595     19.56788     69.30724       286     5.775     4.828 -72.43  19
        34    175.6327   1013.0928 299.9181885 +22.7254536     691.5126     69.30455      4.120     5.12     12.81582     19.56788     30.86593         5     1.181     0.627 -26.90   1
        35    754.5307    928.7561 300.1257579 +22.8750745      540.567     69.32223      1.153     2.16    -12.84765     19.56788     89.04028         6     0.710     0.494 -81.67   0
        36    776.6867    922.2628 300.1347742 +22.8798585     5370.621     69.46349      1.063     1.80    -12.88949     19.56788     1048.974        28     0.995     0.854 -79.41   0
        37    822.4886    921.9138 300.1491592 +22.8934988      322.912     69.51638      1.340     4.40    -13.01109     19.56788     39.54984         7     0.941     0.839  53.51   0
        38    926.3063    997.9106 300.1567743 +22.9464519     380.2068     69.51638      0.937     2.00    -13.55767     19.56788     83.15047         7     0.696     0.621 -73.46   0
        39    481.6998    910.5911 300.0467274 +22.7879855     273.1992      69.2338      1.030     3.48     -12.8468     19.56788     33.61641         5     0.737     0.474  13.36   0
        40    785.1453    904.1881 300.1432933 +22.8772093     661.8312     69.35757      1.102     2.03    -12.73042     19.56788     129.0344         9     0.748     0.657  49.32   0
        41    823.2758    897.7261 300.1572781 +22.8867932     506.7239     69.44585      1.110     1.92    -12.79388     19.56788     90.51669         6     0.655     0.584  79.88   0
        42    871.8160    888.7183 300.1753380 +22.8987674     165.8578      69.3399      1.099     2.27     -12.9224     19.56788     61.13129         7     0.811     0.581  78.92   0
        43    723.0307    888.0452 300.1291973 +22.8539420     351.9858     69.39289      1.022     1.79    -12.44327     19.56788     77.35068         5     0.615     0.512 -89.31   0
        44    435.7227    884.6538 300.0408648 +22.7667455     2136.658     69.39289      1.137     2.00     -12.5362     19.56788     345.0988        19     0.984     0.840 -51.61   0
        45    161.0861    870.2813 299.9601560 +22.6801593     342.1667     69.49876      0.997     2.22     -11.3311     19.56788     69.18131         7     0.802     0.541 -29.62   0
        46    138.0674    867.4662 299.9539201 +22.6724388     741.1438     69.41055      1.153     2.10     -11.7846     19.56788     129.6178        13     0.870     0.795  78.59   0
        47    183.2626    866.4658 299.9682886 +22.6857263     1326.913     69.39289      0.720     0.81    -11.62568     19.56788     666.9081         7     0.600     0.429  59.77   0
        48   1009.7295    856.1069 300.2289516 +22.9307621     1091.165     69.48112      1.129     1.69     -12.5485     19.56788     216.2359        14     0.868     0.789 -35.63   0
        49    963.9045    854.6481 300.2151359 +22.9166032     985.0852     69.39289      1.046     1.63     -12.6679     19.56788     205.1382        11     0.797     0.668  79.97   0
        50    170.1430    849.2188 299.9698241 +22.6768426     242.5688     69.35757      1.208     5.48    -11.68669     19.56788     38.16602         7     1.134     0.748   6.95   0
        51    747.3144    848.5659 300.1496105 +22.8498979     266.4685     69.32223      1.045     2.40     -12.2462     19.56788     56.46011         5     0.669     0.485 -13.05   0
        52    615.6380    842.6866 300.1105154 +22.8087051      2284.57      69.3399      1.089     1.94     -12.4247     19.56788      357.499        18     0.898     0.837  87.80   0
        53    105.0441    843.5790 299.9514338 +22.6556739     151.4049     69.41055      1.007     3.15    -12.17842     19.56788     40.04855         5     0.735     0.629 -79.65   0
        54    417.9473    839.5176 300.0500237 +22.7484654     319.0228     69.39289      1.049     2.11    -12.06157     19.56788     49.12157         6     0.727     0.500  -0.01   0
        55    166.0279    836.5539 299.9726663 +22.6719766     657.9052     69.39289      1.193     2.09    -11.70102     19.56788     99.08123         9     0.855     0.659 -87.98   0
        56    636.5029    834.8333 300.1195674 +22.8127124     299.9513      69.3399      1.088     3.00    -12.33354     19.56788     72.20044         7     0.936     0.481 -80.21   0
        57   1008.4562    822.3563 300.2395380 +22.9206886     464.1468     69.35757      1.054     2.12    -12.61293     19.56788     91.71778         8     0.804     0.592  86.38   0
        58    791.6115    822.3404 300.1719456 +22.8556583     2092.075     69.32223      1.042     1.67    -12.20762     19.56788     391.6033        14     0.846     0.722 -48.50   0
        59    199.8064    816.9926 299.9895276 +22.6765134       247.36     69.21609      1.085     3.96    -11.69444     19.56788     42.68525         6     1.092     0.411  64.30   0
        60    508.6590    814.7302 300.0863128 +22.7685822     240.5444     69.37523      0.942     2.00    -12.08375     19.56788     60.90783         5     0.660     0.468  80.35   0
        61    154.9801    813.2108 299.9768284 +22.6619677     439.3085      69.3399      1.202     2.01    -11.76594     19.56788     92.86531         9     0.809     0.660  70.29   0
        62    304.7378    805.0847 300.0260194 +22.7046058     26129.23     69.46349      1.173     1.90    -11.76082     19.56788     4725.059        59     1.111     1.035 -84.22   0
        63    570.2213    808.2718 300.1075748 +22.7852034     328.5302     69.35757      1.261     2.95     -12.2536     19.56788     40.70049         6     0.715     0.638 -71.39   0
        64    562.5839    804.0059 300.1065854 +22.7816878     776.1862     69.28687      1.128     2.25    -12.22884     19.56788     133.5252         9     0.812     0.661  64.55   0
        65    975.4622    803.0112 300.2355434 +22.9052415     385.3275     69.30455      1.147     1.76    -12.52181     19.56788     87.59561         6     0.699     0.497  84.98   0
        66    591.4290    800.0082 300.1168654 +22.7891960     439.9583     69.35757      0.977     1.53    -12.21473     19.56788     102.2035         6     0.650     0.492  83.06   0
        67    602.3928    798.6611 300.1207169 +22.7920990     373.4519      69.3399      1.198     2.67    -12.21095     19.56788     58.00167         5     0.717     0.442 -68.52   0
        68    745.4820    784.9119 300.1697518 +22.8310790     432.1268     69.46349      1.283     2.05    -12.01863     19.56788     73.23336         8     0.768     0.630  32.96   0
        69    354.4661    782.2723 300.0489042 +22.7129925     15284.68     69.39289      1.138     1.98    -11.56359     19.56788     2335.368        45     1.061     1.000  87.99   0
        70    368.7267    782.7250 300.0531919 +22.7174031     1020.272      69.4282      1.149     2.06    -11.57371     19.56788     162.3465        13     0.881     0.816 -13.39   0
        71    877.4408    777.9213 300.2131465 +22.8686468     1255.381      69.3399      1.018     1.84    -12.04947     19.56788     254.4187        13     0.870     0.704  79.32   0
        72    906.9674    776.0141 300.2229711 +22.8769527     184.1305     69.35757      1.385     2.70    -12.12553     19.56788     37.58276         5     0.641     0.566  89.71   0
        73    635.4797    773.9988 300.1390421 +22.7949491     600.5019     69.25149      1.300     2.25    -11.95307     19.56788     79.89407         8     0.730     0.646 -54.66   0
        74    472.0031    774.1146 300.0881203 +22.7459304     229.0948     69.28687      1.072     3.68     -11.4206     19.56788      35.3833         5     0.807     0.488  65.37   0
        75    236.7878    774.2515 300.0149261 +22.6753642     264.8943     69.37523      1.057     2.51     -11.4711     19.56788      76.9258         8     0.801     0.667 -22.27   0
        76     41.5925    769.8430 299.9557139 +22.6154833     209.4025     69.37523      1.092     2.36    -12.09632     19.56788     42.60566         5     0.713     0.442  67.45   0
        77    482.3075    768.9236 300.0930152 +22.7475336     450.9775     69.49876      1.140     2.48    -11.34998     19.56788      60.3384         8     0.790     0.641  49.16   0
        78    883.5046    765.4006 300.2191100 +22.8668701    -267.1281      69.2338      1.050     3.21    -11.97869     19.56788     39.32075         6     0.845     0.490   0.22   0
        79    861.3223    760.2003 300.2138876 +22.8587255     178.9112      69.2338      1.208     3.40      -11.872     19.56788     36.13876         5     0.757     0.441  75.51   0
        80    234.7916    758.5806 300.0194032 +22.6702716     378.5003     69.32223      1.190     3.10    -11.35203     19.56788     47.90208         5     0.716     0.481  11.87   0
        81    549.4215    744.3675 300.1218898 +22.7606270     702.5898     69.35757      1.053     2.19    -11.11177     19.56788     117.5341        11     0.818     0.734  -4.49   0
        82    943.8215    743.2145 300.2451315 +22.8785836      2282.17      69.3399      1.075     1.78    -12.04969     19.56788     473.9214        18     0.883     0.802 -85.70   0
        83    469.1763    743.9000 300.0970692 +22.7364143     223.4329     69.30455      1.227     4.29    -11.05526     19.56788     32.98492         5     0.756     0.694  73.45   0
        84    932.2950    734.6059 300.2443380 +22.8726557     762.6873     69.25149      1.080     1.91    -11.95334     19.56788     143.1717        11     0.798     0.703 -88.79   0
        85    295.4752    728.8771 300.0479291 +22.6799717     375.1938     69.44585      0.969     1.85    -11.08131     19.56788     73.41846         6     0.698     0.499  88.42   0
        86    758.5487    726.0768 300.1929619 +22.8181091     1223.158     69.35757      1.055     1.86     -11.5078     19.56788     232.1061        13     0.814     0.769  60.59   0
        87    963.4792    724.6475 300.2573006 +22.8791443     737.8898     69.37523      1.003     2.09    -11.90705     19.56788      139.506        11     0.789     0.712 -57.26   0
        88    143.8844    712.6108 300.0061034 +22.6297967     268.3966     69.32223      1.058     2.37    -11.43908     19.56788     51.25349         6     0.710     0.599 -67.31   0
        89    877.0629    702.9313 300.2374222 +22.8470008     71629.59     69.41055      1.137     1.72    -11.40899     19.56788     15885.15        92     1.148     1.044  87.92   0
        90   1023.6881    704.3969 300.2826645 +22.8913751     431.0052      53.7515      0.905     2.34    -11.80301     19.56788     109.2521         7     0.867     0.537  70.39  24
        91    729.4753    703.0552 300.1913925 +22.8027811     359.3249     69.39289      0.983     2.07     -11.3066     19.56788     71.97846         6     0.729     0.499 -89.17   0
        92    563.2713    691.7181 300.1433245 +22.7496741     780.4946     69.48112      1.128     2.29    -10.88206     19.56788     138.6313        12     0.906     0.764  43.17   0
        93    744.5471    689.0408 300.2006454 +22.8032777     4521.719      69.3399      1.131     1.91    -11.19577     19.56788     747.2242        26     0.996     0.898  69.81   0
        94    246.2088    684.4070 300.0470751 +22.6524294     2372.991     69.21609      1.182     2.03    -10.95056     19.56788     377.0167        19     0.915     0.883 -51.71   0
        95    328.0718    682.6061 300.0731123 +22.6764847      676.728     69.30455      1.185     2.23    -10.92611     19.56788     101.3586        10     0.801     0.718 -82.03   0
        96    203.9284    680.0020 300.0353659 +22.6384739      309.058     69.30455      1.241     4.09    -10.96083     19.56788     46.36005         8     0.959     0.641   0.78   0
        97    536.2205    677.7719 300.1394399 +22.7375566     412.4766     69.35757      1.360     4.40    -10.79426     19.56788     49.75193         9     1.156     0.603  25.25   0
        98    528.1457    670.0870 300.1394256 +22.7329288     1491.262     69.39289      1.183     1.89    -10.75609     19.56788     293.1891        17     0.933     0.837  26.02   0
        99    518.3120    663.7896 300.1384128 +22.7281715     733.1443     69.30455      1.192     2.07    -10.70659     19.56788     122.2043        10     0.798     0.706  56.40   0
       100    912.2322    661.6117 300.2618233 +22.8456775     124.4544      69.3399      0.994     3.11    -11.01499     19.56788     43.79169         6     0.945     0.540 -34.89   0
       101    181.8190    659.9619 300.0350109 +22.6260899     341.5946     69.35757      1.370     2.83    -10.86493     19.56788     53.33537         6     0.901     0.423  50.11   0
       102    221.7120    655.1218 300.0489829 +22.6366774     280.2783     69.49876      1.135     2.56    -10.84581     19.56788     56.44193         7     0.750     0.614 -70.55   0
       103    443.0320    653.5619 300.1183135 +22.7026507     742.1764     69.39289      1.051     2.01    -10.69868     19.56788     137.7057        12     0.865     0.771  81.91   0
       104   1018.7084    650.6785 300.2985811 +22.8744508     395.3297     69.49876      1.118     2.06    -11.36791     19.56788     80.01602         6     0.679     0.572 -49.07   0
       105     97.1294    648.6396 300.0123786 +22.5974174     9664.871     69.30455      1.201     2.10     -10.9917     19.56788     1451.747        37     1.044     1.015  63.64   0
       106     17.8934    650.4281 299.9871871 +22.5741379     236.2815     69.26918      1.151     2.84    -10.99907     19.56788     58.11951         6     0.915     0.493  -3.46   0
       107    527.9709    648.9131 300.1462561 +22.7268000     479.7017     69.35757      1.181     2.30    -10.57366     19.56788     76.28628         9     0.749     0.733 -46.06   0
       108    945.9839    634.9617 300.2810121 +22.8481396     458.8224     69.37523      1.097     2.01    -10.89686     19.56788     113.5536        10     0.845     0.705  67.47   0
       109     43.1756    632.8375 300.0007573 +22.5766868     644.0587     69.37523      1.496     5.36    -10.87379     19.56788     79.26947        11     1.299     0.624 -84.56   0
       110    812.6305    632.6039 300.2402105 +22.8074873     297.5958     69.32223      1.410     2.49    -10.75546     19.56788     57.23923         5     0.856     0.482 -87.33   0
       111    108.8347    633.1649 300.0210459 +22.5964948     167.7834      69.4282      1.245     3.71    -10.85347     19.56788     42.37523         5     1.069     0.370   1.55   0
       112    886.3469    627.6814 300.2647865 +22.8281726     472.9312     69.39289      1.188     2.26    -10.72285     19.56788      63.5297         5     0.668     0.475 -85.46   0
       113    448.2171    621.4015 300.1303829 +22.6949783     387.9939     69.26918      1.349     3.60    -10.43498     19.56788     55.31203         8     0.961     0.596 -86.82   0
       114    643.4546    618.6391 300.1920508 +22.7527494     172.2567     69.35757      1.042     3.70    -10.50762     19.56788      41.3379         6     0.926     0.425 -71.60   0
       115    613.6138    617.9313 300.1829893 +22.7435966     280.6787     69.37523      1.222     3.70    -10.39743     19.56788     37.22952         7     0.822     0.646  20.57   0
       116    492.1859    617.4085 300.1453623 +22.7070235     424.8453     69.26918      1.194     3.31    -10.35437     19.56788     53.33915         7     0.905     0.611 -14.18   0
       117    926.0320    612.9832 300.2819372 +22.8358460     1600.222      69.3399      1.130     1.84    -10.60279     19.56788     336.2643        15     0.898     0.796   7.81   0
       118    457.8060    613.0706 300.1360747 +22.6954645     740.1317     69.32223      1.191     2.20     -10.3638     19.56788     130.4316        12     0.960     0.717  19.44   0
       119     19.9297    606.8292 300.0019927 +22.5622505     2543.515     69.35757      1.271     2.06    -10.69691     19.56788     399.9436        20     0.965     0.905 -78.43   0
       120    321.2821    599.8734 300.0978991 +22.6507142     4475.441     69.48112      1.211     2.20     -10.4327     19.56788     671.7723        27     1.049     0.949 -86.93   0
       121    443.6733    596.8203 300.1369602 +22.6865613      4289.95     69.35757      1.193     2.00    -10.27551     19.56788      723.847        26     1.018     0.922  81.38   0
       122    855.2803    590.6305 300.2671486 +22.8082182     933.7455     69.35757      1.128     2.18    -10.55756     19.56788     149.4758        12     0.909     0.721 -83.89   0
       123    939.8723    587.9825 300.2943803 +22.8328122     6118.514     69.35757      1.143     1.82    -10.62357     19.56788     1230.018        30     0.980     0.922 -66.61   0
       124    501.1050    586.9916 300.1580257 +22.7009695     6071.847     69.25149      0.637     1.35    -10.07511     19.56788     2889.178        12     0.661     0.462  88.13   3
       125    504.4534    586.4812 300.1592337 +22.7018274     5454.543     69.37523      1.127     2.30    -10.06175     19.56788     771.5462        22     1.006     0.857  85.18   3
       126    231.5379    581.8657 300.0758514 +22.6186157     601.0372     69.39289      1.290     2.22     -10.6493     19.56788     96.50279        10     0.804     0.728  -3.56   0
       127    435.9310    574.6005 300.1417740 +22.6778622     2176.186     69.32223      1.263     2.24    -10.18219     19.56788      300.673        20     1.008     0.883  80.67   0
       128    778.5027    574.2668 300.2485415 +22.7805025     362.1952     69.44585      1.127     2.45    -10.52704     19.56788     66.85085         6     0.687     0.596  24.02   0
       129    414.2368    573.1652 300.1354915 +22.6709418     582.8754      69.4282      1.253     2.60    -10.26136     19.56788     83.86344         9     0.877     0.662  83.32   0
       130    168.5961    571.9438 300.0595145 +22.5968784     486.6377     69.32223      1.327     3.62    -10.67635     19.56788     63.57806         7     0.982     0.668 -61.45   0
       131    855.7944    569.8786 300.2740546 +22.8024116     727.4031     69.28687      1.294     2.84    -10.55648     19.56788     105.7206        13     1.000     0.800 -61.21   0
       132    552.5186    562.0961 300.1821197 +22.7092449     99159.45     69.49876      1.233     2.09    -9.811873     19.56788      14991.7       134     1.282     1.251 -60.53   0
       133    736.1895    567.0396 300.2377079 +22.7657413     356.0643     69.35757      1.188     2.17    -10.44463     19.56788     71.13554         8     0.796     0.607 -46.13   0
       134    238.5843    562.2754 300.0844090 +22.6151110     1752.153     69.35757      1.254     2.20    -10.61399     19.56788     274.1314        18     0.979     0.903  65.81   0
       135    443.1246    542.4045 300.1544763 +22.6707803     1369.397     69.26918      1.307     2.26    -9.972037     19.56788     176.4083        19     1.171     0.880  88.82   0
       136    287.3378    544.4884 300.1053462 +22.6246387     219.1773      69.4282      1.204     3.40    -10.36418     19.56788     39.42245         5     0.776     0.432  22.97   0
       137    840.0962    528.4273 300.2826346 +22.7857994     829.5839     69.28687      1.091     1.99    -10.55927     19.56788     135.8602        12     0.859     0.746  31.76   0
       138    711.2374    526.1618 300.2432211 +22.7465215     1305.932      69.4282      1.273     2.28    -10.11991     19.56788     179.7837        17     0.982     0.908  20.12   0
       139    498.5275    522.1450 300.1782997 +22.6815835     265.8009     69.35757      1.142     1.80    -9.683861     19.56788     63.55996         5     0.674     0.450  64.52   0
       140    968.6722    519.8685 300.3255004 +22.8218726     607.9944      69.4282      1.068     2.86    -10.39853     19.56788     123.7884        11     0.937     0.724  28.18   0
       141    954.4351    518.8241 300.3214002 +22.8173064     271.8602     69.37523      1.047     1.85    -10.43975     19.56788     61.80964         5     0.653     0.472 -70.44   0
       142    840.4810    518.8591 300.2858642 +22.7831662     1027.413      69.4282      1.188     1.96     -10.5624     19.56788     159.4267        14     0.870     0.804  45.86   0
       143    878.4987    513.5771 300.2994306 +22.7930429     2047.439     69.28687      1.089     2.07    -10.56284     19.56788     298.5677        17     0.981     0.794  64.01   0
       144    110.8116    504.1869 300.0635790 +22.5601007     429.4643     69.26918      1.192     2.43    -10.75159     19.56788     75.89653         9     0.872     0.630 -81.43   0
       145    970.3494    503.8627 300.3312250 +22.8177759     238.3043     69.41055      1.019     2.02    -10.33474     19.56788     75.27566         7     0.751     0.592 -12.57   0
       146    651.8864    484.0418 300.2384233 +22.7166317     326.0515      69.3399      1.198     2.23     -9.71409     19.56788     64.45619         8     0.772     0.647  50.08   0
       147    966.7098    476.5494 300.3389656 +22.8088365     177.9057     69.35757      1.019     3.18    -10.24489     19.56788     43.79902         5     0.732     0.438  23.80   0
       148    712.8528    476.2069 300.2599573 +22.7326588     364.8943      69.3399      1.216     2.25    -10.08735     19.56788     62.88431         8     0.782     0.634  55.58   0
       149    870.1331    472.4208 300.3101967 +22.7787115     422.1817      69.3399      1.112     3.04     -10.5714     19.56788     72.77874         9     1.058     0.587  65.48   0
       150    655.6415    472.1814 300.2434463 +22.7143515     5383.754     69.37523      0.694     1.04     -9.71516     19.56788     2416.044         9     0.518     0.491  21.28   0
       151    854.2866    469.0434 300.3063548 +22.7729923      496.324      69.3399      1.331     1.93    -10.55882     19.56788     85.75296         9     0.798     0.653 -13.60   0
       152    834.6088    469.2384 300.3001583 +22.7671512     176.5485     69.37523      1.040     3.35    -10.51927     19.56788     33.62218         5     0.720     0.471 -76.56   0
       153    598.5552    467.0034 300.2273531 +22.6957490     1504.366     69.35757      1.240     2.22    -9.623488     19.56788     225.2729        17     0.949     0.881  75.46   0
       154    959.1896    465.7420 300.3401321 +22.8034776      179.545     69.32223      1.094     2.31     -10.2313     19.56788     41.76862         6     0.704     0.564 -49.27   0
       155   1009.7375    445.9268 300.3623344 +22.8129264      593.627     69.39289      1.019     1.72    -9.964542     19.56788     145.3239         7     0.675     0.606 -87.65   0
       156    881.7764    445.7733 300.3224841 +22.7745440     316.9867      69.3399      1.041     2.48    -10.46552     19.56788     52.39318         5     0.858     0.352 -45.82   0
       157    968.1102    444.3990 300.3498483 +22.8000165     378.0241     69.26918      1.080     2.84    -10.09719     19.56788     80.42298         9     0.921     0.642  88.84   0
       158    709.0426    441.0513 300.2701924 +22.7214191     463.3617     69.39289      1.314     3.59    -9.897112     19.56788      81.2287        10     1.029     0.708  47.28   0
       159    505.2401    441.9296 300.2064520 +22.6605686     346.3364     69.32223      1.335     2.50    -9.520732     19.56788     42.66829         7     0.723     0.654 -81.36   0
       160    213.2661    439.1653 300.1165408 +22.5721943      403.681     69.35757      1.685     3.93    -10.35117     19.56788     40.68777         6     0.910     0.486  52.81   0
       161    275.4934    435.0678 300.1372159 +22.5896884     1937.288     69.49876      1.325     2.30    -9.910546     19.56788     283.0468        19     1.053     0.898  68.95   0
       162   1008.4368    433.1351 300.3660845 +22.8088601       2071.8     69.35757      1.074     1.86    -9.939823     19.56788     379.5076        16     0.885     0.787  59.93   0
       163    222.7680    429.8306 300.1225265 +22.5723668     3649.271     69.35757      1.275     2.20    -10.21646     19.56788     568.9797        26     1.089     0.962  71.04   0
       164    988.4611    424.1963 300.3627584 +22.8003069     815.2565      69.3399      1.051     1.90    -9.964334     19.56788     167.6178        11     0.818     0.686  61.80   0
       165    363.5312    424.0276 300.1681788 +22.6129293     2345.097      69.3399      1.297     2.33    -9.605126     19.56788     339.7297        21     1.012     0.948 -75.82   0
       166    607.6614    420.5780 300.2452705 +22.6851474     8948.479      69.3399      1.266     2.26    -9.581615     19.56788     1278.596        41     1.108     1.086  67.54   0
       167    941.3345    402.9008 300.3549801 +22.7800682     302.4543     69.44585      1.113     2.26     -10.0152     19.56788     69.13995         7     0.794     0.578  62.35   0
       168    162.3497    400.8647 300.1131572 +22.5459276     882.2789     69.41055      1.283     2.37    -10.51946     19.56788     135.6301        14     0.927     0.856  59.32   0
       169    548.2504    390.0252 300.2366989 +22.6585615     3218.585     69.37523      1.293     2.41    -9.170223     19.56788     425.7512        24     1.048     0.970  62.11   0
       170    961.8207    390.2818 300.3654671 +22.7825785     470.4364     69.32223      0.988     1.87    -9.956452     19.56788      118.219         6     0.695     0.514 -39.54   0
       171    120.8823    382.9210 300.1060999 +22.5283367     264.4492     69.48112      1.330     3.96    -10.47011     19.56788     40.26052         5     0.813     0.553 -58.22   0
       172    752.5001    379.1195 300.3038478 +22.7166531      614.773     69.48112      1.312     3.01    -9.888395     19.56788     79.49334         7     0.901     0.488  81.81   0
       173    661.9606    379.9110 300.2753882 +22.6897445     224.5503      69.3399      1.185     2.67     -9.71312     19.56788      42.7318         5     0.771     0.491 -63.90   0
       174    454.9297    376.3984 300.2120818 +22.6266673     2941.719     69.28687      1.293     2.37     -9.33444     19.56788     395.3658        24     1.064     0.971  80.33   0
       175    943.9003    370.6397 300.3662588 +22.7715645     291.9619     69.35757      1.104     4.17    -9.966828     19.56788     47.29074         6     0.760     0.652 -57.02   0
       176    846.8863    370.4846 300.3360650 +22.7424552     645.3482     69.48112      1.112     2.26    -10.09825     19.56788      107.531         9     0.775     0.717  24.24   0
       177    342.5300    355.7706 300.1838158 +22.5870376      1223.06     69.35757      1.278     2.22    -9.517138     19.56788      192.051        17     1.037     0.854  79.43   0
       178     60.9307    353.1693 300.0971369 +22.5018112     428.4035      69.3399      1.237     2.72    -10.21942     19.56788     72.80715         8     0.868     0.659  84.16   0
       179    311.8419    345.0968 300.1777385 +22.5747696     14604.82     69.35757      1.333     2.38    -9.605619     19.56788     1966.174        48     1.224     1.081  84.09   0
       180    846.3253    342.0285 300.3451316 +22.7341096     686.2394     69.37523      1.225     2.47    -10.00036     19.56788     101.3171        11     0.882     0.747 -54.45   0
       181      8.2393    333.0555 300.0873028 +22.4802289     2314.749     69.35757      1.258     2.27    -10.18383     19.56788     347.5488        20     0.986     0.926  71.83   0
       182    761.7923    331.0814 300.3223437 +22.7056353     303.9756     69.28687      1.526     2.78    -9.962252     19.56788     39.98734         6     0.722     0.575 -48.04   0
       183    186.1983    331.0281 300.1432473 +22.5330434     326.1275     69.30455      1.643     3.97    -9.995296     19.56788     30.14356         5     0.851     0.529 -37.92   0
       184    410.2498    329.9496 300.2132645 +22.5999332     304.5901     69.39289      1.518     4.82    -9.232183     19.56788     31.49965         6     1.026     0.641 -38.73   0
       185    722.1502    324.5819 300.3121039 +22.6918887     1084.408     69.35757      1.400     2.38    -9.903308     19.56788     149.3107        13     0.924     0.822  54.14   0
       186    937.4120    317.3936 300.3815274 +22.7543157      233.844      69.2338      1.261     4.38    -9.956478     19.56788     32.50009         7     0.875     0.681  15.96   0
       187    384.0359    309.4476 300.2117667 +22.5861861     1059.741     69.37523      1.483     3.08      -9.3364     19.56788     125.6865        16     1.101     0.893  38.32   0
       188    822.9907    301.9939 300.3508588 +22.7156129     185.3518     69.21609      1.149     3.73    -10.03235     19.56788     39.80543         5     0.668     0.598  -0.04   0
       189    459.8052    288.7379 300.2420631 +22.6029577     548.6907      69.3399      1.365     2.93    -9.203115     19.56788     87.24648        12     1.013     0.855 -57.87   0
       190    704.6763    280.5671 300.3209515 +22.6740058     1114.394     69.35757      1.283     2.49    -9.918905     19.56788     137.8968        16     1.056     0.849  74.11   0
       191    965.8425    274.8199 300.4042159 +22.7505918     1556.402     69.39289      1.175     2.13    -9.868725     19.56788     271.6474        15     0.919     0.819  47.79   0
       192    412.9394    264.4581 300.2353636 +22.5819343     291.8489      69.4282      1.184     2.86    -9.219378     19.56788     51.20672         8     0.825     0.644  87.18   0
       193    118.7933    258.8692 300.1457272 +22.4921143      382.615     69.32223      1.425     4.70    -9.884007     19.56788     39.44363         9     1.085     0.706  45.02   0
       194     88.2000    258.6554 300.1362919 +22.4828750     771.2401     69.26918      1.577     3.77     -10.0047     19.56788     79.60934        14     1.255     0.764 -31.10   0
       195    981.6074    254.9351 300.4155878 +22.7495959     135.4164      69.3399      1.315     4.14    -9.794345     19.56788     29.40273         5     0.803     0.609   8.38   0
       196    825.8143    251.9833 300.3679749 +22.7020851     242.1022     69.30455      1.341     4.34    -9.961061     19.56788     26.78048         5     1.030     0.521  56.37   0
       197    171.5047    250.8280 300.1647167 +22.5056184     168.5696     69.26918      1.022     4.34    -9.687794     19.56788     34.51044         7     1.091     0.491  40.48   0
       198    775.8939    242.0465 300.3556439 +22.6842742      288.117     69.37523      1.017     2.29    -9.917083     19.56788     61.64375         8     0.821     0.605  49.11   0
       199    874.3988    230.8408 300.3899814 +22.7105606     837.2606     69.37523      1.207     2.53    -9.958335     19.56788     144.4257        14     0.974     0.811  56.52   0
       200    293.0302    228.5561 300.2097227 +22.5356716     960.9792     69.39289      1.275     2.61    -9.558127     19.56788     135.1337        14     0.916     0.821  65.22   0
       201    370.8992    223.6055 300.2355462 +22.5575986     497.2872     69.25149      1.361     3.67    -9.402019     19.56788     60.50297        11     1.073     0.715  88.87   0
       202    772.7269    222.5876 300.3609732 +22.6777327     247.3551     69.37523      1.091     2.88    -9.857821     19.56788     35.99088         5     0.719     0.452  20.46   0
       203    188.0175    215.9165 300.1811795 +22.5005503     449.4552     69.32223      1.521     2.33    -9.616812     19.56788     55.11725         7     0.828     0.513 -54.79   0
       204    790.5811    212.0727 300.3699495 +22.6800590     405.7758     69.35757      1.402     4.43    -9.772821     19.56788     41.48227         8     1.134     0.492  88.20   0
       205    725.5013    212.3387 300.3495861 +22.6606390     946.3369      69.4282      1.321     2.69    -9.764263     19.56788     109.0537        11     1.000     0.684 -74.06   0
       206    209.0093    209.1343 300.1899051 +22.5048991     341.7997     69.32223      1.416     2.75    -9.570164     19.56788      45.8499         5     0.782     0.480 -65.03   0
       207    996.7247    204.5166 300.4366683 +22.7396250     365.0872     69.44585      1.160     2.49    -9.571214     19.56788     73.46815         8     0.864     0.671  54.35   0
       208    729.5107    203.9077 300.3535715 +22.6594172     311.4937     69.51638      1.310     3.39    -9.758572     19.56788     50.15274        10     0.983     0.832 -43.47   0
       209    650.0565    203.1926 300.3290551 +22.6354061     555.2704      69.3399      1.344     3.32    -9.433753     19.56788     67.18393         9     0.926     0.673 -33.75   0
       210    576.5549    195.1668 300.3087732 +22.6110747     475.2965     69.41055      1.233     2.35    -9.298901     19.56788     71.14396         9     0.806     0.717  62.09   0
       211    845.4230    194.4197 300.3927705 +22.6914117     634.4822     69.35757      1.159     2.47    -9.652455     19.56788     98.08858        11     0.869     0.757 -29.50   0
       212    857.4999    193.5147 300.3968285 +22.6947686     424.3111     69.51638      1.184     2.79    -9.662338     19.56788     54.82639         7     0.816     0.614  72.18   0
       213   1018.4316    184.3930 300.4499700 +22.7403372     844.6374     69.35757      1.186     2.35    -9.419843     19.56788     129.3731        13     0.853     0.841  80.42  16
       214    974.1321    183.8094 300.4363426 +22.7269054     647.1451     69.35757      1.265     2.61      -9.4539     19.56788     93.49284        12     0.959     0.761  32.98   0
       215    208.2568    177.1202 300.2000600 +22.4954828     376.3092     69.39289      1.104     2.09      -9.5012     19.56788     58.32936         6     0.719     0.528  40.33   0
       216     70.2514    171.9641 300.1588499 +22.4526117       1021.2     69.37523      1.329     2.42    -9.667533     19.56788     147.5116        16     0.993     0.876  53.74   0
       217    893.2213    168.3693 300.4161243 +22.6982372     315.2681     69.35757      1.218     3.15    -9.385802     19.56788     46.35172         8     0.932     0.587 -65.77   0
       218     19.5226    168.8792 300.1440941 +22.4365090     297.0391     69.46349      1.218     4.60    -10.12764     19.56788     39.16151         8     0.928     0.647 -34.87   0
       219    227.7252    165.4369 300.2099026 +22.4979667     2754.887     69.30455      1.284     2.32    -9.511337     19.56788     352.1195        23     1.041     0.975  73.13   0
       220     11.7195    159.6506 300.1446650 +22.4315198     551.7158     69.37523      1.263     2.39    -10.16623     19.56788     94.12154        10     0.850     0.743  47.75   0
       221    210.5249    156.0554 300.2075999 +22.4901154     360.1535     69.37523      1.402     4.37    -9.429179     19.56788     46.59894         6     0.843     0.645  65.35   0
       222   1024.0000    152.1703 300.4621636 +22.7327368     349.4373     52.03731      1.190     3.65    -9.263496     19.56788     69.83686         5     1.326     0.289  90.00  24
       223    871.5958    146.7635 300.4163936 +22.6855488     1755.374     69.37523      1.217     2.28    -9.267143     19.56788      259.936        16     0.952     0.833  82.65   0
       224    975.2361    145.2233 300.4492083 +22.7161394     1303.781     69.37523      1.205     2.20    -9.244349     19.56788     203.2094        15     0.968     0.777 -84.64   0
       225    345.1994    133.6496 300.2567430 +22.5240600     311.7307      69.3399      1.340     2.91    -9.276578     19.56788     33.17467         5     0.735     0.444 -17.29   0
       226    111.1836    131.0731 300.1848331 +22.4531518     268.1451     69.35757      1.285     2.69    -9.185396     19.56788     42.40504         5     0.760     0.493 -27.57   0
       227    472.6303    129.4130 300.2977617 +22.5610388     780.8181     69.35757      1.310     2.52    -9.147602     19.56788     113.1556        12     0.961     0.748  43.33   0
       228    400.7915    130.0194 300.2752129 +22.5396815      268.377     69.32223      1.466     3.89    -9.216616     19.56788     28.66178         5     0.835     0.519  36.21   0
       229    246.5828    109.3175 300.2339718 +22.4875072     2874.671     69.32223      1.266     2.44    -9.018003     19.56788      383.138        21     1.028     0.935  73.14   0
       230     97.7012    108.7551 300.1878842 +22.4427017     427.9954     69.37523      1.467     3.12    -9.063734     19.56788     53.89206         7     0.843     0.651 -23.98   0
       231    492.6570     94.5297 300.3153106 +22.5570183     2962.629     69.37523      1.303     2.39    -8.936548     19.56788     406.1714        25     1.058     0.980  43.79   0
       232    378.0603     94.3150 300.2797245 +22.5226122      361.798     69.46349      1.388     4.06    -8.881948     19.56788     41.16193         7     0.909     0.688  -4.16   0
       233    745.0880     83.8912 300.3973659 +22.6295852     413.2407     69.51638      1.453     4.22    -8.780435     19.56788     46.27784         8     1.071     0.570 -84.39   0
       234    837.8342     82.6146 300.4266818 +22.6569934     224.9271      69.3399      1.172     2.75    -8.863885     19.56788     34.22764         5     0.712     0.463  16.03   0
       235    543.8066     77.0839 300.3368901 +22.5673320     196.1833     69.28687      1.240     3.27    -8.736918     19.56788     32.02604         5     0.783     0.505  38.61   0
       236    620.9937     74.6006 300.3617271 +22.5897434      3030.48     69.18068      1.318     2.38    -9.005774     19.56788     434.8137        23     1.079     0.943  88.17   0
       237    395.8796     73.5146 300.2920146 +22.5219779     676.2747     69.49876      1.284     3.10    -8.733143     19.56788     84.49869         9     0.838     0.745  61.65   0
       238    662.0089     72.0463 300.3753286 +22.6012958      335.972     69.37523      1.231     2.90    -8.827893     19.56788      52.6988         9     0.788     0.743 -11.86   0
       239    144.7714     66.2312 300.2163027 +22.4446088     269.8501     69.35757      1.253     3.51    -8.797796     19.56788     45.62822         7     0.839     0.773  46.03   0
       240    665.0615     59.3490 300.3803978 +22.5985604     1427.478     69.41055      1.326     2.47     -8.72391     19.56788     175.3067        17     0.977     0.919  46.61   0
       241    679.7350     57.1116 300.3856937 +22.6023124     373.6484     69.46349      1.368     3.81    -8.682241     19.56788     41.74731         6     0.936     0.444 -52.14   0
       242    751.6309     51.0919 300.4100433 +22.6221149     736.8297     69.30455      1.264     2.43    -8.574688     19.56788     103.0656        11     0.874     0.782 -87.13   0
       243    689.4991     44.1173 300.3929496 +22.6015015      288.259     69.51638      1.237     4.19     -8.58666     19.56788     37.66859         5     0.868     0.578  48.80   0
       244    495.4306     43.4317 300.3327476 +22.5431669     450.4386     69.35757      1.189     3.10     -8.35984     19.56788     63.32086        11     1.027     0.725  82.06   0
       245    399.1342     41.3100 300.3034721 +22.5137013      437.693     69.48112      1.305     2.44    -8.454282     19.56788     63.74294         6     0.732     0.567  49.21   0
       246    781.9042     40.1941 300.4230107 +22.6280474     190.9047     69.25149      1.278     3.80    -8.509479     19.56788      40.1199         5     0.824     0.503  43.90   0
       247    170.4508     31.8186 300.2354432 +22.4424271     2021.163      69.3399      1.396     2.46     -8.56896     19.56788     228.1194        21     1.071     0.961 -85.93   0
       248    738.5044     31.9936 300.4121477 +22.6126928     255.2252     69.25149      1.113     2.51     -8.44909     19.56788     43.96101         6     0.760     0.500 -88.61   0
       249    593.3798     28.7689 300.3679936 +22.5682982     255.8474     69.35757      1.331     3.49    -8.417221     19.56788     28.69649         5     0.807     0.436 -71.73   0
       250    731.9265     23.9269 300.4127144 +22.6084035     475.1254     69.41055      1.288     3.55     -8.40665     19.56788      61.4776         9     0.960     0.658  80.59   0
       251    286.2906     23.6344 300.2741077 +22.4748029        498.5      69.3399      1.275     3.78    -8.348643     19.56788     68.84007        10     1.051     0.672  89.06   0
       252    769.4193     19.0301 300.4259841 +22.6182232     284.5723     69.35757      1.165     4.36    -8.353521     19.56788     47.17682         6     0.858     0.630  58.47   0
       253    693.2347     18.9041 300.4022901 +22.5953718     218.4298     69.35757      1.273     3.39    -8.422694     19.56788     42.09312         5     0.966     0.558  15.00   0
       254    546.7721   1019.2538 300.0316000 +22.8386806     1323.576     69.37523      1.141     1.81    -14.02262     19.56788     231.8235        13     0.847     0.782   9.16  16
       255    170.6069   1023.4135 299.9132663 +22.7269007     914.1385     55.21333      5.733    10.17     16.05902     19.56788     38.88974        19     3.008     0.958 -10.28  27
       256    633.2970   1014.4955 300.0600844 +22.8632895     4177.438       69.534      1.147     1.91    -13.40194     19.56788     636.8397        30     1.064     0.936 -79.36   3
