#   1 NUMBER                 Running object number                                     
#   2 X_IMAGE                Object position along x                                    [pixel]
#   3 Y_IMAGE                Object position along y                                    [pixel]
#   4 ALPHA_J2000            Right ascension of barycenter (J2000)                      [deg]
#   5 DELTA_J2000            Declination of barycenter (J2000)                          [deg]
#   6 FLUX_APER              Flux vector within fixed circular aperture(s)              [count]
#   7 FLUXERR_APER           RMS error vector for aperture flux(es)                     [count]
#   8 FLUX_RADIUS            Fraction-of-light radii                                    [pixel]
#   9 FWHM_IMAGE             FWHM assuming a gaussian core                              [pixel]
#  10 BACKGROUND             Background at centroid position                            [count]
#  11 THRESHOLD              Detection threshold above background                       [count]
#  12 FLUX_MAX               Peak flux above background                                 [count]
#  13 ISOAREA_IMAGE          Isophotal area above Analysis threshold                    [pixel**2]
#  14 A_IMAGE                Profile RMS along major axis                               [pixel]
#  15 B_IMAGE                Profile RMS along minor axis                               [pixel]
#  16 THETA_IMAGE            Position angle (CCW/x)                                     [deg]
#  17 FLAGS                  Extraction flags                                          
         1    164.1645      8.7140 300.2354062 +22.4424719       1797.6     69.38673      1.277     2.45     -8.24789     19.58109     272.2788        17     0.977     0.844  73.85   0
         2    732.1577      8.6868 300.4121564 +22.6126275     268.8943      69.4044      1.009     2.99    -7.516412     19.58109     49.53891         6     0.852     0.574 -61.72   0
         3    586.3541      5.9099 300.3676458 +22.5681669     305.1342     69.38673      1.244     4.27    -7.634028     19.58109     36.39478         7     0.761     0.684 -65.14   0
         4    280.0610      1.2866 300.2738422 +22.4750751     381.3175      53.8334      1.085     2.56    -8.526106     19.58109     85.20758         6     0.875     0.433   9.79  24
         5    166.3967    995.2159 299.9155940 +22.7261159     943.8824     69.28055      6.797     8.30     19.98952     19.58109     39.14817        15     2.436     0.789 -38.55   2
         6     71.7894    921.6110 299.9101621 +22.6766087     1766.472     69.29826     32.598    62.51    -7.747845     19.58109     54.74965       582    11.299     9.596 -61.05  11
         7    332.7979    990.6744 299.9687960 +22.7747888     6057.535     69.31596      0.702     1.06    -12.79316     19.58109     2636.739        11     0.542     0.501 -58.12   0
         8    222.6154    972.4445 299.9404777 +22.7364762     1848.586     69.42208      8.074    14.18     8.293523     19.58109     57.81011        50     2.819     1.984 -25.32   3
         9     70.8695    946.6196 299.9017369 +22.6834974     2715.663      69.4044     24.289    30.53    -2.600276     19.58109     66.69482       260     6.004     4.310  26.05   3
        10    160.5219    983.9509 299.9174359 +22.7211236     1089.539      69.4044     16.999    14.75     15.93105     19.58109     43.68136        29     3.857     1.569  70.55   2
        11    166.1252   1003.8494 299.9126989 +22.7285080     1633.923      69.4044      6.211    14.28     23.48006     19.58109     48.20449        44     2.858     1.984  50.26   2
        12     51.8443    975.6794 299.8863689 +22.6861069     1895.496     69.38673     23.563    43.00   -0.5749978     19.58109     57.65919       332     7.739     6.631  71.69  19
        13    203.7237    998.7811 299.9260325 +22.7383492      1167.89      69.4044      7.278     7.89     20.30137     19.58109     48.51905        22     1.807     1.433  -1.17   3
        14    919.7767    975.1475 300.1566092 +22.9464828     455.0774     69.42208      1.403     3.45    -13.42212     19.58109     62.48916         9     0.948     0.648  71.94   0
        15    212.8214    992.3154 299.9309649 +22.7392289     1893.011     69.35135     12.094    15.05     17.09702     19.58109     54.48885        56     3.131     2.328 -15.00   3
        16    222.5963   1004.6615 299.9299833 +22.7457026     339.2128     69.38673      1.376     3.04     22.21231     19.58109      50.1972         6     0.813     0.533 -39.56   0
        17    137.4942    960.3546 299.9179624 +22.7074458     691.2083     69.42208      5.232     8.62     6.694391     19.58109     45.46302        13     2.605     0.796  52.36   0
        18    213.1424    986.6050 299.9329237 +22.7376890     2075.302     69.36904     13.340    22.22     15.01789     19.58109     62.22169       104     4.871     2.814   0.05   3
        19    645.2300    958.3934 300.0765235 +22.8593154     3490.311      69.4044      1.189     2.21    -13.20383     19.58109     520.8389        24     1.043     0.925  42.62   0
        20    540.2971    996.1884 300.0315523 +22.8386637     1171.377     69.29826      1.155     2.00    -13.67451     19.58109     199.7061        16     0.925     0.842 -78.75   0
        21    117.3098    955.4779 299.9132791 +22.6999856     936.9341     69.54568      5.488     6.54     4.770087     19.58109     38.26169         7     1.224     0.982 -75.19   2
        22    193.6868    990.8912 299.9254820 +22.7330737     1835.273     69.56332      9.753    16.24     17.39146     19.58109     51.96864        54     4.395     1.668 -35.13   3
        23    233.5177    979.5697 299.9415467 +22.7417924     3899.896     69.42208      7.700    27.95     8.185938     19.58109     95.07449       307     7.591     3.696  64.66  18
        24     98.6579   1020.8643 299.8861989 +22.7131150     3040.226     66.51579      6.636    25.69      30.1709     19.58109     66.12551       202     6.244     2.934   4.17  27
        25    553.8032    948.9736 300.0511270 +22.8291773     774.1135     69.36904      1.157     2.05    -13.16854     19.58109     154.6306        11     0.827     0.742 -69.10   0
        26     76.1836   1017.3221 299.8803714 +22.7053482     2951.648      69.4044     17.614    53.24     18.40709     19.58109     83.69819       582     9.591     8.209 -72.42  27
        27    447.4277    945.4387 300.0191753 +22.7962355     577.2736     69.42208      1.184     3.43    -12.91616     19.58109     80.06319        10     1.092     0.757 -56.70   0
        28    378.1307    943.7705 299.9981626 +22.7749544     3211.556      69.4044      1.166     2.00    -12.52612     19.58109     555.7314        22     1.003     0.863 -55.36   0
        29    106.8555    943.0787 299.9140673 +22.6932928     1184.833     69.43975      9.399    11.13    0.1517572     19.58109     45.13463        20     2.800     1.232 -16.09   3
        30    727.2740    991.9603 300.0911467 +22.8935618      244.711     69.38673      1.011     2.33    -13.58968     19.58109     50.70325         6     0.823     0.461  50.48   0
        31    410.5577    930.8050 300.0124689 +22.7809719     239.0205     69.42208      1.154     3.37    -12.36879     19.58109     45.35395         5     1.083     0.303 -36.51   0
        32    348.8547   1002.8474 299.9698258 +22.7830994     230.5696     69.43975      1.120     2.39    -12.95064     19.58109     47.55639         5     0.737     0.494 -48.06   0
        33    924.4087    922.2551 300.1752723 +22.9326905     1089.911      69.4044      1.063     1.80    -12.97158     19.58109     212.1194        14     0.911     0.744  21.81   0
        34     71.0854    996.3885 299.8856032 +22.6978200      2337.08     69.35135     19.080    31.28     10.40082     19.58109     57.05331       222     6.575     4.129  75.99  19
        35    747.9778    905.3444 300.1257927 +22.8749220     513.6466     69.43975      1.076     2.02    -12.81658     19.58109     100.6412         9     0.786     0.652  61.50   0
        36    626.7966    991.3584 300.0600517 +22.8632392      4099.89     69.42208      1.156     1.95    -13.47804     19.58109     738.9739        27     1.016     0.915   9.45   3
        37    770.2568    899.0914 300.1347687 +22.8798105     5538.554     69.45742      1.114     1.68    -12.75471     19.58109     1187.774        26     0.903     0.895  26.84   0
        38    961.0398    898.0777 300.1945632 +22.9367339     171.2362     69.38673      1.152     3.77    -12.77286     19.58109     40.22675         5     0.663     0.616 -87.03   0
        39     76.9816    962.7321 299.8983907 +22.6899496     2565.336      69.4044     28.183    58.18      3.07667     19.58109     72.39233       692    10.759     8.731  11.50  19
        40    475.3911    887.3990 300.0467660 +22.7879853     268.4323      69.2274      0.940     3.16    -12.54443     19.58109      53.1565         6     0.906     0.418  71.74   0
        41    822.1949    886.6201 300.1550112 +22.8918093      267.555     69.38673      1.189     2.29    -12.62927     19.58109     43.47251         5     0.692     0.463 -16.61   0
        42    778.9201    881.2111 300.1432871 +22.8772778     631.0626     69.38673      1.122     2.15    -12.58488     19.58109     130.5559        10     0.881     0.653  39.90   0
        43    817.1808    874.5797 300.1573672 +22.8868499     529.0911      69.4044      1.236     2.43    -12.51556     19.58109     72.49512         8     0.839     0.609 -10.63   0
        44    925.3981    871.8069 300.1920005 +22.9185054     183.2758     69.22739      0.995     2.35     -12.4602     19.58109     47.16162         6     0.703     0.600  20.85   0
        45    716.5009    864.8279 300.1291735 +22.8538538     358.6657     69.33366      1.081     2.02    -12.43601     19.58109     65.77465         6     0.709     0.496  82.63   0
        46    727.8682    862.0940 300.1336040 +22.8564790     391.5623     69.54568      1.170     2.26    -12.44238     19.58109     58.26026         6     0.695     0.569 -49.26   0
        47    429.3132    861.4369 300.0408786 +22.7667105     1860.933     69.38673      1.038     1.81    -12.16631     19.58109     347.8785        14     0.824     0.779  67.49   0
        48    473.0559    849.4147 300.0583998 +22.7763906     212.8963     69.38673      1.144     3.44    -12.13073     19.58109     43.58375         5     0.972     0.352 -43.62   0
        49    154.6342    847.1854 299.9601168 +22.6801625     429.8653     69.38673      1.258     2.87    -11.05787     19.58109     68.25497         9     0.917     0.688  44.11   0
        50    131.5674    844.2360 299.9539095 +22.6723904     650.7927     69.42208      1.216     2.51    -11.11685     19.58109     110.1189        12     0.886     0.793 -19.45   0
        51    632.4805    989.0558 300.0625711 +22.8642845      4555.62     69.43975      1.182     1.93    -13.46142     19.58109       723.63        30     1.044     0.962 -86.72   3
        52   1003.2255    832.8480 300.2289469 +22.9306526     1021.725     69.42208      1.143     1.73    -12.48559     19.58109     214.7388        13     0.828     0.755 -20.15   0
        53    663.3189    832.0122 300.1232881 +22.8284845     251.9612     69.38673      1.319     3.92     -12.0397     19.58109     37.23034         6     1.036     0.425 -78.35   0
        54    957.5777    831.4084 300.2151802 +22.9165549     1043.792      69.4044      1.025     2.76    -12.35892     19.58109     164.0922        13     0.912     0.764 -62.93   0
        55    163.9471    825.9764 299.9699108 +22.6768800     317.4211     69.42208      1.378     2.74    -11.34728     19.58109     43.45627         7     0.861     0.519  46.58   0
        56    741.0706    825.1959 300.1497230 +22.8498500     328.1392     69.35135      1.146     2.26    -12.35699     19.58109     67.18483         8     0.780     0.645 -30.14   0
        57    609.2431    819.4978 300.1105217 +22.8086716     2329.297      69.4044      1.046     1.75    -12.14842     19.58109     417.7284        19     0.918     0.799  70.39   0
        58    411.1481    816.7075 300.0497812 +22.7484309     267.6228     69.45742      1.107     3.29    -11.75012     19.58109     50.17392         7     0.889     0.710 -82.00   0
        59    159.3896    813.5386 299.9725409 +22.6719464     689.8309     69.35135      1.096     2.39    -11.49273     19.58109     108.5255        12     0.918     0.739  44.76   0
        60    629.8962    812.0366 300.1193797 +22.8127266     374.3687      69.4044      1.125     3.21    -12.00892     19.58109     68.80647         7     0.964     0.521  58.38   0
        61    785.3362    799.1715 300.1719812 +22.8556559     2126.325      69.4044      1.089     1.83    -12.11602     19.58109     419.9801        18     0.951     0.838  35.41   0
        62   1002.2377    799.2805 300.2395607 +22.9207170     645.3467     69.36904      1.119     1.88    -12.39972     19.58109     101.2947         8     0.711     0.628 -49.76   0
        63    194.1327    793.7015 299.9897903 +22.6766916     277.0158     69.49274      1.183     4.00    -11.72507     19.58109     51.59369         6     1.064     0.430  31.13   0
        64    502.3641    791.6535 300.0863122 +22.7686170     341.7129     69.42208      1.364     3.26    -11.59998     19.58109     42.19508         7     0.870     0.612  20.72   0
        65    148.5038    789.7986 299.9768810 +22.6618729      524.925     69.31596      1.246     2.73    -11.69785     19.58109     85.47366        10     0.964     0.687  82.04   0
        66    563.6193    784.9064 300.1075720 +22.7850596     218.1064     69.33366      0.937     2.10    -11.73992     19.58109     47.89425         5     0.692     0.448  69.30   0
        67    298.3768    781.9052 300.0260314 +22.7046034     26268.99     69.29826      1.146     1.94    -11.70169     19.58109     4419.711        59     1.101     1.044  74.12   0
        68    556.2431    780.8433 300.1065977 +22.7816809     811.3209     69.47508      1.015     1.84     -11.6937     19.58109      169.032         9     0.760     0.629  39.70   0
        69    968.9861    780.0623 300.2354433 +22.9052309     491.0143     69.38673      1.262     1.63    -12.21067     19.58109     106.5153         7     0.752     0.481  52.49   0
        70    585.0818    776.8668 300.1168685 +22.7891916     412.0078     69.51039      1.115     2.17    -11.79793     19.58109     80.54346         8     0.778     0.610  43.88   0
        71    596.1570    775.1903 300.1208618 +22.7920329     446.5129      69.4044      1.251     1.97    -11.82901     19.58109     66.58556         6     0.705     0.535  46.75   0
        72    348.0650    759.1398 300.0488869 +22.7129885     15281.22     69.43975      1.186     1.84    -11.50996     19.58109     3027.833        51     1.108     1.006  61.63   0
        73    738.9609    761.7542 300.1697049 +22.8310085     230.1337     69.47508      1.029     2.40     -11.7823     19.58109     69.67574         6     0.722     0.552  47.01   0
        74    362.3705    759.4332 300.0532405 +22.7173659     988.1127     69.42208      1.068     2.18    -11.49116     19.58109     154.4202        13     1.025     0.773  79.38   0
        75    871.0975    754.8410 300.2131291 +22.8686440     1204.538     69.38673      1.064     1.65    -11.75954     19.58109     307.6679        11     0.793     0.694  67.69   0
        76    359.1880    753.6804 300.0541218 +22.7147609     332.9601     69.38673      1.144     3.26    -11.46227     19.58109     49.15095         8     0.892     0.639   7.81   0
        77    629.1693    751.1095 300.1389730 +22.7950252     431.8687     69.35135      1.089     2.35    -11.62369     19.58109      96.8571         8     0.858     0.593 -88.08   0
        78    230.4532    750.8973 300.0150013 +22.6753234     403.8379     69.49274      1.056     1.88     -11.7657     19.58109       84.024         7     0.682     0.611 -72.38   0
        79     35.1731    746.3331 299.9558134 +22.6153840     476.8135     69.38673      2.176     6.13     -12.0994     19.58109     41.24444        10     1.306     0.824  40.22   0
        80    476.0805    745.7595 300.0930614 +22.7475650     394.5549     69.36904      0.990     2.35    -11.38899     19.58109     82.12179         8     0.797     0.620  49.82   0
        81    877.3436    742.8419 300.2189790 +22.8670713     182.1371     69.36904      1.103     2.42    -11.67025     19.58109     49.54262         5     0.715     0.446 -73.12   0
        82    521.1248    723.8933 300.1141905 +22.7548054     260.8892     69.54568      1.300     2.52    -11.43798     19.58109     45.18604         5     0.755     0.496  42.08   0
        83    542.9538    721.2246 300.1218525 +22.7605881     778.4336     69.42208      1.143     1.93     -11.5224     19.58109      136.513        10     0.842     0.654  71.34   0
        84    937.4610    720.1156 300.2451126 +22.8785661     2152.678     69.52805      1.051     1.72    -11.63283     19.58109     416.0258        16     0.859     0.770  82.11   0
        85    624.8445    716.5144 300.1488780 +22.7837998     190.4929     69.38673      1.128     2.65    -11.48777     19.58109     50.70774         6     0.897     0.627 -33.55   0
        86    925.8120    711.4536 300.2442977 +22.8725868     789.3166      69.4044      1.063     1.73    -11.48376     19.58109       155.63        10     0.757     0.716  58.04   0
        87    288.9379    705.5467 300.0479306 +22.6798731     430.3384     69.45742      0.887     1.69    -11.31069     19.58109     96.81909         6     0.689     0.494   6.98   0
        88    752.1276    702.8851 300.1929535 +22.8180578     1138.385     69.51039      1.086     1.81    -11.36521     19.58109     252.2175        11     0.747     0.730  73.22   0
        89    957.0471    701.7402 300.2571958 +22.8791591     880.1545     69.45742      1.129     1.88    -11.63689     19.58109     169.5578        10     0.749     0.697  87.67   0
        90    834.6442    688.7574 300.2232599 +22.8387408     320.2921     69.49274      1.216     2.87    -11.21127     19.58109     53.99609         5     0.810     0.435  42.20   0
        91    137.9046    689.1788 300.0063104 +22.6298453     293.4583     69.31596      1.420     3.95     -11.6835     19.58109     44.32489         6     0.912     0.488 -31.73   0
        92    870.7036    679.7785 300.2374187 +22.8469719     72162.96     69.31596      1.088     1.72    -11.18637     19.58109     14997.53       103     1.173     1.071  77.52   0
        93   1017.6868    681.4925 300.2826917 +22.8915162     646.0693     69.56332      1.010     1.98    -12.01168     19.58109     106.9087         8     0.790     0.569 -70.42   0
        94    723.2780    680.1854 300.1913477 +22.8028907      397.983     69.42208      1.128     2.76    -11.36182     19.58109     64.22299         8     0.949     0.556 -29.90   0
        95    557.0040    668.6428 300.1433243 +22.7497136     819.0399     69.42208      1.165     2.06    -11.30397     19.58109     150.7446        12     0.880     0.728  88.48   0
        96    738.1761    665.9562 300.2006155 +22.8032727     4584.103     69.43975      1.134     1.78    -11.28209     19.58109     948.9248        24     0.936     0.866  83.05   0
        97    239.7595    661.2083 300.0470584 +22.6523977     2450.134      69.4044      1.183     1.95    -11.10092     19.58109      434.053        20     1.016     0.860 -82.80   0
        98    321.7272    659.2545 300.0731777 +22.6764357     622.4866      69.4044      1.325     2.17     -10.9803     19.58109     91.91897         9     0.783     0.694  87.04   0
        99    529.8406    654.8768 300.1393452 +22.7376156     435.2308     69.38673      1.254     3.02    -11.06297     19.58109     73.49596         9     0.997     0.734  59.58   0
       100    521.6795    646.8170 300.1394256 +22.7328547     1609.375      69.4044      1.140     1.85    -10.94789     19.58109     291.3345        17     0.891     0.817  37.77   0
       101    511.9417    640.5110 300.1384450 +22.7281242      677.723     69.47508      1.092     2.13    -10.85683     19.58109     111.7308         9     0.790     0.679  28.41   0
       102    175.4453    637.1356 300.0348953 +22.6261913     302.7768     69.42208      1.152     3.21    -11.30035     19.58109     56.92406         7     0.912     0.660  82.09   0
       103    215.2962    632.0468 300.0489347 +22.6366925     290.7065     69.42208      1.142     1.96    -11.12136     19.58109     63.33873         5     0.713     0.413  70.48   0
       104    958.5580    631.4006 300.2805388 +22.8594078     364.8366     69.42208      1.155     2.98    -11.16677     19.58109     49.02273         5     0.712     0.474 -73.96   0
       105    436.7148    630.3348 300.1183449 +22.7026386     756.5761     69.47508      1.067     2.13    -10.89961     19.58109     129.2388         9     0.814     0.604  74.52   0
       106    535.2432    630.4446 300.1489698 +22.7322243     219.2057     69.45742      1.063     3.45    -10.81715     19.58109     35.31782         5     0.767     0.448  20.21   0
       107   1012.3181    627.4439 300.2985911 +22.8743804      315.872     69.36904      1.062     2.23    -11.28173     19.58109     75.93708         7     0.825     0.509  57.34   0
       108     90.7446    625.5106 300.0123574 +22.5974336     9587.696     69.43975      1.157     2.05    -11.36907     19.58109     1463.103        39     1.058     1.014  57.67   0
       109     11.5377    626.9528 299.9872877 +22.5740683     173.5722     69.42208      1.053     2.88    -11.26689     19.58109     48.69958         6     0.790     0.490  81.22   0
       110    521.5255    625.7498 300.1462265 +22.7267626     491.7777      69.4044      1.015     1.88    -10.75001     19.58109     96.57699         6     0.689     0.498  85.54   0
       111    939.7354    611.6659 300.2810853 +22.8480983      424.928     69.45742      0.974     1.94    -11.04703     19.58109     104.2799         8     0.754     0.620  56.77   0
       112     36.7097    609.4880 300.0007818 +22.5766186      779.476     69.56332      1.656     4.90     -11.2743     19.58109     85.55684        18     1.676     0.740  86.46   0
       113    879.8223    604.3895 300.2647721 +22.8280532     328.6784      69.4044      1.175     1.80    -10.79504     19.58109     60.00466         5     0.674     0.443 -23.59   0
       114    636.6055    595.7006 300.1918204 +22.7526485     185.2541     69.29826      1.095     2.80     -10.5909     19.58109     37.37737         5     0.717     0.451  70.31   0
       115    607.1688    595.0618 300.1828622 +22.7436385     251.8058     69.42208      1.016     2.24    -10.48759     19.58109     47.54325         5     0.617     0.555  -8.31   0
       116    486.1219    594.2046 300.1454626 +22.7070907     545.8603     69.31596      1.449     3.42    -10.49352     19.58109     72.50892        10     1.003     0.686  42.71   0
       117    919.6662    589.7637 300.2819477 +22.8357925     1632.383      69.4044      1.078     1.77    -10.95324     19.58109     314.7335        15     0.846     0.781  37.11   0
       118    451.3276    589.7354 300.1360885 +22.6953719      812.379     69.43975      1.127     2.43    -10.62252     19.58109      147.063        11     0.880     0.723  59.50   0
       119   1017.9351    587.9749 300.3131739 +22.8647234     160.1845     69.38673      1.143     1.79    -11.01223     19.58109     69.97121         5     0.603     0.529 -88.88   0
       120     13.5334    583.6896 300.0019689 +22.5622646     2593.442     69.52805      1.235     2.15    -11.28607     19.58109     349.4737        20     0.972     0.933  69.44   0
       121    314.9144    576.7268 300.0978856 +22.6507169     4286.879     69.52805      1.158     1.87    -10.96556     19.58109     796.9166        24     0.991     0.851  66.61   0
       122    437.3090    573.6461 300.1369562 +22.6865498     4302.162     69.38673      1.103     1.95    -10.59423     19.58109     721.7955        21     0.939     0.836  68.66   0
       123    848.9805    567.4857 300.2671541 +22.8082100     864.8268     69.33366      1.141     1.75    -10.61524     19.58109     166.8136        14     0.963     0.749  74.30   0
       124    933.5494    564.8803 300.2943644 +22.8328043     6185.875      69.4044      1.074     1.82    -10.95034     19.58109      1112.65        27     0.935     0.876 -85.41   0
       125    497.8956    563.2249 300.1591955 +22.7017307      5778.54     69.31596      1.201     1.87    -10.20433     19.58109     1053.801        30     1.036     0.948  75.43   0
       126    667.6360    559.0413 300.2133989 +22.7514271     212.9371     69.47508      1.036     3.28    -10.48168     19.58109      47.0933         5     0.811     0.488 -37.42   0
       127    225.3584    558.7850 300.0758740 +22.6186990     670.3472     69.42208      1.216     2.31    -11.06251     19.58109     107.2838        10     0.831     0.712  13.07   0
       128    472.2979    556.2114 300.1535091 +22.6920407     82.49911     69.29826      0.979     2.62    -10.33302     19.58109     38.48608         5     0.737     0.432  75.53   0
       129    429.5245    551.4070 300.1417618 +22.6778328     2134.393     69.33366      1.088     2.05    -10.49128     19.58109     310.7823        18     1.093     0.793  52.93   0
       130    772.3714    551.2260 300.2485648 +22.7805791     303.6019     69.38673      1.015     2.20    -10.67407     19.58109     73.67029         7     0.758     0.587  18.90   0
       131    407.8912    549.8565 300.1355356 +22.6708990      631.675     69.45742      1.203     2.03    -10.58235     19.58109     116.3221        12     0.892     0.780  41.99   0
       132    162.2097    549.2292 300.0593532 +22.5970083     329.5401      69.4044      1.053     2.34    -11.07317     19.58109     60.49307         8     0.788     0.622 -43.13   0
       133    849.2917    546.7338 300.2739956 +22.8023425      759.592     69.52805      1.231     2.29    -10.55485     19.58109     122.5549        13     0.948     0.779 -21.66   0
       134    729.6812    543.8117 300.2376742 +22.7656537     486.9405     69.38673      1.312     2.49    -10.63488     19.58109     76.71912         7     0.775     0.640 -20.04   0
       135    546.1682    538.9609 300.1821051 +22.7092422     99441.79     69.43975      1.209     1.94    -9.571707     19.58109     18332.72       128     1.239     1.210 -80.94   0
       136    232.3522    539.1176 300.0844390 +22.6151559     1685.723     69.42208      1.135     2.05    -11.00407     19.58109     284.3084        17     0.930     0.808  25.99   0
       137    281.0055    521.5192 300.1052826 +22.6247046     230.3957     69.33366      1.105     2.18    -10.83467     19.58109     42.53206         6     0.742     0.499  -1.82   0
       138    436.8225    519.1630 300.1545102 +22.6707678     1284.089     69.42208      1.152     1.89    -10.26422     19.58109     241.1895        11     0.783     0.728  40.27   0
       139    848.5770    515.1871 300.2840246 +22.7930663      211.626     69.38673      1.013     3.27    -10.50984     19.58109     29.29414         5     0.731     0.458 -71.14   0
       140    833.7413    505.3706 300.2825905 +22.7858006     691.9621      69.4044      1.009     1.99    -10.51071     19.58109     136.4575         9     0.749     0.669  29.04   0
       141    704.9317    503.1721 300.2431706 +22.7465642     1255.728     69.38673      1.128     1.82    -10.38009     19.58109     265.0071        15     0.869     0.794 -89.59   0
       142    492.1591    499.0944 300.1782496 +22.6816026     343.3544     69.42208      1.282     1.77    -9.730916     19.58109     64.19977         6     0.695     0.515  53.90   0
       143    962.1205    496.8497 300.3253818 +22.8218180      567.043     69.42208      0.978     1.81    -10.77884     19.58109     149.9973         9     0.918     0.567  47.40   0
       144    947.9747    496.0658 300.3212255 +22.8173548      385.682     69.38673      1.236     2.06    -10.69915     19.58109     70.28182         8     0.776     0.626 -39.88   0
       145    834.1741    495.7670 300.2858459 +22.7831714     1080.082      69.4044      1.188     2.09    -10.49382     19.58109      177.088        12     0.814     0.769 -89.02   0
       146    872.1166    490.4727 300.2993925 +22.7930198     2088.423     69.52805      1.090     1.77    -10.48113     19.58109     377.9751        16     0.888     0.776  48.25   0
       147    964.1801    481.0685 300.3311517 +22.8179001     224.8768     69.38673      0.990     2.27    -10.74334     19.58109     97.15318         6     0.823     0.513  25.06   0
       148    103.9190    481.2082 300.0633422 +22.5600060     570.9698     69.35135      1.391     2.85    -11.19369     19.58109     76.92654         9     0.856     0.731   0.48   0
       149    765.1396    474.9797 300.2710872 +22.7565122     170.5911     69.35135      1.030     4.33    -10.39434     19.58109     31.60034         6     1.034     0.517  -9.63   0
       150    592.9918    463.0569 300.2213440 +22.7014888     200.1884     69.38673      1.146     3.72    -9.615865     19.58109     28.21437         5     0.653     0.610  89.50   0
       151    645.6395    461.3054 300.2383063 +22.7167681     331.0262     69.42208      1.263     2.64    -9.912708     19.58109     70.98625         7     0.818     0.652 -20.32   0
       152    706.2258    453.2820 300.2597826 +22.7326235     546.6242     69.38673      1.222     2.06     -10.1886     19.58109     75.44908         8     0.722     0.653 -52.66   0
       153    863.8716    449.6368 300.3100896 +22.7788169     449.6122     69.38673      1.082     3.17      -10.481     19.58109     77.17834         7     0.884     0.543  19.59   0
       154    847.7950    445.6342 300.3063788 +22.7728500     249.8088     69.38673      1.023     2.95    -10.46369     19.58109       60.427         5     0.880     0.440  14.87   0
       155    592.2130    443.7791 300.2273640 +22.6957197     1653.743     69.38673      1.209     1.96    -9.653672     19.58109     287.2061        17     0.975     0.878 -64.91   0
       156   1003.5635    422.8443 300.3623497 +22.8129637     567.8273     69.45742      1.019     1.91    -10.96273     19.58109     109.6497         7     0.685     0.587  74.30   0
       157    961.7545    421.6820 300.3496882 +22.8001069     421.4259     69.38673      1.104     2.20    -10.70799     19.58109     86.51223         8     0.825     0.590  86.16   0
       158    875.2852    422.4022 300.3224944 +22.7744110     217.0053     69.33366      1.057     2.15    -10.49871     19.58109     48.58506         5     0.679     0.460  19.75   0
       159    702.8347    417.7667 300.2702629 +22.7214061     456.1985     69.47508      1.207     2.14    -10.03448     19.58109     93.51508         9     0.844     0.617 -72.34   0
       160    206.6124    416.1493 300.1163861 +22.5721541     372.6313     69.45742      1.203     3.29     -10.3867     19.58109     51.09003         8     0.859     0.804  89.01   0
       161    269.1667    411.9043 300.1372104 +22.5897003     1887.496     69.38673      1.238     2.03    -10.24997     19.58109     317.7215        15     0.938     0.784  80.53   0
       162   1002.1276    410.0727 300.3660503 +22.8088627     2187.313     69.45742      1.118     1.68     -10.9249     19.58109     496.3719        18     0.889     0.843  80.75   0
       163    216.3655    406.7005 300.1224863 +22.5723687     3746.453     69.38673      1.173     2.11     -10.3291     19.58109     522.1857        24     1.006     0.919  54.20   0
       164    357.2000    400.9264 300.1681508 +22.6129525     2345.192     69.28055      1.200     2.14    -10.07892     19.58109     383.4967        19     1.015     0.824  82.13   0
       165    982.1380    401.0793 300.3627370 +22.8002907     909.5203     69.47508      1.135     1.87    -10.79192     19.58109     190.7768        11     0.799     0.770 -29.21   0
       166    601.2772    397.4716 300.2452271 +22.6851386     9115.823     69.51039      1.168     2.09      -9.7465     19.58109     1291.932        36     1.105     0.945  70.53   0
       167    618.7768    397.5548 300.2506489 +22.6904077     372.6589     69.43975      1.823     5.29    -9.773954     19.58109     37.45226         7     1.177     0.672 -38.86   0
       168    934.5601    379.9120 300.3547750 +22.7799564     404.7988     69.38673      1.093     2.33    -10.53134     19.58109     73.09812         8     0.816     0.621  42.74   0
       169    155.9378    377.5869 300.1131604 +22.5458876     1000.534     69.36904      1.222     2.38    -10.27043     19.58109     172.1655        13     1.024     0.764  45.79   0
       170    541.9308    366.9529 300.2366627 +22.6585851     3201.165     69.38673      1.238     2.01    -9.713531     19.58109     560.6822        24     1.027     0.950  58.96   0
       171    955.5151    367.0501 300.3654863 +22.7825360     618.7151     69.38673      1.202     2.02    -10.61327     19.58109     99.72192         9     0.772     0.662  28.36   0
       172    256.8222    366.5925 300.1480874 +22.5729940     223.6525     69.38673      0.992     2.68     -10.1033     19.58109     47.08932         6     0.714     0.618 -79.86   0
       173    114.4338    359.4317 300.1061593 +22.5282275     294.8616     69.42208      0.965     2.48    -10.22602     19.58109     58.04362         6     0.860     0.413  68.72   0
       174    655.2494    356.7959 300.2752431 +22.6896318     320.9219     69.38673      1.215     3.10    -9.806143     19.58109     46.49348         7     0.864     0.558  34.25   0
       175    746.0665    355.8549 300.3038376 +22.7165752     651.7288     69.45742      1.393     2.45    -9.994974     19.58109     93.48655        10     0.882     0.699 -81.28   0
       176    448.6397    353.1780 300.2121022 +22.6266628     3021.688     69.43975      1.191     2.08    -9.687778     19.58109      454.568        23     1.023     0.901 -68.83   0
       177    937.7350    347.7946 300.3661950 +22.7716761     386.4441     69.38673      1.348     4.34    -10.48756     19.58109     57.44036         7     1.207     0.445  65.46   0
       178    840.4548    347.3660 300.3360073 +22.7424143     735.0835     69.42208      1.044     2.88    -10.05626     19.58109     108.6194        11     0.915     0.733  -2.57   0
       179    515.6595    339.6751 300.2373429 +22.6428767      179.092     69.45742      0.936     3.85    -9.655827     19.58109     29.46174         5     1.027     0.414  75.75   0
       180    813.1569    334.8176 300.3315741 +22.7306306     313.9279     69.42208      1.180     3.42    -9.952356     19.58109     42.41665         7     0.910     0.599  70.87   0
       181    336.0656    332.4594 300.1838104 +22.5869613     1325.878     69.43975      1.268     2.11    -9.898537     19.58109     184.2757        17     0.989     0.894  10.50   0
       182     54.6325    329.9669 300.0971481 +22.5018328      305.371     69.47508      1.116     2.16    -10.16115     19.58109     81.87264         7     0.793     0.530  58.57   0
       183    312.0891    327.3530 300.1780120 +22.5783058     3397.775     69.38673      0.656     0.95    -9.964006     19.58109     1643.734         8     0.527     0.438 -89.58   0
       184    305.5081    321.9404 300.1777228 +22.5747787     14784.63     69.47508      1.238     2.16    -9.977977     19.58109     2136.937        46     1.138     1.042  77.10   0
       185    840.0283    319.1662 300.3450308 +22.7341823     713.2993     69.42208      1.194     2.13    -9.950481     19.58109      125.709        10     0.839     0.680 -83.06   0
       186      1.9936    309.9043 300.0873126 +22.4802840     2276.949     57.49243      1.264     2.35    -10.11274     19.58109      345.241        19     1.066     0.830  89.71  24
       187    179.4918    308.5373 300.1428990 +22.5331391     217.2697     69.51039      1.091     3.75    -10.11197     19.58109     44.17492         7     0.878     0.670 -70.46   0
       188    715.8515    301.6111 300.3120369 +22.6919371     958.7969      69.4044      1.156     2.00     -9.83162     19.58109     163.0441        12     0.870     0.740  55.20   0
       189    377.5877    286.3228 300.2117028 +22.5861655     1072.863     69.42208      1.378     2.43    -9.597726     19.58109     157.1707        17     1.138     0.878  65.04   0
       190    816.8290    278.9700 300.3508501 +22.7156810     207.9521     69.38673      1.066     2.23    -9.756828     19.58109      66.0349         6     0.826     0.461  53.53   0
       191    453.4936    265.6426 300.2420307 +22.6029818     558.5568     69.42208      1.235     2.36    -9.326949     19.58109     78.85765        10     0.875     0.681  87.62   0
       192    698.2054    257.3404 300.3209112 +22.6739298     1077.046     69.36904      1.235     2.19     -9.79609     19.58109     172.5771        16     0.985     0.883  16.58   0
       193    959.4918    251.6001 300.4042100 +22.7505383     1438.719     69.28055      1.034     2.05     -9.99238     19.58109     229.7853        14     0.897     0.729 -88.84   0
       194   1020.7793    246.3587 300.4250262 +22.7673813     288.7998     66.84699      1.069     2.47    -10.27549     19.58109     49.39238         6     0.702     0.598  45.40  16
       195    406.5508    241.3372 300.2353142 +22.5819307     328.6251     69.45742      1.442     4.12    -9.423527     19.58109     51.71749         9     1.187     0.681  66.39   0
       196    112.3859    235.2341 300.1458390 +22.4919749     402.5726     69.38673      1.492     3.53    -9.932752     19.58109     43.15125         8     0.935     0.610  69.83   0
       197     81.5626    235.6423 300.1361303 +22.4828470     757.4973     69.49274      1.660     3.67     -9.82003     19.58109     67.98653        15     1.087     0.905 -38.40   0
       198    975.3174    232.1153 300.4154697 +22.7496745      308.864     69.52805      1.461     4.05    -9.949966     19.58109     49.63188         7     1.130     0.716 -71.41   0
       199    165.6173    227.7399 300.1648120 +22.5057887     293.2344     69.35135      1.329     3.67      -9.9981     19.58109     42.87054         7     0.992     0.608  68.51   0
       200    769.7957    218.4777 300.3558282 +22.6842071     280.5951     69.31596      1.080     2.84    -9.564437     19.58109       65.644         5     0.811     0.538  54.08   0
       201    868.0575    207.7976 300.3899185 +22.7105658     903.9609     69.36904      1.136     1.85    -9.569341     19.58109     189.5756        11     0.780     0.745  88.28   0
       202    286.7852    205.4657 300.2097059 +22.5357267      1145.11     69.38673      1.226     2.18    -9.560463     19.58109     159.1347        12     0.953     0.736  51.99   0
       203    364.4858    199.9925 300.2356462 +22.5574484     453.6012     69.33366      1.337     3.41    -9.398847     19.58109     59.75781         8     0.911     0.610 -78.80   0
       204    766.5795    199.0316 300.3611368 +22.6776547     218.0414      69.4044      1.268     3.45     -9.44299     19.58109     52.20975         6     0.834     0.666 -54.44   0
       205    181.2766    192.2740 300.1811872 +22.5003044     345.5994     69.49274      1.192     2.75    -9.712394     19.58109     59.11034         8     0.861     0.618 -89.93   0
       206    719.0815    189.2217 300.3495218 +22.6606083     848.9194     69.36904      1.187     2.19    -9.389799     19.58109     122.3434        10     0.782     0.722  69.19   0
       207    784.0997    188.4582 300.3700273 +22.6798629     313.0405     69.49274      1.314     2.50    -9.357018     19.58109     51.91055         5     0.722     0.465  18.92   0
       208    202.5221    185.6249 300.1899480 +22.5047662     294.9462      69.4044      1.173     2.77    -9.583503     19.58109     43.00047         6     0.828     0.480  -5.11   0
       209    990.6776    181.8422 300.4365755 +22.7398169     378.1291     69.38673      1.213     3.46    -9.864276     19.58109     65.87804         9     1.029     0.674 -18.42   0
       210    723.1641    180.7978 300.3535272 +22.6594101     320.4923      69.4044      1.168     1.97    -9.300525     19.58109      68.6684         8     0.756     0.622  44.94   0
       211    643.7577    180.1399 300.3290073 +22.6354345     590.9521     69.38673      1.167     2.64    -9.322676     19.58109     101.6031         9     0.845     0.690 -78.06   0
       212    838.9376    171.4842 300.3926255 +22.6914062      568.791     69.49274      1.249     2.31    -9.339544     19.58109     118.6346        10     0.865     0.807  19.13   0
       213    570.1439    171.8186 300.3087858 +22.6109889     493.0676     69.38673      1.299     1.83    -9.256989     19.58109     90.12115         8     0.718     0.635  47.06   0
       214    851.0789    170.6149 300.3966919 +22.6947920     448.9529     69.42208      1.139     1.95    -9.349969     19.58109     67.59794         7     0.681     0.616  20.64   0
       215   1011.8575    161.1542 300.4498947 +22.7402076     878.1115     69.45742      1.245     2.68    -9.954659     19.58109     137.6783        14     1.200     0.680  61.46   0
       216    967.8059    160.4368 300.4363881 +22.7268143     557.4128     69.43975      1.171     2.62     -9.67403     19.58109     102.8936        10     0.917     0.738  59.96   0
       217    201.9363    154.0447 300.2000119 +22.4955243     355.8774     69.42208      1.332     2.70    -9.297124     19.58109     63.82523         6     0.875     0.456  57.39   0
       218     63.9055    148.9268 300.1587815 +22.4526648     1000.303     69.54568      1.326     2.81    -9.374836     19.58109     126.7858        13     0.961     0.803  70.30   0
       219    887.1752    145.4513 300.4161089 +22.6983653     401.3912     69.42208      1.154     2.84    -9.287136     19.58109     61.57691         6     0.853     0.549 -77.26   0
       220     13.4302    145.6341 300.1441717 +22.4365815     306.7762     69.42208      1.080     3.19    -9.310568     19.58109     40.68903         5     0.715     0.468 -72.72   0
       221    221.2553    142.1882 300.2098634 +22.4979124     2739.263     69.38673      1.238     2.38    -9.160607     19.58109     385.9088        22     1.058     0.891  73.37   0
       222      5.6124    136.8182 300.1446036 +22.4317067     560.4135     69.36904      1.201     2.67    -9.249042     19.58109     96.65913        11     0.956     0.701  36.16  16
       223    204.6371    132.9579 300.2076921 +22.4902800     298.0171     69.49274      1.240     3.10    -9.194131     19.58109     44.87058         5     0.751     0.425  68.64   0
       224   1020.0527    129.4585 300.4627347 +22.7335445     9052.845     68.67577      1.141     1.92    -9.559232     19.58109     1501.711        35     1.028     0.963 -81.61  24
       225    865.3140    123.6150 300.4163782 +22.6855412     1718.088     69.35135      1.132     2.10    -9.171639     19.58109     266.0534        16     0.926     0.808  83.37   0
       226    968.9601    122.0195 300.4492123 +22.7161115     1368.815     69.43975      1.214     2.11    -9.338886     19.58109     233.7303        15     0.975     0.891 -80.15   0
       227    414.7327    118.7145 300.2776469 +22.5491644     220.3756     69.49274      1.067     3.05    -8.959453     19.58109     46.57893         6     0.740     0.566  47.79   0
       228    339.1586    110.7418 300.2567245 +22.5242251     385.5584      69.4044      1.938     3.78    -8.931777     19.58109     33.88548         6     0.754     0.622  73.17   0
       229    105.5865    107.7801 300.1850777 +22.4533533     183.4826     69.36904      1.009     3.37    -9.229463     19.58109      48.4833         6     0.750     0.636  -3.55   0
       230    466.2969    106.2552 300.2977328 +22.5610368     932.7487     69.49274      1.349     2.52    -8.970049     19.58109     113.5613        13     0.933     0.785  53.78   0
       231    394.0743    106.3770 300.2752221 +22.5394295     197.2495     69.43975      1.400     3.09    -8.919734     19.58109     39.96358         5     0.818     0.490  55.81   0
       232    240.2183     86.0729 300.2339605 +22.4874843      2969.97      69.4044      1.252     2.33    -8.866452     19.58109     407.6034        24     1.023     0.960  88.48   0
       233      2.0555     76.7831 300.1629711 +22.4134098     202.7505     57.81166      1.193     3.93    -8.958167     19.58109     31.68154         5     0.837     0.530  53.07  24
       234    486.2514     71.3470 300.3152651 +22.5569861     3243.086     69.43975      1.284     2.34    -8.720288     19.58109     412.7631        27     1.097     1.022  51.14   0
       235    371.7656     71.1126 300.2797201 +22.5226144     367.8517     69.38673      1.248     3.04    -8.744541     19.58109     52.17126         7     0.753     0.644 -61.73   0
       236    680.2764     62.4533 300.3785588 +22.6125490     109.8135     69.43975      0.898     2.97    -8.303041     19.58109     36.43651         5     0.710     0.469  18.35   0
       237    738.6959     60.8003 300.3972937 +22.6295683     339.5909     69.28055      1.177     1.55    -8.338321     19.58109      67.0593         5     0.656     0.434  71.89   0
       238    898.9712     57.5891 300.4482876 +22.6766306     169.7806      69.4044      1.119     3.66    -8.563453     19.58109     31.23627         5     0.869     0.490   3.09   0
       239    537.3138     53.4850 300.3369512 +22.5671509     243.0041     69.52805      1.373     3.51    -8.211432     19.58109     32.39709         6     0.884     0.464 -89.19   0
       240    614.6022     51.4141 300.3616857 +22.5897066     3101.002     69.24512      1.199     2.25    -8.365238     19.58109     414.8126        24     1.048     0.910  54.71   0
       241    389.4528     50.4786 300.2919138 +22.5219871     671.2698     69.43975      1.161     2.43    -8.588592     19.58109     112.5547        11     0.846     0.784 -68.64   0
       242    655.7223     48.7101 300.3753682 +22.6012449     426.1487     69.54568      1.193     2.83    -8.180905     19.58109     76.69349         7     0.924     0.556 -70.52   0
       243    138.7052     43.1025 300.2163441 +22.4447144      459.563     69.58096      1.608     3.67    -8.690085     19.58109      51.4896         7     0.960     0.541  68.64   0
       244    941.6075     41.9569 300.4666515 +22.6848968     299.4339     69.42208      1.263     3.46    -8.639988     19.58109     43.96544         5     0.797     0.433  70.29   0
       245    710.0101     39.8765 300.3951427 +22.6149630     216.1288     69.38673      1.195     2.54    -7.999047     19.58109     51.93491         6     0.830     0.623  51.93   0
       246    658.7181     36.3026 300.3803249 +22.5985755     1248.638     69.54568      1.192     2.24    -7.988424     19.58109     180.1519        18     1.042     0.841 -77.40   0
       247    299.6920     37.1657 300.2683130 +22.4912641     182.0811     69.35135      1.245     4.30    -8.571174     19.58109      33.6151         7     1.152     0.458 -86.79   0
       248    673.9158     35.2895 300.3853869 +22.6028356     523.9515     69.54568      1.690     5.47     -7.92161     19.58109     52.81033        11     1.443     0.585  47.21   0
       249    745.3352     27.7833 300.4100697 +22.6220637     703.5976     69.38673      1.249     2.29    -7.814368     19.58109     129.3931        15     1.042     0.825 -87.02   0
       250    683.3832     20.7153 300.3930619 +22.6014809     392.8871     69.36904      1.349     3.33    -7.723281     19.58109     61.74444        10     0.958     0.805  29.89   0
       251    488.9234     20.4666 300.3325967 +22.5431663       474.24     69.49274      1.129     2.26     -8.22417     19.58109     86.86803         8     0.784     0.627  77.90   0
       252     61.5753     20.8761 300.1995870 +22.4152089     239.8826     69.42208      1.254     3.73    -8.824059     19.58109     38.71307         6     0.809     0.493 -86.55   0
       253    392.7151     18.7356 300.3032220 +22.5138451     426.6407     69.49274      1.380     4.41    -8.386274     19.58109     56.68967         9     1.122     0.591  65.50   0
       254    288.6736   1017.0103 299.9465024 +22.7690865      579.754      69.4044      1.198     2.40    -12.85545     19.58109     93.52761         8     0.759     0.683   6.27   0
       255    125.2002   1013.1119 299.8969681 +22.7188680     802.2192     69.31596      2.517     8.51     27.09201     19.58109     32.45487        14     2.055     0.984  66.95  16
       256    193.1295   1009.9358 299.9191085 +22.7383633     790.7717     69.43975      4.226     7.50     25.10326     19.58109     36.61272         8     1.475     1.067 -72.25   0
