#   1 NUMBER                 Running object number                                     
#   2 X_IMAGE                Object position along x                                    [pixel]
#   3 Y_IMAGE                Object position along y                                    [pixel]
#   4 ALPHA_J2000            Right ascension of barycenter (J2000)                      [deg]
#   5 DELTA_J2000            Declination of barycenter (J2000)                          [deg]
#   6 FLUX_APER              Flux vector within fixed circular aperture(s)              [count]
#   7 FLUXERR_APER           RMS error vector for aperture flux(es)                     [count]
#   8 FLUX_RADIUS            Fraction-of-light radii                                    [pixel]
#   9 FWHM_IMAGE             FWHM assuming a gaussian core                              [pixel]
#  10 BACKGROUND             Background at centroid position                            [count]
#  11 THRESHOLD              Detection threshold above background                       [count]
#  12 FLUX_MAX               Peak flux above background                                 [count]
#  13 ISOAREA_IMAGE          Isophotal area above Analysis threshold                    [pixel**2]
#  14 A_IMAGE                Profile RMS along major axis                               [pixel]
#  15 B_IMAGE                Profile RMS along minor axis                               [pixel]
#  16 THETA_IMAGE            Position angle (CCW/x)                                     [deg]
#  17 FLAGS                  Extraction flags                                          
         1    167.7529     18.6139 300.2354334 +22.4425004     1916.165     69.34504      1.309     2.54     -9.18934     19.56434     229.4433        20     1.146     0.887 -82.96   0
         2    728.9085     10.7774 300.4126020 +22.6083750      402.541     69.27435      1.283     2.94    -7.435839     19.56434     53.25689         8     0.841     0.724 -77.15   0
         3    283.4019     10.4855 300.2740235 +22.4748307     532.6945     69.27435      1.357     3.42     -8.20413     19.56434     87.13139        12     1.086     0.793  25.14   0
         4    767.2248      6.0523 300.4260736 +22.6184893     340.7245      69.3627      1.232     3.04    -7.724752     19.56434     55.73032         7     0.898     0.594  79.10  16
         5    786.8015      2.0541 300.4334710 +22.6232011     1133.369     57.71979      1.220     2.15    -7.950213     19.56434     178.4488        16     1.142     0.722   7.10  24
         6    167.4514   1011.4724 299.9126976 +22.7271683     1232.472     69.34504      8.262    13.52     22.33821     19.56434     49.13094        19     3.010     1.690  88.50  19
         7    129.0031   1021.2372 299.8975712 +22.7184151      953.972     65.17481      2.391     8.33     23.98047     19.56434     41.97667        18     1.975     1.079  40.72  24
         8     77.9475   1012.7529 299.8844732 +22.7006456     2397.541     69.38036     18.847    60.10     12.02105     19.56434     63.85519       772    12.047     8.320  43.59  27
         9     73.3431    926.6379 299.9110794 +22.6745948     1740.818     69.34504     20.038    35.21     -8.70528     19.56434     48.82856       212     9.986     3.446 -56.21   3
        10    226.1686   1014.6407 299.9299143 +22.7457138      348.616     69.39801      1.286     3.45     21.05805     19.56434     40.76311         5     0.788     0.437 -17.52   0
        11     71.8334    951.2320 299.9026044 +22.6811866     2403.512      69.3627     20.567    26.78    -3.868016     19.56434     65.73125       171     6.824     2.917   2.55   3
        12    217.6543    991.9048 299.9346713 +22.7366421     941.4221     69.41566      6.952     9.25     13.11264     19.56434     37.32441        13     2.656     0.899  41.79   3
        13    351.9130   1012.9529 299.9695595 +22.7829950     319.8005     69.30971      1.376     4.15    -13.28429     19.56434     51.14204         5     0.997     0.540 -12.03   0
        14     61.8387    975.9961 299.8914377 +22.6852775     2149.767      69.3627     20.733    30.81   -0.8906186     19.56434     56.08019       208     7.770     3.390  56.33  19
        15    207.8598   1007.4240 299.9265737 +22.7381467     1138.136     69.32738      9.255     9.25     19.22247     19.56434     55.86834        25     2.378     1.504  23.29   3
        16    214.4400   1003.5732 299.9298728 +22.7390199     1804.125     69.39801     14.428    17.01     17.84015     19.56434     52.74746        66     3.353     2.685   8.45  19
        17    215.0645    998.4957 299.9317203 +22.7377527     703.4935     69.45094      3.817     3.36     15.53003     19.56434     53.88503         5     1.128     0.290  35.11   3
        18    226.1361    982.2256 299.9404593 +22.7364163     1338.951     69.32738      4.050     7.38     8.599647     19.56434     47.60661        16     1.932     0.790  33.59   3
        19    923.5327    984.8324 300.1567151 +22.9464799     475.8221     69.34504      1.090     2.16    -13.05399     19.56434     69.88491         8     0.777     0.631  38.62   0
        20    142.3918    970.1075 299.9183794 +22.7077901     781.5988     69.25667      3.929     8.40     7.625513     19.56434     40.53491        11     1.707     1.153  29.80   0
        21    648.7693    968.2661 300.0764940 +22.8592964     3375.969     69.34504      1.180     1.98    -12.85785     19.56434     562.3395        26     1.046     0.905  51.19   0
        22    215.2463    995.6450 299.9327050 +22.7369905      1626.76     69.38036      9.993    11.33     14.77449     19.56434     63.26555        38     2.648     1.350  18.16   3
        23    543.9412   1006.0099 300.0315665 +22.8386580     1148.657     69.30971      1.181     1.87    -12.87318     19.56434     237.3944        12     0.829     0.736 -81.91   0
        24    120.6237    966.3503 299.9128393 +22.7001747     715.1105     69.34504      7.362     7.71      5.53593     19.56434     32.87046        12     1.772     0.939   1.45   0
        25    528.0297    962.4182 300.0408085 +22.8213830     170.9274     69.32738      1.051     4.45    -12.83441     19.56434     28.74318         6     0.871     0.646  35.51   0
        26    557.3697    959.0653 300.0510327 +22.8292278     792.9573      69.3627      1.098     1.91    -12.85866     19.56434     153.3624         9     0.738     0.675 -35.37   0
        27     53.8675    986.5841 299.8855146 +22.6859153     2036.406     69.34504     16.348    27.13    -1.225038     19.56434     49.56549       169     5.121     3.990  24.64   3
        28    107.9562    953.8636 299.9129690 +22.6927921      1287.62     69.34504     12.169    12.49     1.248973     19.56434     40.46527        29     2.357     1.843 -38.61   0
        29    451.1457    955.4015 300.0191673 +22.7962924     473.6119     69.27435      1.020     1.90     -12.8524     19.56434     86.76405         9     0.765     0.646 -73.90   0
        30    381.7764    953.6994 299.9981413 +22.7749786     3226.677     69.29203      1.126     1.83    -12.84417     19.56434      577.833        23     0.933     0.907  48.31   0
        31    225.0000    995.9660 299.9356322 +22.7400121     941.7327     69.29203      4.185     3.83     14.29458     19.56434     32.53025         5     1.334     0.315 -78.80   3
        32    734.5156    956.5153 300.1070274 +22.8816545     175.5028     69.45094      1.280     4.89    -12.86703     19.56434     33.54267         6     1.137     0.596 -44.99   0
        33    196.7139   1001.7623 299.9249532 +22.7331766     1950.044     69.32738      6.448    15.09       17.844     19.56434     71.48585        41     3.322     1.906 -17.78   3
        34    928.0244    932.1863 300.1752578 +22.9327182      1006.36     69.34504      1.144     1.68    -13.02073     19.56434     239.5392        13     0.848     0.731   6.55   0
        35     78.8383    969.7083 299.8987652 +22.6885837      3106.29     69.34504     25.254    58.31     1.869897     19.56434     68.24429       769    12.974     7.271  48.78  19
        36    730.6204   1002.1525 300.0909531 +22.8935770     390.7941     69.38036      1.114     2.46    -12.95785     19.56434     76.83327         7     0.903     0.477  83.51   0
        37    716.7634    921.4693 300.1129074 +22.8662746      326.129     69.32738      1.671     4.02    -12.75326     19.56434     58.12395         6     1.364     0.340  58.68   0
        38    237.1138    989.7132 299.9414335 +22.7418589     4109.604     69.46857      7.680    27.39     7.503712     19.56434     99.83553       306     7.672     3.963  59.90  18
        39    630.4651   1001.2255 300.0600615 +22.8632558     4195.243     69.32738      1.101     1.88    -12.87358     19.56434     678.2602        23     0.959     0.890  12.94   2
        40    751.6424    915.2042 300.1258128 +22.8749409     432.1631      69.3627      1.014     1.57    -12.70893     19.56434     107.3704         5     0.644     0.451 -69.31   0
        41    773.8380    909.0129 300.1347438 +22.8798228     5533.879     69.34504      1.116     1.74    -12.68273     19.56434     1203.164        27     0.932     0.880 -70.29   0
        42    964.5717    908.7666 300.1942786 +22.9369557     116.6019      69.3627      0.942     2.32    -12.91899     19.56434     44.45221         5     0.676     0.483  76.91   0
        43    819.3796    908.6873 300.1490413 +22.8933899      137.681     69.27435      1.050     2.50    -12.73762     19.56434      52.6468         6     0.776     0.544  43.05   0
        44    636.0769    998.9622 300.0625460 +22.8642909     4451.249     69.32738      1.151     1.80     -12.8719     19.56434     909.7775        24     0.962     0.876 -70.77   3
        45    478.7774    897.4702 300.0466242 +22.7879765     222.8683      69.3627      1.070     1.71    -12.39899     19.56434     60.83407         5     0.649     0.483  17.03   0
        46    782.5577    891.0524 300.1433074 +22.8772849     678.5812     69.34504      1.080     1.68    -12.52152     19.56434     134.5054         9     0.787     0.609  41.25   0
        47    965.5325    889.9998 300.2006875 +22.9318567     163.6853     69.29203      1.102     3.63    -12.82291     19.56434     40.96441         6     0.935     0.498 -13.31   0
        48    634.3404    888.1990 300.0980670 +22.8320011     161.1174     69.30971      0.957     2.32    -12.52563     19.56434     37.71461         5     0.715     0.443  72.48   0
        49    820.1976    883.9937 300.1573346 +22.8865491     556.5078     69.16818      1.487     5.62    -12.50332     19.56434     74.67073         9     1.636     0.544  40.21   0
        50    868.9177    875.4807 300.1752909 +22.8987176     348.9569      69.4862      1.243     3.71    -12.53878     19.56434     67.01226         9     1.144     0.785 -38.43   0
        51    720.3848    874.9697 300.1291720 +22.8540203     299.6479     69.34504      1.028     1.70    -12.35858     19.56434     77.50375         6     0.712     0.486 -86.83   0
        52    432.9055    871.3326 300.0408585 +22.7667132     2046.812      69.4862      1.097     1.69    -12.30692     19.56434     446.2304        18     0.839     0.825 -17.99   0
        53    210.3072    860.7238 299.9750901 +22.6968438     161.7818      69.4862      1.199     3.75    -11.81533     19.56434     40.56903         5     0.988     0.408 -44.54   0
        54    157.8183    857.0468 299.9599742 +22.6800277     413.6342     69.38036      1.339     2.87    -11.44321     19.56434     53.24454         9     0.892     0.679 -70.20   0
        55    135.3396    854.1766 299.9539234 +22.6724545     755.8002     69.32738      1.129     2.22    -11.48323     19.56434     132.1551        11     0.878     0.702  14.08   0
        56   1006.8915    842.7928 300.2289520 +22.9307041     980.2064     69.25667      1.081     1.69    -12.51078     19.56434     231.6946        10     0.759     0.685  64.32   0
        57    961.1902    841.2031 300.2152162 +22.9165465      1082.41     69.16818      1.110     1.75    -12.50716     19.56434     228.1223        13     0.996     0.674  70.43   0
        58    666.5125    841.2307 300.1233727 +22.8281791     226.2717     69.32738      1.017     3.05    -12.20298     19.56434     39.08309         5     0.740     0.452  68.71   0
        59    167.1218    835.6978 299.9698125 +22.6767033     222.4689     69.45094      1.118     2.94    -11.59156     19.56434      49.0558         6     0.736     0.627  67.26   0
        60    744.6113    835.3406 300.1496171 +22.8499163     212.4674     69.30971      1.071     3.08    -12.18558     19.56434     53.86593         5     0.911     0.427 -14.76   0
        61    612.8677    829.4055 300.1105157 +22.8086927      2396.74     69.30971      1.059     1.62    -12.19749     19.56434     489.6603        21     0.953     0.849  85.98   0
        62    163.1611    823.3976 299.9725840 +22.6719887     597.9456      69.3627      1.205     2.29    -11.64204     19.56434     103.7991        12     1.015     0.689  73.04   0
        63    633.3962    821.8134 300.1193785 +22.8126734     411.6525     69.20359      1.031     2.06    -12.15064     19.56434     63.36512         7     0.737     0.591  60.66   0
        64    182.0725    820.4459 299.9794214 +22.6768214     219.0777     69.34504      0.949     3.81    -11.72191     19.56434     44.24817         7     0.954     0.827  -8.29   0
        65    788.8337    809.0424 300.1719538 +22.8556325     2012.359     69.39801      1.002     1.61    -12.19895     19.56434     523.9385        14     0.816     0.704  74.57   0
        66   1005.8679    809.0287 300.2396208 +22.9207027     507.8396     69.32738      1.083     1.88    -12.22445     19.56434     106.6697         9     0.727     0.688 -53.83   0
        67    505.8074    801.3379 300.0863212 +22.7685185     419.6911     69.30971      1.127     2.23    -11.67848     19.56434     73.02171         6     0.706     0.610  41.65   0
        68    152.4509    799.7975 299.9769344 +22.6620087     504.4232     69.34504      1.161     1.98    -11.77043     19.56434     82.07788         6     0.700     0.496  85.44   0
        69    567.5074    794.8945 300.1076229 +22.7851831     246.9772     69.50382      1.005     3.40    -11.78111     19.56434     42.78729         5     0.724     0.624  26.53   0
        70    301.9413    791.7686 300.0260148 +22.7045887     26415.23      69.3627      1.138     1.80    -11.90334     19.56434     5192.549        54     1.047     1.008  79.04   0
        71    559.7822    790.6942 300.1065846 +22.7816604     766.9299     69.27435      1.040     1.92    -11.72538     19.56434     140.5237        10     0.746     0.678 -89.44   0
        72    972.7200    789.7008 300.2355718 +22.9052162     468.2823     69.46857      1.003     1.82    -12.10836     19.56434     97.75187         7     0.708     0.585 -23.79   0
        73    588.7150    786.5670 300.1169348 +22.7891567     402.1442     69.30971      0.972     1.92    -11.83607     19.56434     92.74923         7     0.733     0.565 -83.55   0
        74    599.7102    784.8588 300.1209139 +22.7919652     310.1802      69.4333      1.156     2.48     -11.8688     19.56434     57.33693         7     0.829     0.568 -65.54   0
        75    742.9185    771.8663 300.1697437 +22.8311928     323.8604     69.45094      1.099     3.38    -11.85264     19.56434     53.76971         9     0.924     0.691 -80.87   0
        76    351.6655    769.0052 300.0488837 +22.7129870     15572.04     69.34504      1.123     1.79    -11.77947     19.56434     3028.845        47     1.051     1.000  84.95   0
        77    365.8346    769.4977 300.0531305 +22.7173809     1037.974     69.34504      1.129     1.98    -11.77056     19.56434     172.9382        13     0.861     0.809 -82.02   0
        78    874.5889    764.6489 300.2131258 +22.8686042     1324.251      69.3627      1.006     1.77    -11.95958     19.56434     289.4617        13     0.808     0.741  11.10   0
        79    632.6476    760.9439 300.1389504 +22.7949842     552.5504     69.38036      1.073     2.01    -11.71884     19.56434     96.22556         7     0.669     0.647  57.38   0
        80    234.1810    760.4428 300.0151390 +22.6752664     476.6936      69.3627      1.231     2.33    -11.79189     19.56434     69.87587         7     0.775     0.598 -27.16   0
        81    479.6759    755.6673 300.0930474 +22.7475773     458.6552      69.4333      1.102     2.30    -11.57395     19.56434     72.19083         6     0.665     0.608  -0.44   0
        82     38.5664    756.1389 299.9557572 +22.6152974     317.4223      69.3627      1.170     2.64    -11.94783     19.56434     48.41923         6     0.785     0.495  88.47   0
        83    880.7698    752.4300 300.2190279 +22.8669493     272.9613     69.32738      1.205     2.25    -11.86043     19.56434     49.28269         5     0.695     0.450 -22.90   0
        84    381.5877    752.1886 300.0636613 +22.7171449     235.6477     69.23898      1.272     3.34    -11.71941     19.56434     27.75943         5     0.731     0.461 -72.21   0
        85    634.0968    750.3710 300.1428413 +22.7923852     122.1231     69.27435      0.872     3.00    -11.62833     19.56434     36.11319         5     0.737     0.442  19.23   0
        86    425.8203    750.4212 300.0779965 +22.7299121     265.3044     69.34504      1.335     3.16      -11.683     19.56434     28.71582         5     0.728     0.460 -18.40   0
        87     67.0632    749.9734 299.9666141 +22.6220883     235.4829     69.34504      1.062     2.54    -11.85346     19.56434     49.09287         7     0.833     0.529 -52.09   0
        88    231.6623    744.9280 300.0194028 +22.6700623       130.65     69.38036      1.065     3.33    -11.77096     19.56434     42.76865         5     0.780     0.411  69.38   0
        89    555.1738    735.4467 300.1231235 +22.7644278      259.845      69.3627      1.213     2.28    -11.50342     19.56434     44.26532         5     0.697     0.459  21.40   0
        90    524.7115    733.8564 300.1141586 +22.7548327     341.4003     69.38036      1.113     2.03     -11.5058     19.56434     67.84306         5     0.713     0.425  74.01   0
        91    546.5338    731.2947 300.1217845 +22.7606446     686.5944     69.46857      1.138     2.01    -11.46618     19.56434     132.4737        10     0.842     0.658 -80.91   0
        92    940.9750    729.9744 300.2451040 +22.8785502     2175.306     69.30971      1.049     1.62    -11.70329     19.56434     564.3962        17     0.833     0.757  63.31   0
        93    929.5842    721.3497 300.2443577 +22.8726591     781.0233      69.3627      1.000     2.08    -11.63291     19.56434     159.8717        11     0.807     0.677 -86.68   0
        94    292.7615    715.6131 300.0479334 +22.6799970     390.9135      69.3627      0.973     1.98    -11.59313     19.56434     71.33018         7     0.719     0.584 -34.85   0
        95    960.6425    711.4686 300.2572568 +22.8791312     824.1252     69.32738      1.060     2.46    -11.59561     19.56434     130.3776        12     0.989     0.774  22.71   0
        96    755.7090    712.7361 300.1929643 +22.8180567     1202.833     69.45094      0.983     1.59    -11.55574     19.56434     257.9006        12     0.766     0.685  62.22   0
        97    837.8588    698.3866 300.2232319 +22.8385683     286.1056     69.32738      1.661     3.32    -11.57454     19.56434     56.88558         5     1.058     0.301  55.46   0
        98    141.1057    699.1688 300.0061414 +22.6297580     302.2287     69.27435      1.071     2.90    -11.50163     19.56434     52.70624         5     0.620     0.588 -35.10   0
        99    874.2660    689.6465 300.2374231 +22.8469733     72201.37     69.34504      1.059     1.64    -11.53141     19.56434     15053.77        94     1.113     1.049  80.58   0
       100   1021.2807    691.2167 300.2827567 +22.8914886     637.5214     65.04313      1.074     1.76    -11.60211     19.56434     128.2634         9     0.790     0.615 -37.61  16
       101    726.6533    690.0834 300.1912798 +22.8028417     358.2348     69.38036      1.147     2.23    -11.43689     19.56434     71.09191         5     0.720     0.429 -69.05   0
       102    560.4014    678.5599 300.1432532 +22.7496736     674.3821      69.3627      1.002     2.13    -10.93834     19.56434     134.6422        11     0.867     0.633 -47.47   0
       103    741.7445    675.8205 300.2006200 +22.8032726     4578.498     69.32738      1.080     1.69    -11.48762     19.56434     977.2172        25     0.967     0.836  62.58   0
       104    243.4012    671.1752 300.0470386 +22.6524392     2551.711     69.29203      1.162     2.02    -11.29386     19.56434     398.0536        23     1.025     0.909 -73.61   0
       105    325.2602    669.1926 300.0731358 +22.6764379     469.8509     69.30971      1.137     2.03      -11.113     19.56434     85.16798         8     0.729     0.644 -45.34   0
       106    200.0511    666.5586 300.0350647 +22.6381037     357.3775     69.34504      1.266     4.17    -11.31012     19.56434     92.12395         5     1.060     0.468  31.78   0
       107    533.6336    664.3910 300.1395284 +22.7375786     375.0276     69.34504      1.162     2.46    -10.96414     19.56434     57.48011         5     0.707     0.445 -70.41   0
       108    525.3809    656.7248 300.1394525 +22.7329034     1644.397     69.34504      1.083     2.02    -11.00584     19.56434     286.2009        15     0.927     0.780  46.34   0
       109    697.5883    653.5932 300.1940926 +22.7836518      1779.78     69.22129      0.823     3.10    -11.03597     19.56434     833.9172         8     0.753     0.373 -36.20   0
       110    515.5837    650.6031 300.1383937 +22.7282080     685.1391     69.23898      1.077     2.19    -11.03551     19.56434     119.2761        12     0.842     0.738  30.98   0
       111    908.8722    648.2113 300.2616873 +22.8454479      277.893      69.3627      1.285     2.30    -11.21005     19.56434     51.42559         6     0.729     0.534 -35.98   0
       112    652.1367    647.7288 300.1818430 +22.7683388     4275.709     69.38036      0.540     2.37    -10.81909     19.56434     3258.021         9     0.700     0.243 -58.71   0
       113    178.8103    646.8221 300.0348804 +22.6260689     338.1575     69.34504      1.147     2.27    -11.30244     19.56434     56.63443         8     0.778     0.634 -39.79   0
       114    193.0837    645.1593 300.0398572 +22.6298764     194.1861     69.30971      1.105     1.88    -11.29709     19.56434     75.13124         8     0.772     0.598 -45.50   0
       115    218.4989    641.8736 300.0488252 +22.6365626     242.7046      69.4862      1.110     2.49    -11.28834     19.56434     52.45046         5     0.729     0.441 -66.00   0
       116    440.2613    640.2062 300.1183342 +22.7026292     833.3286     69.30971      1.158     2.17     -11.1918     19.56434     148.0441        11     0.803     0.770  89.28   0
       117   1015.9187    637.4073 300.2985839 +22.8744254     396.3868     69.27435      1.000     2.05    -11.43923     19.56434      74.7468         7     0.735     0.596  21.98   0
       118     94.3523    635.3135 300.0123785 +22.5974161     9566.915     69.32738      1.144     2.00    -11.28167     19.56434      1528.02        38     1.043     1.008 -78.89   0
       119     15.4915    636.9064 299.9873649 +22.5741962     297.9755     69.50382      1.016     2.35    -11.26551     19.56434     47.55927         6     0.744     0.500 -88.64   0
       120    525.0283    635.2291 300.1463324 +22.7266295     512.7335     69.30971      1.027     3.20    -10.90076     19.56434     91.89445        10     1.072     0.672  62.01   0
       121    943.1017    621.6195 300.2810073 +22.8480694     377.6687     69.27435      0.924     1.65     -11.1154     19.56434     99.71107         7     0.645     0.596   9.85   0
       122     40.3640    619.8417 300.0006378 +22.5767725     795.8556     69.41566      1.585     4.46    -11.26678     19.56434      77.4598        13     1.282     0.717 -76.15   0
       123    106.2396    619.8140 300.0211108 +22.5965411     227.6505      69.3627      1.204     4.39    -11.27506     19.56434     30.08588         7     0.910     0.602  53.84   0
       124    883.4594    614.0394 300.2648759 +22.8280173     503.8477     69.34504      1.017     2.59    -11.04448     19.56434     83.62621         6     0.844     0.495 -84.94   0
       125    445.3895    608.0197 300.1303947 +22.6949330     375.3345     69.32738      1.188     2.57    -10.81779     19.56434     61.13471         8     0.834     0.635 -34.97   0
       126    610.3843    605.4650 300.1825827 +22.7436872     289.7248     69.32738      1.736     3.70    -10.63005     19.56434     50.16095         6     1.099     0.534 -46.53   0
       127    489.4878    604.0677 300.1454022 +22.7070272     415.0949     69.46857      1.171     2.36    -10.75342     19.56434     62.13926         6     0.745     0.500  89.65   0
       128    923.2172    599.6049 300.2819647 +22.8357871     1576.946     69.30971      1.036     1.64    -11.01603     19.56434     325.2462        14     0.817     0.736  86.69   0
       129    455.1457    599.7668 300.1361134 +22.6954917     822.2501      69.3627      1.079     1.67    -10.74169     19.56434     192.0641        12     0.831     0.754  84.35   0
       130     17.1689    593.5607 300.0019771 +22.5622749     2598.481     69.34504      1.203     2.10    -11.26296     19.56434     374.2338        19     0.952     0.853  43.91   0
       131    318.5474    586.5659 300.0979124 +22.6507237     4473.593      69.3627      1.098     2.01      -10.919     19.56434     659.2787        28     1.022     0.931 -85.73   0
       132    440.8873    583.5310 300.1369548 +22.6865559     4300.852     69.46857      1.141     1.99    -10.61304     19.56434     737.3444        26     1.034     0.882  54.74   0
       133    937.1373    574.7079 300.2943994 +22.8328072     6028.567     69.45094      1.064     1.66     -11.0643     19.56434     1336.492        27     0.983     0.823 -88.72   0
       134    852.5305    577.4096 300.2671433 +22.8082274     977.4572     69.32738      1.056     1.90    -11.04201     19.56434     149.4914        12     0.766     0.737 -61.72   0
       135    501.5051    573.1016 300.1592089 +22.7017454      5683.15     69.52145      1.140     1.96    -10.51981     19.56434     872.1425        33     1.037     0.957 -85.91   0
       136    671.0388    568.6761 300.2134317 +22.7513140     287.4252     69.30971      1.263     2.39    -10.68422     19.56434     51.08986         5     0.750     0.562 -83.83   0
       137    229.2009    568.6960 300.0759412 +22.6187882     669.8099     69.22129      1.211     3.06    -11.13019     19.56434     102.5362        12     1.004     0.750 -15.52   0
       138    476.2049    566.3560 300.1535278 +22.6922212     171.6329     69.34504      1.026     2.04    -10.44742     19.56434     44.21722         5     0.710     0.430  21.89   0
       139    433.2551    561.3208 300.1417997 +22.6778936     2111.447     69.38036      1.119     1.98    -10.41533     19.56434     358.7092        16     0.903     0.795  48.79   0
       140    775.9343    561.1686 300.2485509 +22.7806048     401.5627     69.34504      0.951     1.74    -10.97676     19.56434     97.04228         7     0.651     0.622  55.98   0
       141    411.4116    559.8528 300.1354808 +22.6709200     623.3286     69.34504      1.230     2.78    -10.44725     19.56434     97.36107         9     0.987     0.572  82.66   0
       142    165.7680    559.0511 300.0593599 +22.5969857     388.3716     69.38036      0.977     2.33    -11.25641     19.56434     68.85545         6     0.824     0.464 -57.21   0
       143    852.9920    556.5593 300.2740651 +22.8023774     788.1409      69.3627      1.211     2.35    -11.06814     19.56434     119.6742        11     0.918     0.693 -39.34   0
       144    733.2935    553.8633 300.2376396 +22.7657249     450.2467     69.45094      1.171     3.58    -10.78064     19.56434     61.67876         8     1.045     0.571 -46.59   0
       145    549.7695    548.8260 300.1821228 +22.7092530     99581.97     69.34504      1.192     1.85    -10.41111     19.56434     18828.11       135     1.240     1.229  83.57   0
       146    924.5746    549.9027 300.2985456 +22.8219172     2324.937     69.29203      0.627     0.38    -11.06641     19.56434     1450.626         7     0.579     0.305  12.18   0
       147    235.9522    548.9221 300.0844670 +22.6151425     1702.621     69.34504      1.219     2.00    -11.05788     19.56434     325.9628        17     0.919     0.870 -74.69   0
       148    915.0189    546.0925 300.2968046 +22.8179593      4500.31     69.27435      0.431   -38.71    -11.07048     19.56434     3610.571         7     0.320     0.313 -69.33   0
       149    440.3530    529.3391 300.1544030 +22.6708451     1439.282     69.38036      1.417     2.31    -10.22102     19.56434     196.4339        25     1.516     0.907 -86.87   0
       150    837.2872    515.1964 300.2826141 +22.7857905      820.989     69.27435      1.044     1.89    -10.99597     19.56434     159.9028         8     0.774     0.611  68.00   0
       151    708.4062    513.0189 300.2431616 +22.7465362     1236.123     69.30971      1.107     1.96    -10.55744     19.56434      203.893        15     0.908     0.793 -65.85   0
       152    613.5084    509.2900 300.2148171 +22.7170160     279.6506     69.50383      1.311     3.49    -10.30124     19.56434     39.36792         5     0.746     0.470 -73.01   0
       153    495.9596    508.9447 300.1783352 +22.6816693     326.3736     69.32738      1.139     2.40    -10.20398     19.56434     58.88228         7     0.832     0.524 -44.00   0
       154    965.7504    506.8172 300.3253899 +22.8218767     724.4474     69.38036      1.048     1.64    -11.06022     19.56434     152.9746        10     0.778     0.638   3.26   0
       155    951.1927    505.9586 300.3211289 +22.8172685     477.0196      69.3627      1.192     2.84    -11.04741     19.56434     72.96872         8     0.932     0.647  -6.09   0
       156    837.5914    505.4930 300.2858625 +22.7830946     1032.921     69.25667      1.082     2.14    -10.96022     19.56434     179.8736        15     0.976     0.822 -89.30   0
       157    875.6770    500.3932 300.2993920 +22.7930426     2000.918     69.27435      1.048     1.79     -10.9356     19.56434     356.3781        16     0.876     0.750  61.20   0
       158    107.9075    491.1620 300.0634427 +22.5601516     553.6335     69.34504      1.472     3.25      -11.233     19.56434     89.23318        10     1.077     0.697  82.58   0
       159    967.6176    490.5670 300.3312533 +22.8177671     393.8333     69.32738      1.023     2.55    -11.02752     19.56434      63.2287         7     0.798     0.592  71.06   0
       160    649.0750    471.3801 300.2382122 +22.7167942     375.4992     69.34504      1.282     3.41    -10.21994     19.56434     47.61647         8     0.824     0.671 -83.08   0
       161    963.5106    463.0351 300.3389191 +22.8086258     308.7808     69.32738      0.991     1.83    -10.91388     19.56434     61.48741         6     0.702     0.499  86.56   0
       162    709.8618    463.1511 300.2598201 +22.7326522     364.4157     69.39801      1.066     2.02    -10.29648     19.56434     95.45647         8     0.786     0.595  41.25   0
       163    867.0650    459.3303 300.3100509 +22.7786658     597.2233     69.38036      1.161     1.97    -10.72323     19.56434     92.88766         7     0.657     0.650  39.44   0
       164    851.6489    455.5762 300.3064651 +22.7729681       254.16     69.34504      1.050     2.40    -10.70805     19.56434     48.29311         5     0.675     0.471  18.15   0
       165    595.7950    453.6968 300.2273662 +22.6957443     1496.877     69.25667      1.176     2.02    -10.04757     19.56434     256.2276        16     0.919     0.845  56.59   0
       166     57.0574    435.6019 300.0656959 +22.5289571     2502.616     69.29203      0.718     2.92    -10.42186     19.56434     942.6425         9     0.711     0.352  81.28   0
       167   1007.0541    432.6137 300.3623847 +22.8129273     702.9139     69.34504      1.075     2.05    -10.84868     19.56434     120.4526        10     0.763     0.753  38.51   0
       168    878.8042    432.4083 300.3224578 +22.7744485     228.4577     69.18589      1.014     2.29    -10.58321     19.56434     51.40719         6     0.682     0.608 -88.76   0
       169    965.4169    431.1846 300.3498623 +22.8000445     424.4042     69.30971      1.034     1.98    -10.75199     19.56434     101.5163         7     0.756     0.571  19.87   0
       170    706.1103    427.4741 300.2702429 +22.7212816     545.5121     69.50382      1.145     2.36    -10.06448     19.56434      88.6535         8     0.777     0.643  85.19   0
       171    210.2575    426.0437 300.1164064 +22.5721840     312.6437     69.32738      1.157     2.60    -10.38251     19.56434     52.53429         7     0.714     0.659  60.46   0
       172    272.8016    421.7799 300.1372357 +22.5897232     1819.813     69.27435      1.197     2.10    -10.08463     19.56434     309.8114        18     0.932     0.851 -88.90   0
       173   1005.6405    419.9273 300.3660655 +22.8088579     2226.192     69.32738      1.091     1.75    -10.80342     19.56434     434.7684        16     0.844     0.791 -50.30   0
       174    219.9753    416.5201 300.1225209 +22.5723671     3771.724     69.32738      1.212     2.10    -10.19154     19.56434     593.9459        24     0.993     0.909 -68.91   0
       175    360.6460    410.7509 300.1681372 +22.6129062     2333.436      69.3627      1.195     2.06     -9.70961     19.56434     387.2364        20     1.000     0.872  74.82   0
       176    985.6295    411.0145 300.3627193 +22.8003026     914.6704      69.3627      1.044     1.83    -10.67273     19.56434     183.5486        10     0.850     0.639  45.58   0
       177    604.8387    407.3222 300.2452482 +22.6851396      9077.79     69.32738      1.206     2.08    -9.735766     19.56434     1415.846        36     1.062     0.987  61.59   0
       178    621.8467    407.3254 300.2505434 +22.6902388     470.0556     69.34504      1.943     5.92    -9.765864     19.56434      44.0054         9     1.276     0.772 -40.11   0
       179    938.5623    389.4179 300.3550562 +22.7799978     361.8856     69.34504      1.128     3.03    -10.36136     19.56434     60.91099         7     0.983     0.495 -60.83   0
       180    159.5403    387.6721 300.1131067 +22.5459599     1001.071     69.38036      1.179     2.13    -10.45806     19.56434     159.4432        15     0.935     0.831  67.05   0
       181    545.4893    376.8277 300.2366753 +22.6585921     3107.665     69.32738      1.188     2.06    -9.450459     19.56434     498.3668        18     0.964     0.840  61.87   0
       182    959.0258    376.9236 300.3654963 +22.7825366     514.9542      69.3627      1.138     2.22    -10.27417     19.56434      120.364        10     0.847     0.675  76.32   0
       183    260.7260    376.1294 300.1483090 +22.5730018     240.4131     69.41566      1.318     4.67    -9.823894     19.56434      43.5194         7     0.994     0.621 -81.72   0
       184    659.3630    366.8624 300.2753703 +22.6898628     249.7814      69.3627      1.176     2.38    -9.686244     19.56434     43.65236         5     0.709     0.451 -72.12   0
       185    749.6179    365.6007 300.3038964 +22.7165475     564.8489     69.27435      1.344     3.09    -9.939878     19.56434     72.27197        10     1.077     0.596  69.38   0
       186    452.1860    363.1582 300.2120751 +22.6266950     3015.258      69.3627      1.261     2.24    -9.240712     19.56434     456.6174        25     1.062     0.936 -67.18   0
       187    844.1603    357.3321 300.3360459 +22.7424982     755.5416     69.30971      1.260     2.16    -10.03396     19.56434     111.6855        10     0.845     0.689 -38.85   0
       188    941.2164    357.3098 300.3663130 +22.7715653     382.4899     69.27435      1.283     2.73      -10.078     19.56434     58.40572         6     0.724     0.577  37.29   0
       189    816.6931    344.9258 300.3315139 +22.7307046     295.8954      69.4862      1.257     2.72    -9.950647     19.56434     57.17302         5     0.742     0.427  73.40   0
       190    339.6963    342.1821 300.1838913 +22.5869433     1271.906     69.25667      1.188     1.99    -9.547557     19.56434     218.9552        14     0.969     0.783  85.35   0
       191     58.2670    339.9518 300.0971372 +22.5018856     438.7807     69.34504      1.303     3.33    -10.07333     19.56434     59.19324        10     0.889     0.743  25.38   0
       192    309.0908    331.8201 300.1777377 +22.5747911     14623.32     69.27435      1.277     2.16    -9.567715     19.56434     2278.363        43     1.162     1.012  81.06   0
       193    843.7471    328.9111 300.3451473 +22.7342078     608.5909      69.3627      1.134     2.60    -9.973732     19.56434     122.4213         9     0.830     0.722 -64.57   0
       194      5.3667    319.6516 300.0872975 +22.4801898     2396.336     69.25667      1.253     2.37    -10.16853     19.56434     298.6323        19     0.996     0.893  63.60  16
       195    407.4651    316.9469 300.2131669 +22.6000199     264.9539     69.38036      1.213     3.74    -9.199422     19.56434     41.40457         6     0.807     0.498  87.22   0
       196    719.3716    311.2672 300.3121180 +22.6918756     987.1012     69.32738      1.161     2.37    -9.491466     19.56434     124.1887        15     0.973     0.803 -70.44   0
       197    934.7242    303.9597 300.3816142 +22.7542874     326.4005     69.30971      1.212     2.18    -10.03426     19.56434     58.97611         6     0.708     0.549  39.90   0
       198    381.2386    296.2437 300.2117300 +22.5862129     1089.504      69.4333      1.303     2.86    -9.279448     19.56434     132.4768        16     1.092     0.804  65.19   0
       199    820.4799    288.6817 300.3509583 +22.7156775     314.7702      69.4862      1.108     4.09    -9.915217     19.56434     47.94277         8     0.876     0.819  87.29   0
       200    457.0834    275.4384 300.2420830 +22.6029774     580.1573     69.30971      1.177     2.04    -9.149981     19.56434     96.57212         8     0.758     0.616 -88.42   0
       201    701.8301    267.2319 300.3209509 +22.6739686     1162.502     69.34504      1.240     2.23    -9.287704     19.56434     166.4512        15     1.047     0.814  84.70   0
       202    963.1214    261.5109 300.4042528 +22.7505896     1587.975     69.46857      1.119     1.99    -9.986308     19.56434     269.9107        15     0.873     0.810  51.66   0
       203    410.3623    251.3058 300.2353797 +22.5820422     275.2389     69.32738      0.974     4.09     -9.13064     19.56434     47.47329         8     0.954     0.609  72.90   0
       204     84.8767    245.6214 300.1360289 +22.4828060     551.1556     69.34504      1.378     2.51    -9.762535     19.56434     74.79207         9     0.896     0.616 -50.41   0
       205    115.9182    245.1827 300.1458162 +22.4919913     327.1303     69.32738      1.311     3.11    -9.710759     19.56434     51.76324         5     0.667     0.604  79.05   0
       206    978.6024    241.9145 300.4154430 +22.7495915     287.5901     69.27435      1.031     2.01    -9.964886     19.56434      74.5341         5     0.682     0.557 -12.91   0
       207    964.3288    234.2127 300.4134915 +22.7431033     159.9333      69.3627      1.144     3.64     -9.96059     19.56434     33.98905         5     0.950     0.401  -5.44   0
       208    773.5118    228.3137 300.3559190 +22.6842602     372.4679      69.4862      1.182     2.62    -9.468172     19.56434     55.19907         5     0.702     0.450  66.14   0
       209    871.4533    217.6919 300.3898941 +22.7105421     1179.082     69.39801      1.276     2.64    -9.767166     19.56434     142.0568        16     1.026     0.834 -51.13   0
       210    290.3004    215.2381 300.2097420 +22.5356919     1043.207      69.3627      1.231     2.10    -9.128692     19.56434     156.8019        14     0.934     0.843  81.59   0
       211    368.2692    210.2287 300.2356177 +22.5576290     503.3732     69.34504      1.278     3.23    -9.093614     19.56434     72.79666        11     0.963     0.805   8.37   0
       212    770.1819    209.5524 300.3609712 +22.6778711     179.3006     69.38036      1.189     3.82    -9.396603     19.56434     45.76326         7     0.852     0.681  73.81   0
       213    185.1594    202.2607 300.1812658 +22.5004397     431.7357     69.34504      1.473     3.19    -9.461192     19.56434     58.14781         6     0.868     0.575  23.69   0
       214    722.7235    199.2503 300.3495276 +22.6606945     764.9958     69.34504      1.168     2.25    -9.241384     19.56434     124.0389        12     0.856     0.787 -65.32   0
       215    787.5800    198.8182 300.3698770 +22.6799973     244.2521     69.34504      1.017     2.42    -9.419335     19.56434     40.65891         5     0.706     0.453  68.84   0
       216    994.2150    191.3465 300.4367272 +22.7397269     559.0668      69.3627      1.279     2.25    -9.417934     19.56434     80.46972         8     0.794     0.632  88.33   0
       217    727.0230    190.5141 300.3537025 +22.6594719     362.2371     69.29203      1.134     3.12    -9.220824     19.56434      54.0961         6     0.910     0.495  -5.35   0
       218    647.0922    189.7764 300.3290430 +22.6353147      548.707     69.27435      1.126     2.32    -9.180104     19.56434     108.1902        10     0.830     0.744  25.59   0
       219    842.7905    181.2628 300.3927827 +22.6914868     821.8983     69.27435      1.268     2.26    -9.543999     19.56434      110.714        10     0.821     0.695 -65.32   0
       220    573.3985    181.6741 300.3087241 +22.6109069     432.5723     69.23898      1.182     2.39     -9.12944     19.56434     75.75454         9     0.799     0.731 -52.13   0
       221    854.8220    180.0029 300.3969421 +22.6947276      403.509     69.29203      1.184     2.24    -9.580729     19.56434     65.15221         8     0.788     0.625 -53.17   0
       222   1015.5317    171.2120 300.4499113 +22.7403188     724.8541     69.34504      1.049     1.98    -8.883262     19.56434     149.5589        11     0.768     0.756  27.25   0
       223    971.3291    170.6034 300.4363211 +22.7269107     450.1963     69.29203      1.050     2.31    -9.333764     19.56434     93.64411         7     0.794     0.556 -74.45   0
       224    205.5751    163.9550 300.2000426 +22.4955664     369.6381      69.3627      1.203     3.74    -9.214824     19.56434     46.28914         6     0.813     0.494 -89.20   0
       225    910.0103    163.3731 300.4195452 +22.7064727     3180.489     69.34504      0.685     1.38    -9.673903     19.56434     1372.091         8     0.579     0.444 -75.60   0
       226     67.4955    158.6913 300.1588407 +22.4526477     1010.934     69.52145      1.142     2.40    -9.454021     19.56434     151.7698        15     0.966     0.790  84.65   0
       227     16.8939    155.5360 300.1441459 +22.4365650     320.0107     69.45094      1.380     3.63    -9.573186     19.56434     37.98141         8     0.871     0.679  57.53   0
       228    890.4487    155.3145 300.4160612 +22.6982986     341.4547     69.32738      1.204     3.04    -9.546362     19.56434     50.68698         7     0.893     0.528  28.22   0
       229    224.8701    152.0416 300.2099065 +22.4979317     2715.456     69.30971      1.277     2.20    -9.130163     19.56434     413.4355        23     1.053     0.927  82.34   0
       230      9.1191    146.4085 300.1446926 +22.4316139     597.9258     69.29203      1.225     2.51    -9.595793     19.56434     88.30713        11     0.841     0.796 -41.87   0
       231    208.3883    142.8950 300.2077506 +22.4903642     219.6014     69.27435      1.307     3.85    -9.171907     19.56434     32.89372         5     0.879     0.484 -85.85   0
       232   1023.3307    139.2677 300.4627108 +22.7334670     7713.015     55.84309      1.045     2.33    -8.610342     19.56434     1354.526        25     1.041     0.723  86.52  24
       233    868.7691    133.4019 300.4164127 +22.6855074     1711.197     69.30971      1.156     2.14    -9.335373     19.56434      250.157        16     0.910     0.831  44.70   0
       234    972.4971    132.0581 300.4491937 +22.7161766     1275.021     69.41566      1.105     1.95    -8.943856     19.56434     234.1904        16     0.931     0.764  86.29   0
       235    418.5721    128.9171 300.2776537 +22.5493561     275.5862     69.34504      1.307     2.72    -8.950197     19.56434     52.75202         5     0.810     0.483  37.50   0
       236    342.3054    120.5525 300.2566414 +22.5240954     290.9309      69.3627      1.158     3.88    -8.968979     19.56434     54.46223         6     0.704     0.697   5.86   0
       237    108.5770    117.7550 300.1848863 +22.4532192     373.4169     69.38036      1.528     2.35    -9.339586     19.56434     53.57829         5     0.722     0.434 -65.81   0
       238    469.7351    116.0472 300.2977503 +22.5609918       807.59     69.38036      1.289     2.42    -8.923597     19.56434     132.1065        11     0.838     0.782  -1.51   0
       239    398.1293    116.5823 300.2752952 +22.5396867     210.0433      69.3627      1.171     3.13    -8.950544     19.56434     39.42732         5     0.729     0.466 -16.64   0
       240    243.8060     96.0714 300.2339524 +22.4875396     2894.391     69.30971      1.265     2.24    -9.047988     19.56434     437.4695        21     1.033     0.887  87.16   0
       241     94.9940     95.4173 300.1879123 +22.4427345     297.8225     69.30971      1.213     2.84    -9.336947     19.56434     45.15054         8     0.813     0.657 -87.90   0
       242    258.5229     86.6677 300.2415787 +22.4892512     69.86733      69.4333      1.153     3.98    -8.959678     19.56434     33.11747         6     0.963     0.470  -2.22   0
       243      5.1049     86.1718 300.1629875 +22.4131241     380.1003     68.79531      1.329     3.92     -9.65966     19.56434     30.36609         6     0.759     0.580  40.97  16
       244    489.7753     81.2034 300.3152912 +22.5569870     3111.573     69.30971      1.262     2.17    -8.766437     19.56434     452.8509        23     1.028     0.959  78.92   0
       245    375.4818     80.6112 300.2799189 +22.5225678     361.8524     69.30971      1.156     3.56     -8.99519     19.56434     52.89957         7     0.847     0.657 -85.94   0
       246    742.5671     70.7882 300.3973933 +22.6297165     319.6236     69.32738      1.275     3.43    -8.527935     19.56434     47.46543         5     0.736     0.461  71.62   0
       247    183.3105     64.6817 300.2253282 +22.4603912     236.3719     69.45094      1.216     3.83    -9.108471     19.56434     39.99599         6     1.052     0.400  76.17   0
       248    618.1588     61.3301 300.3617077 +22.5897377      3061.16     69.30971      1.297     2.26    -8.513214     19.56434     426.1407        26     1.090     0.998  68.03   0
       249    392.9472     60.3139 300.2919363 +22.5219718     802.3458     69.38036      1.269     2.33    -9.053787     19.56434     109.3466        11     0.854     0.732  37.02   0
       250    659.3871     58.6671 300.3754120 +22.6013212     391.1457     69.32738      1.214     2.57    -8.346601     19.56434     54.16872        10     0.836     0.780  37.19   0
       251    662.3878     46.1510 300.3804064 +22.5986225     1317.267      69.3627      1.234     2.34    -8.119214     19.56434     181.9271        15     0.943     0.800  84.13   0
       252    677.0909     44.7968 300.3854255 +22.6026368     347.5569     69.25667      1.438     5.32    -8.051197     19.56434       42.568         9     1.295     0.617  49.73   0
       253    748.7304     37.6449 300.4100644 +22.6220344     686.7517     69.30971      1.147     2.30    -7.999175     19.56434     112.1146        12     0.916     0.816  76.32   0
       254    686.6804     30.8093 300.3929494 +22.6014881     195.2067     69.29203      1.122     1.96     -7.80267     19.56434     66.57381         6     0.669     0.601 -13.76   0
       255    492.5191     30.3015 300.3326557 +22.5431845     622.7063     69.46857      1.223     2.64    -8.378599     19.56434     68.48968        10     0.840     0.750  35.84   0
       256     65.5592     30.3638 300.1998670 +22.4152351     249.9425     69.41566      1.047     3.28     -9.55046     19.56434     46.06781         5     0.916     0.478 -80.04   0
       257    396.1841     28.2905 300.3033297 +22.5137429     444.2593     69.27435      1.435     2.53    -9.143078     19.56434     61.91191         6     0.810     0.615 -79.73   0
       258     77.6109    936.3029 299.9092590 +22.6786456     2048.397     69.23898     21.976    31.18    -6.561672     19.56434     62.69314       173     6.168     4.377  10.75   3
       259    735.3939     18.7185 300.4120473 +22.6125999     250.3208     69.27435      1.365     3.31    -7.581306     19.56434     38.22278         6     0.838     0.523  45.27   0
       260    196.4711   1018.0861 299.9195622 +22.7377804     929.3442     69.45094      4.107     8.57     23.76138     19.56434     39.82249        19     1.879     1.091  34.01  24
       261    175.0829   1014.5032 299.9140821 +22.7303291     1073.471     69.50382      7.457    13.82      23.4428     19.56434     45.29212        16     3.738     1.421 -31.50  19
       262    169.8385   1006.4539 299.9150736 +22.7264477     1185.814     69.34504      6.152    17.22     20.45779     19.56434     44.20181        27     4.508     1.828 -46.48  18
