#   1 NUMBER                 Running object number                                     
#   2 X_IMAGE                Object position along x                                    [pixel]
#   3 Y_IMAGE                Object position along y                                    [pixel]
#   4 ALPHA_J2000            Right ascension of barycenter (J2000)                      [deg]
#   5 DELTA_J2000            Declination of barycenter (J2000)                          [deg]
#   6 FLUX_APER              Flux vector within fixed circular aperture(s)              [count]
#   7 FLUXERR_APER           RMS error vector for aperture flux(es)                     [count]
#   8 FLUX_RADIUS            Fraction-of-light radii                                    [pixel]
#   9 FWHM_IMAGE             FWHM assuming a gaussian core                              [pixel]
#  10 BACKGROUND             Background at centroid position                            [count]
#  11 THRESHOLD              Detection threshold above background                       [count]
#  12 FLUX_MAX               Peak flux above background                                 [count]
#  13 ISOAREA_IMAGE          Isophotal area above Analysis threshold                    [pixel**2]
#  14 A_IMAGE                Profile RMS along major axis                               [pixel]
#  15 B_IMAGE                Profile RMS along minor axis                               [pixel]
#  16 THETA_IMAGE            Position angle (CCW/x)                                     [deg]
#  17 FLAGS                  Extraction flags                                          
         1    680.5511     11.0835 300.3929365 +22.6015533     422.5309      69.2855      1.357     3.85    -8.517353     19.55252     51.87143         9     1.002     0.757  73.26   0
         2    486.0291     10.4778 300.3325792 +22.5431180      589.469     69.30315      1.270     2.46    -8.252003     19.55252     88.66224        11     0.864     0.804  66.92   0
         3    389.9791      8.6331 300.3032962 +22.5138119     402.4181     69.30315      1.166     2.08    -8.304798     19.55252     62.08204         7     0.685     0.640  16.85   0
         4    772.4575      7.0850 300.4228606 +22.6279227     282.7876     69.40899      1.476     4.14    -8.544583     19.55252     38.14476         5     0.740     0.660 -21.91   0
         5    192.7188    998.2382 299.9205109 +22.7385112     867.0024     69.26784      5.451     8.77     22.79254     19.55252     37.78236        10     1.801     1.193  80.27   3
         6     67.2456    948.8402 299.8976140 +22.6866711     2531.015     69.37373     29.259    91.55     -1.23449     19.55252     68.82432      1922    18.617    12.492 -74.74  19
         7    346.0881    993.0159 299.9698790 +22.7830742     251.6052     69.25018      1.097     2.77    -12.77755     19.55252     47.43014         5     0.792     0.472  24.76   0
         8    190.7382    981.5886 299.9253148 +22.7331467     2209.651     69.25018     16.281    21.87     16.18577     19.55252     53.83347       119     4.431     2.997 -23.43   3
         9    724.2334    982.3033 300.0910346 +22.8935041     348.3896     69.30315      1.170     2.17    -13.47882     19.55252     60.82356         6     0.674     0.619 -52.13   0
        10    165.2257    981.4773 299.9174247 +22.7254518     713.6415      69.3208      4.222     5.08     18.02614     19.55252     28.74357         5     1.022     0.714 -83.09   1
        11    228.8306    968.2489 299.9414928 +22.7407655     3803.223     69.33845      8.864    31.81     5.999151     19.55252     96.32736       375     8.076     3.957  55.00   2
        12    157.0923    970.8372 299.9183610 +22.7199608     958.9781     69.30315      4.615     5.94     14.18178     19.55252     47.69122        11     1.879     0.528 -86.58   2
        13    537.4988    986.3801 300.0315762 +22.8386356     1129.403     69.23251      1.145     2.09    -13.50548     19.55252     168.7775        13     0.869     0.766  62.73   0
        14    188.1790    998.8417 299.9189039 +22.7373205     974.7995     69.33845      4.031     7.73     23.63873     19.55252     41.04134        17     1.656     1.008 -83.48   3
        15     67.6231    917.5317 299.9079192 +22.6778167     2029.038     69.30315     20.750    31.16    -7.388757     19.55252     52.03352       223     8.893     3.030 -19.25   3
        16     97.7941    961.5432 299.9029669 +22.6994864     1182.967     69.26784      8.261     8.65     10.39121     19.55252     37.09432        14     2.380     0.879 -68.40   3
        17     65.9493    906.1715 299.9110958 +22.6740598     2073.016      69.3208     16.195    26.99    -8.406093     19.55252     49.69963       164     6.556     3.086 -36.01   3
        18    917.0972    964.9661 300.1567677 +22.9463834     325.3009     69.30315      1.090     2.83    -13.54989     19.55252      57.1283         8     0.816     0.643  64.20   0
        19    163.1669    986.3378 299.9152031 +22.7262257     987.1924     69.30315      5.164     6.12     20.29763     19.55252     41.52337        12     1.255     0.839 -32.58   3
        20    118.7097    947.5149 299.9140284 +22.7017508     1002.314     69.46185      7.230    10.23     4.523284     19.55252     39.84239        15     3.059     0.953  89.52   2
        21    159.3970    992.8727 299.9119049 +22.7269653      1332.33     69.23251      6.665    17.66      23.4046     19.55252      40.9233        37     3.743     2.316  37.81   2
        22    642.3492    948.6290 300.0764985 +22.8592771     3409.473      69.3208      1.176     2.16     -13.0281     19.55252     466.1268        22     0.980     0.914  39.83   0
        23    208.8914    980.8790 299.9311862 +22.7383956     2562.365     69.44423     12.345    29.80     14.19498     19.55252     60.83922       224     6.363     3.873 -49.33   3
        24    624.0255    981.4897 300.0600983 +22.8632019     4293.417     69.23251      1.218     1.98    -13.42873     19.55252     640.0759        26     1.042     0.953  39.75   3
        25    221.5759    977.8090 299.9361269 +22.7413258     1429.675     69.30315      9.263    13.94     11.77915     19.55252     69.64702        36     2.997     1.804 -89.66   3
        26    137.4666    952.5217 299.9182253 +22.7088191     853.4282     69.40899      5.662     6.82     6.628134     19.55252     36.43097         9     1.549     0.841  -7.98   2
        27    629.6422    979.2375 300.0625799 +22.8642416     4582.951     69.39136      1.199     2.03    -13.40405     19.55252      698.952        29     1.054     0.979  71.17   3
        28    794.2736    941.4797 300.1261387 +22.9028059     121.0821     69.40899      1.081     3.71    -13.46833     19.55252      38.8695         5     0.838     0.583 -52.30   0
        29    550.8088    939.4289 300.0509998 +22.8291688     655.2261     69.30315      1.095     2.22    -13.04712     19.55252     121.2032        10     0.788     0.766  71.90   0
        30    444.6064    935.9229 300.0190987 +22.7962876     550.8553     69.21484      1.133     2.21    -12.98923     19.55252     88.11514         8     0.776     0.666  52.13   0
        31    101.3471    933.6764 299.9131390 +22.6925714     1290.807     69.33845     11.677    12.17    -1.361117     19.55252     37.46058        30     2.477     1.664 -30.72   3
        32    375.3112    933.9287 299.9981965 +22.7749140     3198.907     69.46185      1.199     2.04    -12.90674     19.55252     498.3241        22     0.949     0.930 -58.58   0
        33    105.5393    934.8964 299.9140441 +22.6941801     824.2443     69.37373      3.013     3.50   -0.9385701     19.55252     35.25432         5     0.786     0.449 -71.66   3
        34    407.9208    920.6688 300.0126525 +22.7809026     198.0861     69.40899      1.092     3.25    -12.94475     19.55252     53.84659         5     0.796     0.384  22.92   0
        35    165.1302    995.8704 299.9127103 +22.7295461     1136.269     69.35609      5.555     7.60     24.32249     19.55252     45.33603        13     1.756     0.920 -65.78   3
        36    921.5329    912.3275 300.1752827 +22.9326083      1169.07     69.33845      1.142     2.46    -13.34837     19.55252     152.2083        15     0.953     0.832  70.11   0
        37     72.2307    999.0697 299.8828144 +22.7025549     3140.224     69.30315     13.957    36.81     14.69826     19.55252      71.5853       412     7.442     5.054  -5.16  19
        38    572.1122    910.1444 300.0671598 +22.8271645     132.5244     69.33845      1.120     3.03     -12.8853     19.55252      50.0184         5     1.057     0.312  -9.19   0
        39    419.6946    908.6805 300.0202153 +22.7810002     299.7722     69.42661      1.348     4.87    -12.94086     19.55252     29.30704         6     1.169     0.575 -65.34   0
        40    710.7277    901.6260 300.1130861 +22.8663111     395.8299     69.30315      1.814     5.67    -12.85189     19.55252     41.67307         9     1.664     0.544  62.23   0
        41    162.9354    993.4014 299.9128321 +22.7281796     914.0443     69.30315      3.084     3.39     23.23391     19.55252      49.9175         5     1.015     0.328 -38.25   3
        42     71.0154   1017.5377 299.8764255 +22.7074787     4796.159     69.26784     10.090    41.67     19.82056     19.55252     122.3275       602    10.531     4.633 -17.63  27
        43    745.2598    895.5248 300.1258263 +22.8749197     505.5233     69.35609      1.117     2.46    -12.92849     19.55252     73.45996         9     0.879     0.653  35.02   0
        44    767.4380    889.3082 300.1347572 +22.8797887     5606.029     69.30315      1.098     1.91    -12.95614     19.55252     926.4076        26     0.945     0.910  50.37   0
        45    958.0951    889.1270 300.1942303 +22.9369129      169.685     69.42661      1.093     4.00    -13.19795     19.55252     32.22774         8     0.836     0.670 -45.59   0
        46    220.4369    995.5544 299.9299970 +22.7460677     583.3254     69.33845      2.068     4.45     19.65234     19.55252     58.71919        10     1.415     0.699  76.23   0
        47    472.5865    877.8110 300.0467121 +22.7880253      233.957     69.21484      1.055     1.97     -12.9566     19.55252     47.01623         5     0.676     0.457  68.29   0
        48    775.9627    871.3687 300.1432499 +22.8771986     566.2183     69.30315      1.043     1.86    -12.83463     19.55252     125.4027         9     0.768     0.616  54.71   0
        49    959.5678    870.1629 300.2008602 +22.9319112     193.1011      69.3208      1.167     3.06    -13.09199     19.55252     49.16431         5     0.949     0.360   5.26   0
        50    814.0179    864.7649 300.1572542 +22.8867172     432.0581     69.30315      1.196     2.59    -12.83498     19.55252     89.67165        10     0.870     0.736  57.43   0
        51    713.6359    855.1047 300.1291287 +22.8538377     359.7677     69.30315      1.050     1.78    -12.72844     19.55252     80.08523         6     0.725     0.481 -88.24   0
        52    426.5221    851.5912 300.0409134 +22.7666824       2089.7     69.26784      1.088     1.95    -12.71736     19.55252     304.7245        18     0.912     0.858  73.61   0
        53    725.3199    852.2295 300.1337030 +22.8565175     342.2094     69.30315      0.927     1.65    -12.73608     19.55252     62.86691         5     0.636     0.459  78.90   0
        54    151.5830    837.1765 299.9601391 +22.6800112     353.5269     69.30315      1.183     2.28    -10.82011     19.55252     65.56786         8     0.800     0.661  41.48   0
        55    128.8311    834.3503 299.9539907 +22.6723692     707.4278     69.33845      1.319     2.64    -11.03902     19.55252     108.4163        15     0.996     0.904  35.96   0
        56   1000.4373    823.1687 300.2288924 +22.9306732     1033.634     69.30315      1.066     1.82    -12.88385     19.55252     200.4812        13     0.906     0.719  86.37   0
        57    660.0577    822.0823 300.1231879 +22.8282923     230.6792     69.37373      1.547     4.47    -12.44999     19.55252     31.74812         6     1.203     0.473 -54.64   0
        58    954.6837    821.6488 300.2151214 +22.9165210     1081.859      69.2855      1.122     2.00    -12.78202     19.55252     181.5424        13     0.837     0.779  54.05   0
        59    738.2006    815.5322 300.1496529 +22.8498517     249.9111     69.26784      0.939     2.87    -12.68527     19.55252     55.78223         6     0.850     0.551 -66.45   0
        60    606.4261    809.6425 300.1105379 +22.8086351     2436.955     69.33845      1.036     1.74     -12.6577     19.55252     408.5881        18     0.893     0.806  56.66   0
        61    156.8399    803.6225 299.9726860 +22.6719744     580.3193     69.33845      1.083     3.08    -11.62392     19.55252     106.5448        10     0.933     0.741 -40.87   0
        62    627.0193    801.8944 300.1194687 +22.8125901     312.0447     69.23251      1.173     2.68    -12.53478     19.55252     78.10875         7     0.966     0.468 -62.42   0
        63    999.5074    789.4950 300.2395564 +22.9207266     617.4095     69.46185      1.162     2.19    -12.68219     19.55252      95.9838        10     0.834     0.680  61.58   0
        64    782.4634    789.3845 300.1719457 +22.8556229     2017.044      69.2855      1.024     1.75    -12.50891     19.55252     390.2311        16     0.822     0.803  25.21   0
        65    499.2010    781.6381 300.0862769 +22.7684327     304.0254     69.30315      1.173     4.12    -12.06404     19.55252     46.64555         6     0.930     0.561  68.08   0
        66    145.8879    779.8990 299.9769990 +22.6618872     439.9177     69.46185      1.285     3.36    -11.79252     19.55252     91.95879        12     0.986     0.922  83.73   0
        67    295.5817    772.1423 300.0260398 +22.7046031     26248.68     69.26784      1.142     1.87     -11.8792     19.55252     4466.798        61     1.100     1.068  35.57   0
        68    553.4161    770.8593 300.1066528 +22.7816070     858.6146     69.26784      1.101     1.87    -12.09697     19.55252     156.9022        13     0.959     0.718  36.25   0
        69    966.1773    770.2705 300.2354171 +22.9052165     322.9153      69.3208      1.021     2.04    -12.32749     19.55252     77.21012         6     0.689     0.583 -61.73   0
        70    582.2738    766.9567 300.1169034 +22.7891447     467.8842      69.2855      1.088     2.52    -12.20205     19.55252     83.36357         8     0.860     0.559  83.74   0
        71    736.1671    751.8376 300.1697362 +22.8309645     328.0157     69.33845      1.185     1.78    -12.30218     19.55252     68.59164         6     0.692     0.523 -42.05   0
        72    345.3036    749.3401 300.0489131 +22.7129890     15465.49     69.37373      1.119     1.86    -11.72371     19.55252     2657.673        47     1.079     1.016  25.16   0
        73    359.6183    749.7589 300.0532280 +22.7174051     1096.813      69.3208      1.171     2.04    -11.71953     19.55252     159.3548        13     0.858     0.743  52.53   0
        74    868.2683    745.0574 300.2130978 +22.8686276     1394.198      69.3208      1.114     1.70    -11.70046     19.55252     290.8813        14     0.913     0.721 -89.35   0
        75    356.5417    743.7042 300.0542402 +22.7147456     240.3166     69.37373      1.007     2.46    -11.68589     19.55252     40.66109         5     0.686     0.466  69.44   0
        76    227.4796    741.1196 300.0149607 +22.6752674     489.9496     69.42661      1.396     2.75    -11.65076     19.55252      78.6619         9     0.950     0.661 -55.51   0
        77    626.3669    741.1240 300.1390297 +22.7949598     286.8802     69.30315      0.868     1.50     -12.0583     19.55252     101.3571         5     0.631     0.446  65.90   0
        78    473.3189    736.0070 300.0930637 +22.7475795     358.7601     69.23251      1.318     1.81    -11.62215     19.55252     82.53703         7     0.671     0.615  42.35   0
        79    419.2214    731.0510 300.0778471 +22.7299263     202.6835     69.30315      1.211     3.31    -11.59475     19.55252     48.44345         7     0.872     0.582 -61.55   0
        80    331.3375    731.6066 300.0503371 +22.7037127     163.9901     69.26784      1.073     3.19    -11.65807     19.55252     40.74879         5     0.721     0.479 -10.33   0
        81     60.9780    730.1234 299.9668116 +22.6221274     292.7999      69.2855      1.295     4.03    -12.08635     19.55252     38.40219         7     0.904     0.513  44.32   0
        82    225.2903    725.2596 300.0194372 +22.6700637     243.5544     69.39136      1.162     3.43    -11.62956     19.55252     41.43495         6     0.756     0.558  39.28   0
        83    518.5502    713.6586 300.1144034 +22.7547389     352.7613     69.35609      1.396     4.18    -11.59668     19.55252     42.88848         6     1.068     0.467 -56.51   0
        84    540.2762    711.4901 300.1218693 +22.7606343     622.1136     69.44423      0.978     1.86    -11.62212     19.55252     134.0043        12     0.866     0.694  58.36   0
        85    934.6349    710.3071 300.2450838 +22.8785454     2172.004     69.25018      1.057     1.86    -11.58377     19.55252     386.7427        16     0.858     0.816  74.47   0
        86    923.1428    701.7600 300.2442805 +22.8726468     795.6996      69.2855      1.135     1.91    -11.50668     19.55252     164.3817        13     0.848     0.786  57.10   0
        87    286.2230    695.8372 300.0479415 +22.6799169     382.0515      69.3208      1.045     2.13    -11.63794     19.55252      85.8502         9     0.831     0.635  31.15   0
        88    749.2643    693.0582 300.1929287 +22.8180222     1195.102     69.33845      1.079     1.61     -11.6531     19.55252     263.4995        11     0.777     0.687  39.69   0
        89    954.2668    691.7962 300.2572228 +22.8791144     793.6765      69.2855      1.062     1.61    -11.60164     19.55252     188.2497        13     0.804     0.769  49.40   0
        90    134.9115    679.7119 300.0061636 +22.6298766     320.3351     69.46185      1.159     3.72    -11.59278     19.55252     50.29775         7     0.781     0.635 -18.19   0
        91    867.8891    669.9687 300.2373949 +22.8469570     71855.02     69.26784      1.130     1.68    -11.34889     19.55252     16552.24        92     1.129     1.046  84.68   0
        92    629.9032    673.9575 300.1619691 +22.7767479      104.228     69.30315      0.930     2.26     -11.3305     19.55252     45.85135         5     0.751     0.485 -31.78   0
        93   1014.9319    671.6395 300.2826919 +22.8915062     532.4395     69.26784      1.069     2.00    -11.75332     19.55252     118.6761         8     0.770     0.595  84.30   0
        94    554.2888    658.9086 300.1433245 +22.7497517     758.9226     69.46185      1.106     1.88    -11.08324     19.55252     160.7258        11     0.830     0.677 -22.54   0
        95    735.3974    656.1590 300.2006055 +22.8032733     4683.382      69.3208      1.074     1.69    -11.28608     19.55252     919.4758        25     0.994     0.841  56.39   0
        96    236.9674    651.4048 300.0470754 +22.6523943     2444.149      69.2855      1.143     1.95    -11.38906     19.55252     414.4724        19     0.913     0.864  48.53   0
        97    318.9045    649.5745 300.0731400 +22.6764584     643.0413     69.25018      1.309     3.29     -11.3165     19.55252      99.1353        11     0.976     0.853 -41.52   0
        98    194.3684    647.1773 300.0352115 +22.6383970     242.0072     69.30315      1.168     3.40     -11.2949     19.55252     33.95056         5     0.764     0.439  71.28   0
        99    527.1891    644.9041 300.1394433 +22.7376054     289.3289     69.23251      0.957     1.91    -10.84986     19.55252     86.90195         5     0.616     0.498   8.02   0
       100    518.9144    637.0231 300.1394301 +22.7328623     1671.504     69.25018      1.126     1.67    -10.72732     19.55252     375.0664        14     0.844     0.728  72.41   0
       101    509.0575    630.7995 300.1383858 +22.7281201     680.4368     69.25018      1.096     1.85    -10.63465     19.55252     139.1757        10     0.774     0.690 -89.49   0
       102    902.8166    628.3937 300.2617958 +22.8454880     293.5889     69.25018      0.879     3.24    -10.86644     19.55252     49.38809         5     0.737     0.449 -19.24   0
       103    172.2879    626.9493 300.0349251 +22.6259702     354.7353      69.3208      1.242     2.34    -11.02111     19.55252     55.54732         7     0.690     0.656 -57.56   0
       104    186.9303    625.4003 300.0399781 +22.6299208      424.974     69.23251      1.580     2.87    -11.04956     19.55252     58.30747         5     0.916     0.414  63.94   0
       105    956.1321    621.8312 300.2805491 +22.8595811     38.53777      69.2855      0.834     2.52    -10.98473     19.55252      49.7795         5     0.905     0.324  44.54   0
       106    212.2182    622.4077 300.0488087 +22.6366523     188.8969     69.26784      1.162     3.42    -11.10949     19.55252     39.07835         5     0.765     0.442  20.21   0
       107    433.8537    620.5995 300.1183043 +22.7026354      780.063     69.26784      1.022     1.81    -10.47776     19.55252     154.2526        10     0.751     0.669  86.33   0
       108     87.9159    615.6029 300.0124030 +22.5973920     9801.976     69.23251      1.231     2.15    -10.77113     19.55252     1430.161        37     1.084     1.025  31.11   0
       109   1009.4780    617.3755 300.2986310 +22.8742864       206.57     69.30315      0.949     2.32    -11.31477     19.55252     62.62195         5     0.659     0.479  71.76   0
       110      8.8357    617.1672 299.9873377 +22.5740999     259.2629      69.3208      1.183     2.05    -10.64786     19.55252     52.07612         6     0.708     0.542 -43.07   0
       111    518.7471    615.7798 300.1462825 +22.7267169     591.6801      69.2855      1.202     2.06    -10.40742     19.55252     92.67362         8     0.766     0.625 -12.15   0
       112    936.8005    601.9044 300.2809991 +22.8480652     446.3678     69.17947      0.997     1.69    -10.68648     19.55252     123.1374         8     0.736     0.576 -47.36   0
       113     33.9381    599.5214 300.0008662 +22.5765784     601.2596     69.37373      1.592     5.13    -10.54099     19.55252     64.56023        13     1.261     0.893 -81.53   0
       114    877.1750    594.4094 300.2648495 +22.8280441     383.7065     69.30315      1.059     2.03    -10.60801     19.55252     62.81533         5     0.679     0.459  20.65   0
       115    438.6894    588.4334 300.1302621 +22.6948580     403.2667     69.26784      1.108     1.77    -10.07622     19.55252     77.86928         5     0.659     0.459 -83.08   0
       116    586.8030    587.2249 300.1767431 +22.7389327     211.6125     69.25018      1.037     3.36    -10.43196     19.55252     41.01049         5     0.939     0.349  45.20   0
       117    634.1396    585.4617 300.1920520 +22.7526208     183.8808     69.33845      0.934     2.03    -10.61205     19.55252     45.98536         5     0.679     0.471  19.53   0
       118    483.1982    584.6153 300.1453494 +22.7071127     522.8545     69.16179      1.362     2.48     -10.0678     19.55252     69.33334         8     0.832     0.618  14.65   0
       119    916.9571    579.9404 300.2819515 +22.8358107     1621.017      69.2855      1.123     1.75    -10.57096     19.55252     373.6762        15     0.861     0.801 -39.50   0
       120    448.6543    580.0796 300.1360766 +22.6954503     807.5076     69.33845      1.087     1.82    -9.999449     19.55252     172.1816        10     0.772     0.695 -87.54   0
       121   1014.6280    578.2104 300.3129661 +22.8645793     353.9409     69.30315      1.227     2.26    -11.03834     19.55252     79.02567         5     0.743     0.547 -42.21   0
       122     10.6755    573.7994 300.0020011 +22.5622220     2444.702     69.17947      1.273     2.31    -10.50374     19.55252     319.0958        21     1.010     0.949  65.88   0
       123    312.1224    566.9012 300.0978989 +22.6507122     4497.985     69.42661      1.180     1.88    -10.46529     19.55252     847.6697        25     0.971     0.911  47.28   0
       124    434.5601    563.8640 300.1369614 +22.6865703     4381.438     69.26784      1.092     1.80    -9.824261     19.55252     812.7679        24     0.971     0.849  68.02   0
       125    846.2573    557.6176 300.2671705 +22.8082127     949.6268      69.2855      1.060     1.83    -10.52821     19.55252     187.9774        14     0.894     0.743 -79.22   0
       126    930.7869    555.0824 300.2943406 +22.8328153     6089.777      69.2855      1.086     1.69    -10.51252     19.55252     1341.837        29     0.924     0.916  56.14   0
       127    495.1398    553.4700 300.1591853 +22.7017574     5553.602     69.33845      1.109     1.82    -9.789068     19.55252     1013.053        29     0.999     0.900  52.80   0
       128    222.6025    548.8004 300.0759542 +22.6186609     758.2635       69.091      1.257     2.16    -10.58177     19.55252     108.6228        10     0.807     0.704 -59.31   0
       129    426.8782    541.5657 300.1418170 +22.6778685     1932.374     69.25018      1.081     1.79    -9.610076     19.55252     387.2561        18     0.927     0.804  36.53   0
       130    405.0237    540.0881 300.1354995 +22.6708894     629.5622     69.23251      1.185     2.11    -9.607959     19.55252     115.7543        10     0.834     0.701   9.22   0
       131    159.1143    539.4568 300.0592620 +22.5969300     429.3597     69.40899      1.354     2.56    -10.67514     19.55252     51.17187         6     0.754     0.498   1.75   0
       132    846.4529    536.9594 300.2739440 +22.8023388     830.4449      69.2855      1.263     2.38    -10.41215     19.55252     144.2929        13     0.935     0.811 -54.66   0
       133    543.4102    529.1786 300.1820986 +22.7092617     100740.6      69.2855      1.100     1.81    -9.764367     19.55252     18141.02       118     1.182     1.161  61.20   0
       134    726.9122    533.9439 300.2376815 +22.7656446     404.0786     69.35609      1.151     2.06    -10.35284     19.55252     101.8839        11     0.824     0.790   8.84   0
       135    229.4976    529.1194 300.0844911 +22.6150854     1665.248     69.42661      1.155     1.91     -10.4285     19.55252     278.9926        16     0.910     0.806  72.23   0
       136    434.1642    509.5849 300.1544732 +22.6708774     1200.436     69.30315      1.090     1.93    -9.559435     19.55252     216.2866        14     0.958     0.738  62.40   0
       137    830.8104    495.5679 300.2825172 +22.7857637     800.2404     69.30315      0.977     1.49     -10.0758     19.55252     168.3151        12     0.779     0.725  69.23   0
       138    702.1050    493.2467 300.2431771 +22.7465238     1179.761      69.3208      1.061     1.67    -9.996692     19.55252     277.9348        12     0.756     0.741  35.39   0
       139    946.4750    490.2095 300.3203089 +22.8188807      334.975      69.2855      1.253     2.93    -10.22761     19.55252     37.28662         5     0.732     0.433  65.13   0
       140    489.5092    489.0652 300.1783571 +22.6815863     409.1854     69.42661      1.081     2.21    -9.581151     19.55252      62.1306         8     0.762     0.642  16.81   0
       141    959.4697    487.0341 300.3253918 +22.8218615      571.713     69.30315      1.062     2.04    -10.29023     19.55252       129.64         8     0.767     0.627  49.31   0
       142    831.1322    485.9933 300.2857278 +22.7831102     1140.001     69.26784      1.292     1.83     -9.99404     19.55252     192.8712        12     0.821     0.735  89.61   2
       143    945.1419    486.2730 300.3211720 +22.8173505     335.4829     69.33845      0.928     1.34     -10.1992     19.55252     89.13776         5     0.641     0.395  24.17   0
       144    423.2123    482.4794 300.1598715 +22.6598149     186.4625      69.2855      1.209     3.17    -9.494979     19.55252     41.45218         5     0.737     0.443  23.16   0
       145    869.4010    480.6496 300.2993895 +22.7930424     2089.777      69.2855      1.040     1.83    -9.979526     19.55252     418.1689        18     0.911     0.823  61.66   0
       146    961.1312    471.1213 300.3310790 +22.8177876     319.1162     69.40899      1.118     1.91    -10.23606     19.55252     90.78596         8     0.750     0.635 -54.68   0
       147    101.5062    471.2845 300.0635106 +22.5600934     458.8068     69.47945      1.156     2.44    -10.45999     19.55252     69.41629         8     0.891     0.550  20.59   0
       148    957.6686    443.5787 300.3389457 +22.8088371     273.7306     69.30315      1.141     3.93    -10.12661     19.55252     48.51784         7     0.977     0.589  27.33   0
       149    703.6127    443.3612 300.2598503 +22.7326515     481.4578     69.30315      1.039     2.32    -9.795296     19.55252     76.33881         5     0.672     0.476 -77.17   0
       150    860.7781    439.5790 300.3100425 +22.7786614     442.4908     69.30315      1.037     1.95     -9.94309     19.55252     94.39436         9     0.856     0.581  78.73   0
       151    845.1144    435.8456 300.3063736 +22.7728959     286.1581      69.2855      1.090     2.65    -9.915533     19.55252     66.25854         6     0.747     0.592  68.54   0
       152    589.3439    433.9925 300.2273143 +22.6957105      1665.01      69.2855      1.165     1.96    -9.341792     19.55252     265.1909        16     0.900     0.815  36.90   0
       153    949.8163    432.4823 300.3401015 +22.8032967     227.2918     69.26784      0.943     1.79    -10.07172     19.55252     63.52863         5     0.648     0.487 -15.05   0
       154   1000.6920    413.1758 300.3622350 +22.8129879     645.1494     69.23251      1.086     1.88    -10.04336     19.55252     134.3923         8     0.841     0.563  57.07   0
       155    872.6552    412.6620 300.3224858 +22.7744873     247.7622     69.37373      1.052     3.66     -9.93926     19.55252     43.48499         5     0.814     0.499  44.85   0
       156    959.1094    411.6823 300.3497540 +22.8001039     434.8788     69.40899      1.064     1.60    -10.03072     19.55252     99.12073         7     0.628     0.604  -2.05   0
       157    700.0203    408.0453 300.2702006 +22.7214333     534.0607     69.35609      1.034     1.74    -9.656898     19.55252     125.4754         9     0.708     0.681  50.00   0
       158    266.3051    401.9912 300.1372209 +22.5896599     1788.332     69.21484      1.165     1.98    -9.501962     19.55252     337.4777        15     0.924     0.780  69.55   0
       159    999.4209    400.3774 300.3659949 +22.8089293     2022.226     69.30315      1.041     1.88    -10.04041     19.55252     399.4956        15     0.894     0.768  76.30   0
       160    213.5883    396.7831 300.1225272 +22.5723528     3812.986     69.25018      1.190     2.11     -9.67459     19.55252     560.5859        22     1.013     0.861  62.30   0
       161    979.2355    391.3774 300.3626231 +22.8002975     1006.606      69.3208      1.107     2.08    -10.02846     19.55252      188.619        11     0.861     0.658  69.15   0
       162    354.2891    391.0002 300.1681442 +22.6128939     2364.999     69.21484      1.161     2.03    -9.129666     19.55252      411.642        21     0.935     0.899  45.44   0
       163    598.5102    387.6207 300.2452262 +22.6851443      9142.22     69.25018      1.082     1.92    -9.174991     19.55252     1464.075        33     1.012     0.906  66.05   0
       164    615.7429    387.9484 300.2504844 +22.6904036     399.5962     69.35609      1.629     3.90    -9.219605     19.55252     49.14954         7     1.128     0.614 -43.75   0
       165    931.9490    370.1413 300.3547756 +22.7800320     410.1708     69.35609      1.091     1.82     -9.98583     19.55252     85.37209         8     0.740     0.623  45.84   0
       166    153.1527    367.7591 300.1131711 +22.5458972     1015.295     69.35609      1.224     2.27    -9.888713     19.55252     152.5788        13     0.923     0.815  55.90   0
       167    539.2087    357.0240 300.2367023 +22.6585840     3321.397     69.30315      1.210     1.93    -9.114326     19.55252     602.4903        25     1.014     0.925  68.13   0
       168    952.9495    357.4494 300.3654437 +22.7826749     546.1805     69.33845      1.053     1.88    -9.992634     19.55252     114.3299         8     0.716     0.649  89.88   0
       169    254.0424    356.3150 300.1482389 +22.5728764     424.7795     69.26784      1.348     3.23    -9.253541     19.55252      52.9547         8     0.974     0.635 -47.93   0
       170    111.6154    349.5529 300.1061773 +22.5282136     332.5811      69.3208      1.305     3.11    -9.895682     19.55252     46.15598         5     0.720     0.454  21.24   0
       171    743.4039    346.1149 300.3038214 +22.7166463     609.7839     69.23251      1.185     2.30    -9.397026     19.55252     100.2903         9     0.870     0.643  76.41   0
       172    652.6140    347.2024 300.2751934 +22.6897532     275.5162      69.1441      1.265     2.80    -9.209628     19.55252     36.36242         5     0.705     0.471 -76.52   0
       173    445.8463    343.3492 300.2120915 +22.6266702     3010.424     69.33845      1.152     2.02    -9.181819     19.55252     479.6491        20     0.952     0.856  62.77   0
       174    837.7122    337.6502 300.3359522 +22.7424685      687.276     69.30315      0.942     1.74    -9.587133     19.55252     141.8089         6     0.638     0.556  78.68   0
       175    935.1774    337.4792 300.3663866 +22.7716132     297.8683     69.25018      1.063     2.49    -9.964952     19.55252      80.2887         5     0.797     0.446  51.87   0
       176    333.4554    322.7126 300.1838352 +22.5870488     1250.901     69.33845      1.137     2.07    -9.095956     19.55252     193.8793        14     0.913     0.772  70.67   0
       177     51.7648    320.0847 300.0971533 +22.5018052      545.587      69.2855      1.281     2.69    -9.808061     19.55252     79.27763         9     0.935     0.609 -33.57   0
       178    302.6854    312.0827 300.1777185 +22.5747713     14830.61     69.42661      1.212     2.07    -9.140433     19.55252     2316.337        48     1.150     1.006  66.07   0
       179    837.2274    309.5165 300.3449340 +22.7342399     718.9004     69.30315      1.038     1.89    -9.485539     19.55252     114.9195        10     0.784     0.669  83.09   0
       180    752.7799    298.1750 300.3223043 +22.7056839     327.1199      69.3208      1.189     2.67    -9.321368     19.55252     41.83717         6     0.722     0.569 -45.38   0
       181    712.9212    291.6635 300.3120025 +22.6918717      1084.26     69.39136      1.286     1.99     -9.27658     19.55252     180.0098        14     0.967     0.766  42.66   0
       182    928.1714    284.4855 300.3814049 +22.7542853     293.8905     69.30315      0.929     1.64    -9.906344     19.55252     66.64823         5     0.638     0.464  25.07   0
       183    374.8701    276.3143 300.2117733 +22.5861483     1092.528     69.40899      1.343     2.53    -9.215952     19.55252     160.0555        13     1.174     0.618  64.34   0
       184    814.0412    269.0212 300.3508528 +22.7156591     281.4434     69.33845      1.171     1.99    -9.392088     19.55252     66.14313         5     0.599     0.566  -1.33   0
       185    450.7787    255.9013 300.2420092 +22.6030432     635.7579     69.23251      1.211     2.10    -9.259623     19.55252     110.4323        10     0.809     0.705  15.11   0
       186    695.5506    247.4445 300.3209436 +22.6739646     1053.021     69.33845      1.089     2.13    -9.307925     19.55252     163.2581        14     0.886     0.836  47.71   0
       187    956.8007    241.8176 300.4041784 +22.7505945     1624.477     69.21484      1.143     1.81    -9.801985     19.55252     315.1055        16     0.959     0.743  70.24   0
       188    403.8650    231.2552 300.2354133 +22.5819046     255.5981     69.35609      1.069     2.95    -9.217732     19.55252     53.76032         8     0.891     0.616   8.67   0
       189     78.4918    225.7360 300.1360715 +22.4827573     597.3951     69.40899      1.343     2.99     -9.39531     19.55252     87.00354        14     0.998     0.934 -30.01   0
       190    109.2224    225.2707 300.1457680 +22.4918410      261.801     69.33845      1.236     3.50    -9.261546     19.55252     35.20919         6     0.754     0.586  46.31   0
       191    972.7104    222.2149 300.4155002 +22.7497231     221.3909     69.25018      1.077     2.79    -9.815122     19.55252     52.40295         5     0.878     0.353  45.40   0
       192    162.7544    217.6906 300.1648586 +22.5057206     198.1061      69.2855      1.261     4.15    -9.256271     19.55252     30.43027         6     0.727     0.675 -79.43   0
       193    767.3141    208.6966 300.3558701 +22.6843290     320.5461     69.47945      1.064     1.72    -9.326016     19.55252     68.83729         5     0.663     0.444 -73.94   0
       194    865.3096    197.9391 300.3898960 +22.7105861     1037.024     69.39136      1.159     1.93    -9.419807     19.55252     183.9193        11     0.779     0.739  68.49   0
       195    283.8467    195.4659 300.2097042 +22.5356511     1122.272     69.30315      1.221     2.39    -9.156127     19.55252      159.002        14     0.952     0.792  62.64   0
       196    361.8180    190.5388 300.2355464 +22.5576109     480.0672     69.25018      1.276     3.73    -9.094425     19.55252     61.54052         9     0.887     0.709 -69.76   0
       197    763.8481    189.5865 300.3609907 +22.6777995     254.5659      69.3208      1.067     2.79    -9.253822     19.55252     57.35119         7     0.840     0.579  83.38   0
       198    178.2262    182.6416 300.1810367 +22.5003018     407.3072     69.33845      1.397     2.85    -9.237556     19.55252     47.30854         7     0.813     0.588  29.20   0
       199    716.3566    179.3510 300.3495178 +22.6606335     817.0077     69.33845      1.155     2.14    -9.226239     19.55252      125.533        12     0.883     0.781  30.97   0
       200    780.9985    178.8941 300.3698027 +22.6798635     380.2866     69.21484      1.566     3.48    -9.200291     19.55252     46.40864         6     0.882     0.485  33.32   0
       201    200.1518    175.6336 300.1901235 +22.5048649     262.1312     69.33845      1.187     3.44    -9.246659     19.55252     47.67186         5     0.913     0.431 -15.48   0
       202    987.5894    171.5960 300.4365635 +22.7396252     365.9656      69.1441      1.025     2.14    -9.537519     19.55252      82.1984         6     0.796     0.448 -71.95   0
       203    720.3430    170.7953 300.3535351 +22.6593691     427.8469     69.26784      1.243     2.90    -9.200244     19.55252     50.96605         6     0.711     0.631  30.51   0
       204    490.2136    171.4239 300.2816880 +22.5906036     132.7372     69.30315      1.031     3.48    -9.150152     19.55252     28.84682         5     0.809     0.433  20.43   0
       205    641.1233    169.8672 300.3291656 +22.6353721     547.9072     69.39136      1.185     2.21    -9.207755     19.55252     111.6777         9     0.833     0.776 -62.51   0
       206    836.3044    161.4042 300.3927095 +22.6913995     642.8678     69.21484      1.099     2.06    -9.139344     19.55252     129.7555         9     0.916     0.569 -77.79   0
       207    567.2048    161.8925 300.3087406 +22.6109356     449.1763     69.19716      1.157     2.18    -9.198917     19.55252     92.41473         8     0.792     0.636  78.42   0
       208    848.3499    160.6573 300.3967057 +22.6947918      360.708     69.35609      1.092     2.61    -9.146358     19.55252     63.06105         9     0.915     0.634  88.61   0
       209   1009.1440    151.4949 300.4498063 +22.7402979     713.2956     69.35609      1.031     1.94    -9.264329     19.55252     141.9297        10     0.874     0.661  54.37   0
       210    965.1670    150.7666 300.4363290 +22.7269240     441.8243     69.37373      1.043     1.36    -9.314085     19.55252     128.9326         7     0.825     0.448  67.95   0
       211    199.2968    144.1527 300.2000692 +22.4955728      391.957     69.33845      1.328     2.73    -9.169471     19.55252     57.77531         8     0.871     0.602 -83.10   0
       212     61.1875    138.9485 300.1588501 +22.4526657     1102.625     69.33845      1.268     2.49    -9.246943     19.55252     150.8169        13     0.944     0.769  88.49   0
       213    884.3377    135.7997 300.4159855 +22.6984220      438.631     69.25018      1.360     2.76    -9.119511     19.55252     71.61442         8     0.848     0.769 -83.62   0
       214     10.7133    135.9593 300.1441450 +22.4366701     274.5705      69.2855      1.400     3.85    -9.338638     19.55252     33.63285         5     0.833     0.509 -40.85   0
       215    218.5263    132.2936 300.2098918 +22.4979339     2743.973     69.44423      1.190     2.11    -9.219674     19.55252     374.5262        22     0.990     0.909  89.04   0
       216      2.8765    126.7248 300.1447065 +22.4316701     644.4368     61.68194      1.323     2.57    -9.343554     19.55252     93.50491        13     0.934     0.837  28.67  24
       217    201.4929    123.2064 300.2075453 +22.4902187     363.7471     69.21484      1.366     3.13    -9.093452     19.55252     44.47404         8     0.783     0.777 -62.99   0
       218   1017.3331    119.5861 300.4627107 +22.7335737     8953.068      69.2855      1.124     1.94    -8.604427     19.55252     1583.028        36     1.094     0.928  74.69  16
       219    862.5652    113.6708 300.4163770 +22.6855418     1681.824     69.30315      1.106     2.04    -9.013276     19.55252     272.6737        14     0.847     0.801  35.55   0
       220    966.1883    112.3561 300.4491066 +22.7161857     1416.651     69.30315      1.153     2.02    -8.750479     19.55252     245.9175        16     0.969     0.801 -84.48   0
       221    412.1255    108.8338 300.2776954 +22.5492273     369.6542     69.30315      1.338     3.67    -8.752876     19.55252      60.6949         8     1.203     0.594 -37.84   0
       222    336.0609    101.0610 300.2565596 +22.5241990     416.8323     69.33845      1.466     2.84    -9.042576     19.55252     58.46049         7     0.842     0.651 -32.00   0
       223    102.2942     98.0409 300.1848848 +22.4532530     195.4138      69.3208      1.129     2.33    -9.038114     19.55252     44.91169         7     0.709     0.638 -64.14   0
       224    463.3021     96.2501 300.2976971 +22.5609484     773.7678     69.37373      1.180     2.27    -8.633072     19.55252     111.5235        11     0.797     0.777  33.06   0
       225    391.2266     96.6783 300.2751370 +22.5394734     145.3716     69.30315      1.135     4.76    -8.798769     19.55252     38.23338         6     0.971     0.662  83.31   0
       226    237.4221     76.2732 300.2339319 +22.4875163     2893.445     69.33845      1.179     2.18    -8.990445     19.55252     394.4625        23     1.027     0.898  58.90   0
       227     88.8202     75.8047 300.1879098 +22.4428310     383.7243     69.26784      1.093     3.87    -8.923537     19.55252      51.6665         6     0.915     0.474  30.87   0
       228    252.8136     67.6203 300.2415218 +22.4896456     170.4655     69.26784      1.231     3.42    -8.872706     19.55252     37.82448         5     0.940     0.381 -84.48   0
       229    483.5175     61.4776 300.3152628 +22.5570170       3018.1     69.40899      1.171     2.21    -8.474565     19.55252     393.7578        21     0.997     0.879  70.86   0
       230    369.0990     61.0825 300.2797976 +22.5226196     253.8727     69.46185      1.243     2.56    -8.667574     19.55252     58.95154         9     0.771     0.753  85.33   0
       231    736.0376     51.2019 300.3972114 +22.6296996     443.2227      69.3208      1.254     2.14    -8.751599     19.55252     86.21341        10     0.834     0.721  83.48   0
       232    828.5764     49.8636 300.4264769 +22.6570224     145.3948      69.2855      0.978     2.32    -8.683378     19.55252     39.99678         5     0.698     0.462  70.44   0
       233    176.5401     45.0545 300.2251330 +22.4603034     170.1499     69.35609      1.027     3.76     -8.56804     19.55252      28.4195         6     0.816     0.498  88.51   0
       234    611.8253     41.4892 300.3616789 +22.5897095     2970.227     69.25018      1.177     2.08    -8.488215     19.55252     453.9045        19     0.939     0.883  13.22   0
       235    386.7278     40.5933 300.2919236 +22.5220176     652.4622     69.26784      1.182     2.60    -8.491267     19.55252     104.1979        12     0.913     0.825  66.07   0
       236    652.9914     38.5582 300.3754467 +22.6011964     510.3202      69.3208      1.112     1.80    -8.591393     19.55252     85.79728         8     0.723     0.619 -77.86   0
       237    669.2170     34.8672 300.3816961 +22.6049949     265.5936      69.2855      1.113     2.24    -8.617226     19.55252     59.89618         7     0.807     0.570  64.18   0
       238    135.7267     32.9974 300.2163605 +22.4446071     327.0235     69.21484      1.330     4.00    -8.534575     19.55252     49.39694         8     0.972     0.692 -70.85   0
       239    707.6253     30.4119 300.3951023 +22.6152161     264.3651     69.30315      1.213     3.85    -8.601018     19.55252     43.97095         6     0.937     0.655  74.21   0
       240    656.1171     26.3967 300.3803630 +22.5986374     1291.846     69.23251      1.119     1.97    -8.550507     19.55252     217.0816        12     0.865     0.721  61.58   0
       241    671.1059     25.0356 300.3854718 +22.6027349     462.7342     69.30315      1.934     4.79    -8.580671     19.55252     50.37435         9     1.321     0.712  58.54   0
       242    742.4335     17.8589 300.4100143 +22.6220305     738.8334      69.3208      1.095     2.28    -8.520525     19.55252     127.0905        10     0.869     0.681  89.16   0
       243     97.6599   1011.2230 299.8867556 +22.7136753     3590.575      69.2855      5.280    25.29     30.96076     19.55252     74.07536       202     5.043     3.520  36.39  19
       244    286.1422   1007.1777 299.9466337 +22.7691310     431.1734     69.30315      1.218     2.52    -10.79527     19.55252     93.29295         9     0.781     0.715  30.76   0
       245    122.1514   1002.1500 299.8973156 +22.7184344     662.1263     69.33845      2.532     6.46      27.1806     19.55252     38.24104         8     1.186     1.061  89.37   1
