#   1 NUMBER                 Running object number                                     
#   2 X_IMAGE                Object position along x                                    [pixel]
#   3 Y_IMAGE                Object position along y                                    [pixel]
#   4 ALPHA_J2000            Right ascension of barycenter (J2000)                      [deg]
#   5 DELTA_J2000            Declination of barycenter (J2000)                          [deg]
#   6 FLUX_APER              Flux vector within fixed circular aperture(s)              [count]
#   7 FLUXERR_APER           RMS error vector for aperture flux(es)                     [count]
#   8 FLUX_RADIUS            Fraction-of-light radii                                    [pixel]
#   9 FWHM_IMAGE             FWHM assuming a gaussian core                              [pixel]
#  10 BACKGROUND             Background at centroid position                            [count]
#  11 THRESHOLD              Detection threshold above background                       [count]
#  12 FLUX_MAX               Peak flux above background                                 [count]
#  13 ISOAREA_IMAGE          Isophotal area above Analysis threshold                    [pixel**2]
#  14 A_IMAGE                Profile RMS along major axis                               [pixel]
#  15 B_IMAGE                Profile RMS along minor axis                               [pixel]
#  16 THETA_IMAGE            Position angle (CCW/x)                                     [deg]
#  17 FLAGS                  Extraction flags                                          
         1    729.0043     10.0235 300.4127101 +22.6082922     384.3318     69.12452      1.336     3.30    -8.446616     19.51207     60.34291        10     0.931     0.728 -65.76   0
         2    283.6558      9.9820 300.2741254 +22.4748958     540.0661     69.14214      1.214     2.53    -8.284222     19.51207     91.20201        10     0.857     0.760  86.57   0
         3    786.4705      1.7999 300.4332807 +22.6231299     984.2916     56.30306      1.174     2.49    -8.426404     19.51207     169.1046        14     1.037     0.767 -12.44  24
         4    195.6502   1016.2111 299.9197857 +22.7372004     770.6261     69.19498      3.260     5.65     23.46044     19.51207     37.79121         7     1.222     0.736  36.81  16
         5    128.2863   1021.1683 299.8972429 +22.7183884     883.7466     65.29987      3.021    10.48      24.6033     19.51207     35.97765        18     1.851     1.653 -74.38  26
         6     77.8411   1012.9570 299.8842485 +22.7008832     2634.092     69.24778     18.297    60.37      12.7619     19.51207     68.24679       793    14.591     6.931  37.37  27
         7     55.5916    984.2812 299.8866759 +22.6859845      2098.08      69.1069     16.112    21.29    -1.064048     19.51207     56.99331       100     4.329     2.908  45.22   3
         8     75.5388    967.7731 299.8982451 +22.6872465     2751.927     69.15976     27.126    75.85    0.9088108     19.51207     57.38116      1287    13.684    11.665  60.33  19
         9    730.8348   1001.4105 300.0910986 +22.8935971     350.1778     69.14214      1.006     1.88     -13.4933     19.51207     76.88231         6     0.741     0.486  -7.99   0
        10    238.8572    991.6846 299.9411990 +22.7431469     4097.492     69.24778      6.740    32.93     8.057132     19.51207     89.24754       297     9.177     3.685  53.30  18
        11    207.8798   1007.7092 299.9263544 +22.7384369     968.7354     69.26537      7.565     8.75     20.20128     19.51207     54.23734        19     2.044     1.045 -16.09   3
        12    164.9472    992.9047 299.9178352 +22.7213010     874.0396     69.23019      2.731     9.37     16.12622     19.51207     35.56548        13     2.860     0.857 -15.87   0
        13    352.4800   1011.8000 299.9699703 +22.7830284      311.858     69.03634      1.566     3.78    -13.04775     19.51207     54.10166         8     1.153     0.778 -33.20   0
        14    162.1251    987.7045 299.9186516 +22.7189633     642.3809     69.30054      4.585     8.53     14.49237     19.51207     44.09673        10     1.943     1.046  73.70   0
        15    923.2728    984.2882 300.1566371 +22.9464010     441.0868     69.31812      1.151     2.94     -13.4576     19.51207     70.58287         9     0.897     0.688  80.61   0
        16    494.7679    989.7861 300.0213961 +22.8194285     432.5866     69.15976      2.198     4.31    -13.52174     19.51207     29.10451         5     0.732     0.723 -43.85   0
        17    144.0081    971.5850 299.9182714 +22.7089032     730.5392     69.07162      3.721     4.30     8.456347     19.51207     28.79877         5     1.552     0.339  27.32   0
        18     73.6663    931.1396 299.9095892 +22.6761876     1943.986     69.19498     24.266    41.69     -8.30596     19.51207     59.57197       381     7.780     6.200 -49.84   3
        19    648.7277    967.8531 300.0764572 +22.8593372     3260.977     69.15976      1.171     1.92    -12.92808     19.51207     586.0311        25     1.116     0.846  48.10   0
        20    226.7278    996.6358 299.9358173 +22.7409236     1260.586     69.14214      7.317    12.32     14.67774     19.51207     40.03331        21     2.884     1.465 -19.29   3
        21    215.6886   1001.6426 299.9307564 +22.7390434     1977.333     69.15976      9.686    15.69     17.71853     19.51207     61.63772        61     2.744     2.495   3.94   3
        22    122.2922    965.8546 299.9133912 +22.7007392     714.8314     69.21259      6.065     6.15     5.762463     19.51207     33.99754         7     1.290     0.824  72.90   1
        23    240.0086    962.0281 299.9512127 +22.7349927     -189.931     69.15976      0.816     2.05    -1.131676     19.51207     64.42104         7     0.816     0.503  40.41   0
        24    800.7247    961.3504 300.1259149 +22.9030664     123.1594     69.15976      1.044     3.46    -13.25655     19.51207     35.48266         5     0.775     0.447 -15.26   0
        25    557.3616    958.5237 300.0510535 +22.8292471     754.1127     69.14214      1.118     2.20    -12.86959     19.51207     118.2301        10     0.839     0.690 -30.00   0
        26    215.8920    996.3589 299.9325401 +22.7375902     2005.499     69.15976      9.449    19.48      15.4534     19.51207     58.21874        75     3.748     2.812  80.93   3
        27    543.9962   1005.4657 300.0316087 +22.8386993     1106.943     69.17738      1.055     1.66    -12.91764     19.51207     217.7986        13     0.877     0.697  80.14   0
        28    196.7185   1000.4015 299.9252657 +22.7329908     1696.164     69.07162      7.087    15.07     17.56339     19.51207     46.55359        56     2.785     2.268   3.08   3
        29    451.0318    955.1559 300.0190650 +22.7963714     441.4613     69.21259      1.182     2.05    -13.07974     19.51207      102.979         8     0.772     0.630 -42.76   0
        30    236.7868    983.0907 299.9433538 +22.7400621     1703.566      69.1069      2.475     8.18     6.053447     19.51207     72.56332        34     2.050     1.342  24.72   3
        31    381.6970    953.1575 299.9981501 +22.7749873     3092.684     69.15976      1.132     1.89    -12.70307     19.51207     587.7944        22     0.974     0.869 -57.57   0
        32    630.3929   1000.7046 300.0600515 +22.8632598     4111.485     69.05399      1.089     1.87    -12.91685     19.51207     672.0952        23     0.924     0.892 -18.49   3
        33    483.4461   1015.1114 300.0096266 +22.8232924     261.4179     69.14214      1.242     4.24    -14.00659     19.51207     27.97459         5     0.950     0.541 -43.50   0
        34    635.9722    998.4013 300.0625385 +22.8642732     4532.666     69.12452      1.127     1.80    -12.92152     19.51207     818.4532        28     1.002     0.926 -87.08   2
        35    118.8299    940.9324 299.9204291 +22.6925578     513.0327     69.14214      5.463     6.49    -2.754555     19.51207      30.0747         8     1.258     0.941 -75.33   0
        36    413.5917    939.8558 300.0124001 +22.7807468     229.8552     69.15976      1.018     1.92    -12.59441     19.51207     42.95924         5     0.676     0.452  67.48   0
        37    927.9384    931.7501 300.1751985 +22.9327188     1044.766     69.21259      1.176     1.82    -13.03212     19.51207     196.9311        15     0.899     0.823  13.03   0
        38    716.8081    920.4275 300.1130981 +22.8661535     318.9917     69.15976      1.725     5.18       -12.95     19.51207     49.04184         8     1.570     0.483  60.02   0
        39    226.4963   1014.4147 299.9299560 +22.7459492     433.5011     69.07162      1.520     5.32     21.50507     19.51207     37.77069        10     1.014     0.790   1.74   0
        40    773.8176    908.4525 300.1347542 +22.8798159     5604.723     69.14214      1.066     1.82     -12.9617     19.51207     946.8585        26     0.920     0.898 -86.59   0
        41    819.3761    908.4416 300.1489518 +22.8934754     401.8112     69.21259      1.597     4.17    -12.96528     19.51207      40.4035         6     1.012     0.489 -56.69   0
        42    964.9600    908.0269 300.1944637 +22.9370074     173.3067     69.21259      0.981     2.20    -12.96869     19.51207      45.9948         5     0.624     0.556   0.78   0
        43    751.4600    914.7822 300.1257289 +22.8749269     624.5187      69.1069      1.193     2.59    -12.95498     19.51207     98.38537        10     0.907     0.655   6.29   0
        44    825.3978    896.0443 300.1548639 +22.8917228     233.0265     69.14214      0.947     3.39    -12.93977     19.51207     43.30933         5     0.751     0.442  69.79   0
        45    782.1910    890.4496 300.1432231 +22.8771602     754.6387     69.15976      1.064     1.77    -12.95002     19.51207     135.9955         9     0.722     0.685 -55.50   0
        46    965.8093    889.2930 300.2008270 +22.9318832     179.4702     69.08926      1.313     4.21    -12.93341     19.51207      31.5537         6     0.765     0.661  51.27   0
        47    820.4366    884.2993 300.1571411 +22.8868639     508.2905     69.15976      1.135     2.24    -12.92851     19.51207     90.76324         7     0.815     0.588  69.08   0
        48    719.9815    874.3138 300.1290971 +22.8538723     296.6351      69.1069      1.035     2.44    -12.87823     19.51207     67.87781         6     0.726     0.533 -36.47   0
        49    731.7589    871.3726 300.1337227 +22.8565604     235.6261     69.19498      0.992     2.14    -12.87783     19.51207     66.82475         5     0.720     0.421 -24.00   0
        50    432.8604    870.7488 300.0408883 +22.7667116      1971.69     69.21259      1.125     1.92    -12.19934     19.51207      384.856        15     0.853     0.802  43.93   0
        51     93.8152    859.2513 299.9392444 +22.6616377     145.5754     69.15976      1.143     3.99    -11.75274     19.51207     38.80648         7     0.950     0.633  -9.34   0
        52    158.0250    856.5242 299.9600782 +22.6801360     438.0251     69.17738      1.259     2.87    -11.73302     19.51207     62.66753         8     0.957     0.567 -22.58   0
        53     66.5839    854.7737 299.9322440 +22.6521771      148.375     69.17738      1.045     3.38    -12.00392     19.51207     27.25549         5     0.763     0.434  68.11   0
        54    135.0772    853.6046 299.9538990 +22.6724091       839.18     69.07162      1.208     2.37    -11.74455     19.51207     132.4876        14     0.958     0.817 -66.42   0
        55   1006.7999    842.3693 300.2288818 +22.9306959     1097.902      69.1069      1.092     1.91     -12.6816     19.51207     194.3877        13     0.886     0.730 -78.13   0
        56    961.2086    840.8972 300.2151447 +22.9166078     967.2866     69.03634      1.082     1.81    -12.67259     19.51207     218.0502        12     0.866     0.742  23.31   0
        57    744.6876    834.9400 300.1496069 +22.8499813     420.0278     69.23019      1.129     2.20    -12.54073     19.51207     65.49081         7     0.679     0.659  29.78   0
        58    612.7473    828.8002 300.1105185 +22.8086480     2311.263      69.1069      1.100     1.74    -12.19976     19.51207     483.6594        20     0.957     0.824  53.73   0
        59    102.5860    829.7669 299.9515629 +22.6558208     174.2823     69.15976      1.135     3.46    -11.83655     19.51207     29.27155         5     0.739     0.469  74.65   0
        60    414.8564    825.9036 300.0498821 +22.7484467     251.4716     69.24778      1.047     1.68    -11.77006     19.51207     72.49216         6     0.672     0.526  48.52   0
        61    163.0127    822.7287 299.9726248 +22.6719459     727.0276     69.17738      1.194     2.03    -11.85836     19.51207     115.3991        10     0.832     0.716  13.30   0
        62    633.2294    821.2462 300.1193533 +22.8126239     449.2081     69.19498      1.188     2.13    -12.07434     19.51207     63.24095         8     0.753     0.630 -34.01   0
        63   1005.6224    808.7725 300.2394482 +22.9206942     467.5901     69.15976      1.020     2.19    -12.38425     19.51207     99.69273         9     0.810     0.670 -60.08   0
        64    788.8295    808.4981 300.1719627 +22.8556276     2054.434     69.08926      1.035     1.71    -12.31951     19.51207     368.2674        16     0.850     0.776  -4.05   0
        65    197.5086    802.2523 299.9900056 +22.6764315     302.5896     69.21259      1.504     4.06    -11.83818     19.51207     42.92766         6     0.936     0.571 -26.78   0
        66    152.1551    799.6826 299.9767497 +22.6620796     464.7065     69.12452      1.196     4.04    -11.94276     19.51207     82.43193        11     1.287     0.669 -76.61   0
        67    505.9558    801.0004 300.0863266 +22.7686364     280.4391     69.15976      1.135     2.41    -11.49326     19.51207     65.16757         7     0.856     0.496 -39.91   0
        68    567.2877    794.4055 300.1075594 +22.7851427     252.7006     69.07162      1.263     3.13    -11.54612     19.51207     49.55153         6     0.900     0.453  89.34   0
        69    301.8633    791.2520 300.0260198 +22.7045998     26128.48     69.21259      1.162     1.88     -11.6565     19.51207     4747.718        62     1.131     1.060  46.40   0
        70    559.8917    790.3152 300.1065883 +22.7817505     788.8527     69.31812      1.121     2.85    -11.50513     19.51207     145.1133        10     0.942     0.660  45.77   0
        71    972.7557    789.2702 300.2355454 +22.9052429      488.161     69.12452      1.194     2.10    -12.19997     19.51207     82.76488         7     0.716     0.605   5.18   0
        72    588.8449    786.1205 300.1169651 +22.7892315     441.8302     69.14214      1.090     2.00     -11.5756     19.51207     88.92084         8     0.759     0.642  88.08   0
        73    599.6349    784.6965 300.1207873 +22.7920592     300.5741     69.15976      1.007     2.02    -11.60222     19.51207     59.00492         5     0.672     0.461  73.36   0
        74    704.8190    780.6260 300.1548626 +22.8224361      185.036     69.17738      1.171     2.25    -11.76021     19.51207     37.42969         5     0.705     0.448  19.63   0
        75    742.6848    770.9117 300.1698171 +22.8310019     313.4756     69.28296      0.950     1.56    -11.81584     19.51207      85.0942         5     0.656     0.428  68.61   0
        76    351.5731    768.4666 300.0488885 +22.7129828     15401.65     69.14214      1.087     1.94    -11.42478     19.51207     2183.116        42     1.035     0.985  74.12   0
        77    365.9315    769.1132 300.0531431 +22.7174768     888.6516     69.26537      1.118     1.95    -11.41948     19.51207     196.9577        11     0.832     0.689  80.03   0
        78    874.6644    764.1845 300.2131284 +22.8686377     1379.593     69.14214      1.070     1.89     -11.9376     19.51207     254.3152        16     0.896     0.813  43.22   0
        79    234.1028    760.3142 300.0150215 +22.6753910     470.4214     69.31812      1.511     3.43    -11.68395     19.51207     50.96779         7     0.856     0.719 -56.41   0
        80    632.8231    760.3753 300.1390320 +22.7950332       499.01     69.12452      1.074     2.06    -11.45433     19.51207     83.16305         7     0.699     0.600 -13.02   0
        81    468.9458    760.1010 300.0881174 +22.7457993     237.3977     69.24778      1.040     3.79    -11.17917     19.51207      39.1946         5     0.673     0.613  85.92   0
        82     38.9879    756.0535 299.9557921 +22.6155966     409.4066     69.17738      1.608     2.54    -12.06083     19.51207     52.64384         8     0.809     0.726   3.61   0
        83    479.6540    755.1378 300.0930636 +22.7475877     389.0376     69.21259      1.098     2.06    -11.10141     19.51207     86.07155         7     0.758     0.584  68.72   0
        84    880.6635    751.8864 300.2189991 +22.8669044     207.0999     69.24778      0.968     1.61    -11.82509     19.51207     67.48199         5     0.676     0.413  64.65   0
        85    381.5502    751.2554 300.0638096 +22.7170410     322.2274     69.19498      1.505     3.46    -11.32021     19.51207      30.9353         5     0.733     0.473 -73.97   0
        86    425.5814    749.9927 300.0779155 +22.7298896     185.1069     69.12452      1.107     3.27    -11.26967     19.51207     41.79529         5     0.792     0.558   0.77   0
        87     67.0468    749.8286 299.9665307 +22.6222368     253.9735     69.17738      1.086     3.71    -11.99066     19.51207     50.22839         5     0.638     0.620  67.73   0
        88    231.7317    744.5173 300.0194231 +22.6701494     305.1751     69.26537      1.249     2.91    -11.66723     19.51207     40.66309         5     0.723     0.438  24.78   0
        89    524.5443    733.1959 300.1141695 +22.7547577     212.3986     69.12452      1.215     1.72    -11.15637     19.51207     63.14536         5     0.659     0.453  64.26   0
        90    546.5838    730.7048 300.1218388 +22.7606535     610.8446     69.08926      1.080     2.09    -11.24931     19.51207     102.5085         7     0.764     0.540  40.36   0
        91    940.9670    729.5026 300.2450789 +22.8785501     2177.112     69.14214      1.074     1.73    -11.65162     19.51207     390.7586        16     0.838     0.804  14.56   0
        92    929.4997    721.0262 300.2442612 +22.8726789     799.6085      69.1069      1.061     1.72    -11.57947     19.51207     167.9062        12     1.030     0.600  82.19   0
        93    292.5401    715.0322 300.0479149 +22.6799423     408.2531     69.19498      1.145     2.23    -11.18728     19.51207     66.84413         8     0.749     0.662 -12.82   0
        94    755.5857    712.2689 300.1929125 +22.8180341     1218.974     69.17738      1.116     2.02     -11.2181     19.51207     183.0202        14     0.861     0.781  62.78   0
        95    960.5752    710.9160 300.2572383 +22.8790877     977.8982     69.12452      1.136     1.81    -11.46184     19.51207     166.6246        10     0.745     0.718 -83.04   0
        96    141.0812    698.8172 300.0061183 +22.6298368     229.4748     69.15976      1.258     2.42    -11.56397     19.51207     48.70823         7     0.724     0.649  -5.29   0
        97    874.1966    689.1638 300.2373862 +22.8469533     72400.55     69.17738      1.132     1.71     -11.3478     19.51207     15267.42        92     1.124     1.077  67.55   0
        98    636.9027    692.8895 300.1622538 +22.7768864     74.20798     69.33569      1.127     3.88     -11.1413     19.51207     32.49464         5     0.805     0.537 -55.92   0
        99   1020.9536    690.8799 300.2825835 +22.8914241     532.5447     66.00504      1.115     2.03    -11.15633     19.51207     119.7781         8     0.747     0.602 -44.16  16
       100    726.5842    689.5089 300.1912814 +22.8028049     270.4367     69.08926      1.070     2.48    -10.98448     19.51207     57.51386         6     0.832     0.433  70.69   0
       101    906.8197    681.4707 300.2500568 +22.8545208       208.39     69.17738      0.995     2.05    -11.26347     19.51207     56.90906         6     0.717     0.591  62.66   0
       102    560.5058    678.1249 300.1432730 +22.7497389      796.142     69.30054      1.115     1.87    -11.01163     19.51207     131.7128        10     0.779     0.738 -24.29   0
       103    741.6926    675.2841 300.2006137 +22.8032501     4428.456     69.33569      1.092     1.85    -10.83814     19.51207     776.6575        22     0.956     0.821  76.01   0
       104    243.2767    670.6497 300.0470350 +22.6524297     2512.396     69.15976      1.163     1.99    -11.09199     19.51207     394.8352        20     0.962     0.852 -68.27   0
       105    325.2856    668.5566 300.0732100 +22.6764364     506.4299     69.14214      1.053     2.29    -10.98485     19.51207     85.13359         9     0.810     0.637  79.11   0
       106    200.3882    666.2405 300.0351395 +22.6382947     243.1265     69.14214      1.186     4.40     -11.1452     19.51207     39.35791         7     0.922     0.597   8.89   0
       107    533.6355    663.7742 300.1395769 +22.7375618     260.6738     69.17738      0.918     1.63    -10.85291     19.51207     87.99142         5     0.655     0.447  68.04   0
       108    525.1616    656.2773 300.1393776 +22.7328688     1562.117     69.14214      1.157     2.01     -10.7781     19.51207     276.2169        15     0.931     0.777 -63.24   0
       109    515.4021    650.1483 300.1383334 +22.7281829      626.791     69.14214      1.165     2.06    -10.71525     19.51207     119.9345        10     0.813     0.700 -42.23   0
       110    178.7649    646.5170 300.0348333 +22.6261490     366.0915     69.12452      1.305     2.66    -11.18173     19.51207     60.48079         8     0.905     0.709  30.58   0
       111    192.8690    644.9294 300.0397322 +22.6299262      243.785     69.19498      1.082     3.31    -11.15043     19.51207     41.71888         6     0.916     0.442 -53.35   0
       112    440.0392    639.8246 300.1182420 +22.7026171     859.7988     69.19498      1.206     2.03    -10.63801     19.51207     145.3485        11     0.824     0.760  54.00   0
       113    962.5596    640.8151 300.2806558 +22.8595449     198.0936     69.17738      1.018     2.75    -11.11963     19.51207     47.99009         5     0.905     0.375  -6.94   0
       114    113.1174    638.9465 300.0168990 +22.6042759     3724.875     69.19498      0.458    -0.71    -11.42799     19.51207     2779.066         7     0.368     0.334  -8.41   0
       115     94.2761    634.9024 300.0123612 +22.5974612     9669.639     69.30054      1.241     2.06    -11.46111     19.51207     1536.385        44     1.114     1.074  69.16   0
       116   1016.0070    636.8119 300.2986244 +22.8744079     398.2089     69.03634      1.013     1.90    -10.97765     19.51207     101.4679         8     0.748     0.629  37.66   0
       117    124.3738    635.4521 300.0215319 +22.6066522     5075.167     69.17738      1.469     5.24    -11.36452     19.51207     1115.961        19     1.713     0.453 -38.03   0
       118    525.3057    635.1088 300.1463056 +22.7268364     504.0307     69.31812      1.122     2.20    -10.65063     19.51207     95.53534         8     0.818     0.597  24.85   0
       119    943.0351    621.0537 300.2809940 +22.8480176     606.9083     69.17738      1.181     1.79     -11.1956     19.51207     127.5109         9     0.715     0.661 -84.22   0
       120     40.2909    618.9750 300.0007725 +22.5766903     713.6297      69.1069      1.636     5.57    -11.29846     19.51207     70.35842        16     1.405     0.794 -80.65   0
       121    809.9078    619.2679 300.2400810 +22.8076111     272.8585     69.28296      1.144     2.77    -10.89796     19.51207     46.75687         6     0.739     0.572 -46.71   0
       122    883.2298    613.9430 300.2646626 +22.8280548     344.8973     69.17738      1.085     3.11    -11.24709     19.51207     72.91402         7     0.920     0.589 -88.80   0
       123    445.2104    607.9354 300.1302186 +22.6950168     380.0039      69.1069      1.138     2.37     -10.4747     19.51207     62.72716         8     0.807     0.595  44.83   0
       124    640.2206    605.0370 300.1918540 +22.7526605      252.767     69.17738      1.211     3.47    -10.69921     19.51207      41.6426         7     0.959     0.595 -84.92   0
       125    489.3505    603.5715 300.1453705 +22.7070022     376.1366     69.17738      1.038     1.78    -10.40803     19.51207     74.09697         5     0.644     0.491   8.23   0
       126    923.2172    599.2036 300.2819198 +22.8358024     1635.552     69.08926      1.091     1.79    -11.14339     19.51207     338.8967        13     0.819     0.738  61.92   0
       127    455.0219    599.2413 300.1360975 +22.6954642     728.9188     69.19498      1.169     2.20    -10.42478     19.51207     141.0618        11     0.925     0.708  69.79   0
       128   1021.1608    597.2722 300.3130880 +22.8645905     408.6432     65.31853      1.314     2.05    -11.02372     19.51207     66.08018         6     0.712     0.522  40.40  16
       129     17.0396    593.0112 300.0019925 +22.5622667     2541.395     69.15976      1.279     2.03    -11.24669     19.51207     423.0018        23     1.002     0.972 -63.03   0
       130    318.4010    586.0533 300.0978930 +22.6507011     4463.045     69.12452      1.180     1.99    -10.84715     19.51207     694.1569        29     1.083     0.918  80.94   0
       131    440.9149    583.0630 300.1369680 +22.6865903     4263.153     69.26537      1.202     1.94    -10.39892     19.51207     791.2299        27     1.017     0.938  36.87   0
       132    852.5798    576.9913 300.2671233 +22.8082557     1036.043     69.14214      1.136     2.10    -10.81871     19.51207     147.3285        10     0.793     0.682 -79.49   0
       133    937.0883    574.2330 300.2943622 +22.8327842     6037.891     69.12452      1.126     1.75    -10.90504     19.51207     1199.326        28     0.991     0.895  80.77   0
       134    501.3721    572.6077 300.1591770 +22.7017196     5599.375     69.15976      1.164     2.09    -10.32045     19.51207     801.9401        32     1.101     0.969  65.29   0
       135    671.0735    568.1548 300.2134511 +22.7513195     323.7628     69.14214      1.262     2.38    -10.49483     19.51207     49.55621         6     0.729     0.551  48.46   0
       136    228.9046    568.1738 300.0758835 +22.6187224     573.2938      69.1069      1.154     1.96    -11.01591     19.51207       121.61         9     0.738     0.687  42.39   0
       137    433.1139    560.8083 300.1417752 +22.6778636     2012.814     69.08926      1.207     2.04    -10.34483     19.51207     344.1094        21     1.017     0.880  78.28   0
       138    776.0623    560.8776 300.2485184 +22.7806971     293.0869     69.23019      1.115     2.21    -10.53846     19.51207      61.9715         5     0.604     0.572  78.23   0
       139    411.2823    559.2523 300.1354899 +22.6708696     645.0825     69.19498      1.182     2.58    -10.38616     19.51207     90.65539        10     0.910     0.659  59.82   0
       140    165.5753    558.6626 300.0592946 +22.5969928     384.1908     69.14214      1.008     2.37    -11.13139     19.51207      58.6088         7     0.853     0.481 -80.68   0
       141    853.0623    556.1412 300.2740514 +22.8024107      762.739     69.21259      1.275     2.42     -10.5921     19.51207     110.7937        10     0.847     0.712 -10.66   0
       142    733.2830    553.0791 300.2377266 +22.7656363     395.1333     69.28296      1.145     2.35    -10.42519     19.51207     73.66597         8     0.879     0.592  84.82   0
       143    549.6860    548.3419 300.1821002 +22.7092401     100160.7     69.26537      1.174     2.01    -10.34705     19.51207     15326.05       123     1.246     1.227  -1.94   0
       144    235.8295    548.4095 300.0844597 +22.6151299     1696.315     69.15976      1.230     1.98    -10.99992     19.51207     255.8069        19     0.998     0.917  26.17   0
       145    440.3954    528.8931 300.1544134 +22.6708868     1416.299     69.05399      1.334     2.46    -10.28187     19.51207     171.1569        17     1.210     0.801 -84.34   0
       146    837.0803    514.6494 300.2825567 +22.7857021     828.7945     69.19498      1.111     1.98    -10.46985     19.51207     141.4427        11     0.837     0.691  73.83   0
       147    708.4134    512.4140 300.2431972 +22.7465034     1347.115     69.08926      1.107     2.03    -10.37397     19.51207     178.1678        16     0.894     0.831  24.49   0
       148    495.7760    508.2920 300.1783392 +22.6815789     408.0584     69.08926      1.272     2.52    -10.12364     19.51207     57.84522         5     0.855     0.351  48.06   0
       149    965.7206    506.2097 300.3253997 +22.8218152     522.3749     69.12452      1.075     2.24    -10.67101     19.51207     90.84936         9     0.793     0.664 -79.96   0
       150    837.6371    505.2014 300.2858007 +22.7831545     1075.549     69.15976      1.218     2.09    -10.46427     19.51207     163.0183        10     0.817     0.647 -69.46   0
       151    376.3372    502.5662 300.1430436 +22.6441204     178.9733     69.15976      1.027     4.89    -10.37159     19.51207     29.28552         6     1.027     0.659 -69.79   0
       152    590.8168    502.5426 300.2097878 +22.7084210     199.3418     69.14214      1.335     2.12    -9.937066     19.51207     45.95532         5     0.713     0.460 -20.65   0
       153    875.6702    499.8436 300.2993954 +22.7930100     2084.914     69.12452      1.113     1.80    -10.47941     19.51207     384.6568        18     0.928     0.835 -78.16   0
       154    951.3508    505.4798 300.3211564 +22.8173010     416.4246     69.17738      0.951     2.08    -10.62323     19.51207     63.64079         5     0.656     0.492 -11.27   0
       155    967.5112    490.1117 300.3311897 +22.8177251     455.7263     69.31812      1.354     2.72    -10.60813     19.51207     62.15313         7     0.812     0.596  11.53   0
       156    107.9658    490.6120 300.0635108 +22.5601870     564.1743     69.14214      1.374     2.98     -10.8463     19.51207       70.565         7     0.893     0.484   4.59   0
       157    100.2500    481.0862 300.0642091 +22.5551394     266.6087     69.15976      1.391     4.40    -10.74704     19.51207     35.61385         6     1.046     0.654  66.51   0
       158    648.9979    470.4991 300.2383145 +22.7166579     301.2253     69.05399      1.090     1.90     -10.0482     19.51207     63.80666         6     0.708     0.492  10.14   0
       159    963.6664    462.7227 300.3388909 +22.8087020     267.3717     69.24778      1.048     2.55    -10.56324     19.51207     44.07405         6     0.684     0.626 -26.24   0
       160    709.7755    462.4580 300.2598549 +22.7325627     317.8345     69.15976      0.974     2.05     -10.2932     19.51207     79.35551         7     0.814     0.487   9.34   0
       161    866.9702    458.5954 300.3100875 +22.7785515     456.8686     69.14214      1.194     2.58    -10.44179     19.51207     92.77166         8     0.844     0.642  42.92   0
       162    204.0484    457.5032 300.1041220 +22.5795138     1320.932     69.19498      0.681    -0.69    -10.68893     19.51207        606.7         7     0.543     0.373 -82.76   0
       163    851.2401    455.1237 300.3063129 +22.7728416     269.5718     69.12452      1.196     2.17    -10.42785     19.51207     55.97154         6     0.720     0.536  36.77   0
       164    595.6855    453.2176 300.2273309 +22.6957160      1561.81     69.12452      1.225     2.20     -9.71034     19.51207     237.8665        17     0.948     0.860  81.81   0
       165    956.5675    451.6464 300.3402765 +22.8033924      228.113     69.19498      1.053     2.41    -10.55506     19.51207     63.98597         7     0.925     0.462  -8.80   0
       166   1007.0875    432.1439 300.3623669 +22.8129168     583.6096     69.21259      1.143     1.82    -10.60036     19.51207     130.8413        10     0.808     0.685  30.64   0
       167    878.8312    431.8364 300.3224786 +22.7744150      319.456     69.17738      1.140     2.64    -10.43338     19.51207     49.39381         5     0.740     0.507 -36.39   0
       168    965.3524    430.9706 300.3497333 +22.8000808     496.5513     69.17738      1.103     1.94    -10.55816     19.51207     92.26805         8     0.747     0.621  10.46   0
       169    501.9010    427.8617 300.2063783 +22.6603227     109.1623     69.23019      1.198     3.92    -9.786158     19.51207     27.00076         6     0.769     0.573  42.80   0
       170    706.3106    427.0294 300.2702863 +22.7213473     481.8214     69.12452      1.152     1.97    -10.13188     19.51207     97.41917         7     0.695     0.611  73.07   0
       171    210.6005    425.5286 300.1165456 +22.5723041      363.721     69.05399      1.157     3.07    -10.59273     19.51207     48.65625         6     0.841     0.485  84.16   0
       172    272.6346    421.2832 300.1372068 +22.5896913     1700.156     69.12452      1.228     2.15    -10.48466     19.51207     268.5435        18     1.026     0.831  50.88   0
       173   1005.6281    419.3329 300.3660738 +22.8087972     2103.584     69.14214      1.093     1.95    -10.60047     19.51207     326.9275        17     0.920     0.792  64.44   0
       174    219.9023    416.0736 300.1225079 +22.5723808     3660.487     69.28296      1.263     2.20    -10.55195     19.51207     561.9429        24     0.994     0.948  74.47   0
       175    985.5823    410.5002 300.3626920 +22.8002552     765.9862     69.07162      1.095     2.07    -10.56923     19.51207     136.3461        12     0.876     0.716  64.01   0
       176    360.7151    410.2409 300.1681810 +22.6129350     2433.542     69.12452      1.206     2.20    -10.10939     19.51207     355.7417        20     0.997     0.896  26.83   0
       177    604.7786    406.8419 300.2452279 +22.6851222     9039.429     69.19498      1.236     2.07    -9.721148     19.51207     1455.362        37     1.121     1.003  68.35   0
       178    938.1907    389.3501 300.3547853 +22.7799832     474.8666     69.15976      1.296     2.55    -10.31063     19.51207     70.58715         9     0.851     0.685  72.67   0
       179    159.3674    387.0391 300.1131266 +22.5458922     1002.645     69.19498      1.291     2.38    -10.53592     19.51207     139.9145        16     0.985     0.946  -1.94   0
       180    959.0828    376.4173 300.3655002 +22.7825222     537.7433     69.12452      1.140     2.72    -10.34348     19.51207      105.757        11     0.941     0.793 -26.52   0
       181    545.4400    376.2663 300.2366880 +22.6585565     3153.189     69.12452      1.172     2.17    -9.787528     19.51207     421.1815        19     0.956     0.853  72.49   0
       182    259.8956    375.4377 300.1481377 +22.5727128     260.9917     69.14214      1.299     2.56    -10.27767     19.51207     46.52905         6     0.715     0.608  53.94   0
       183    117.8270    369.1983 300.1060145 +22.5283126      288.115      69.1069      1.387     2.45    -10.42251     19.51207     52.98545         5     0.877     0.341  43.17   0
       184    749.6051    365.0129 300.3039172 +22.7165015     630.4044     69.03634      1.250     2.95    -10.05746     19.51207     81.33031         9     0.878     0.710 -44.59   0
       185    452.1364    362.5645 300.2121036 +22.6266551     3184.078     69.15976      1.279     2.23    -9.850855     19.51207     441.8089        25     1.069     0.952  56.40   0
       186    843.9585    356.8394 300.3359713 +22.7424163     556.7275     69.24778      1.175     2.01    -9.989163     19.51207     125.5186        10     0.813     0.705  81.95   0
       187    941.2571    356.6298 300.3663692 +22.7714960     298.8191     69.17738      1.220     2.08    -10.09082     19.51207     48.09826         5     0.660     0.474 -11.28   0
       188    339.6758    341.7954 300.1838680 +22.5869775     1206.979     69.07162      1.217     2.21    -9.836828     19.51207     210.4192        15     0.923     0.872   0.35   0
       189     58.2727    338.9029 300.0973534 +22.5017555     498.4683     69.28296      1.238     4.51    -10.26656     19.51207     75.42707        10     1.157     0.659 -72.73   0
       190    309.0031    331.3646 300.1777176 +22.5747867     14694.92     69.15976      1.285     2.24    -9.910845     19.51207      1998.31        49     1.195     1.049  74.84   0
       191    843.5721    328.6495 300.3450060 +22.7341985     576.3732     69.17738      1.125     2.22    -9.918742     19.51207     91.32439        10     0.832     0.702  46.32   0
       192      5.2804    319.3463 300.0872466 +22.4802476      2295.15     69.00104      1.268     2.41    -10.15044     19.51207     302.7223        21     1.030     0.921  47.57  16
       193    758.7054    317.8531 300.3220678 +22.7056760     343.0278     69.23019      1.255     3.05    -9.896214     19.51207      49.6708         7     0.743     0.653 -80.78   0
       194    407.4390    316.7427 300.2130786 +22.6000988     248.9594     69.15976      1.050     2.47    -9.779181     19.51207      41.8822         5     0.689     0.474 -72.76   0
       195    183.2689    317.2695 300.1432107 +22.5330382     238.1654     69.21259      1.616     4.38    -9.988221     19.51207     30.98838         5     0.754     0.724 -78.79   0
       196    719.0773    310.8140 300.3120089 +22.6917823     992.2288     69.17738      1.246     2.43    -9.851446     19.51207     140.2557        12     0.910     0.734  49.11   0
       197    934.8696    303.2479 300.3817135 +22.7542372     351.7432     69.14214      1.360     4.10     -9.93338     19.51207     50.22145         6     1.042     0.460 -26.60   0
       198    381.3284    295.6028 300.2118210 +22.5862016     974.5186      69.1069      1.291     2.46    -9.709177     19.51207     156.2919        15     1.093     0.775  76.58   0
       199    456.9995    274.7495 300.2421310 +22.6028939     652.0789     69.12452      1.456     3.39     -9.72853     19.51207     74.50053        11     1.045     0.731  74.49   0
       200    701.6703    266.7786 300.3208846 +22.6739139     1097.992     69.17738      1.244     2.23      -9.7955     19.51207     170.9825        15     1.058     0.789  46.41   0
       201    962.9494    260.9579 300.4041997 +22.7504854     1511.068     69.17738      1.171     1.98    -9.859698     19.51207     286.8702        16     0.968     0.762  62.07   0
       202    410.3583    250.4724 300.2355021 +22.5819427     356.0754     69.14214      1.477     2.63    -9.673563     19.51207      51.0202         6     0.796     0.524 -47.00   0
       203     85.0155    244.9458 300.1361632 +22.4828151     756.8101     69.15976      1.609     4.21    -9.846251     19.51207     73.83236        14     1.252     0.796 -55.28   0
       204    115.5677    244.9966 300.1456378 +22.4919921      294.626     69.14214      1.395     2.27    -9.808823     19.51207     41.17699         6     0.756     0.495  88.48   0
       205    169.0710    237.0630 300.1648368 +22.5057589     330.3401     69.19498      1.309     2.46    -9.662471     19.51207     38.94685         5     0.612     0.585 -81.89   0
       206    773.0684    227.9741 300.3557231 +22.6841461     290.0898     69.14214      1.189     2.40    -9.674601     19.51207     49.75441         6     0.728     0.646   3.93   0
       207    871.6290    217.2728 300.3899112 +22.7105836     950.6506     69.15976      1.167     2.38    -9.579434     19.51207     145.6314        15     1.050     0.781  59.31   0
       208    290.2890    214.6362 300.2097937 +22.5356621     1040.605     69.14214      1.284     2.48    -9.316321     19.51207     154.0302        16     1.146     0.863 -61.14   0
       209    368.2099    209.4709 300.2357006 +22.5575347     562.4413     69.14214      1.653     3.44    -9.428048     19.51207       60.435         9     1.011     0.631 -42.57   0
       210    770.0094    208.7117 300.3610224 +22.6776931     258.1528     69.08926      1.252     2.34    -9.614838     19.51207     57.79146         6     0.792     0.590 -39.34   0
       211    119.6773    209.8129 300.1583340 +22.4831258     187.0187     69.17738      1.161     3.63    -9.664715     19.51207     30.84312         5     0.987     0.384  -4.20   0
       212    876.7728    205.5542 300.3953182 +22.7087544     216.2247     69.19498      1.043     2.72    -9.561803     19.51207     36.44909         5     0.717     0.447  22.71   0
       213    184.9813    201.9979 300.1811617 +22.5004631     451.9154     69.08926      1.275     2.04    -9.474335     19.51207     71.60355         7     0.786     0.532  46.44   0
       214    722.6555    198.4924 300.3495872 +22.6605740     754.0085     69.21259      1.257     2.97    -9.615304     19.51207     109.7627        15     1.073     0.908  38.11   0
       215    206.3794    195.1656 300.1900292 +22.5049170     211.7841     69.17738      1.295     3.22    -9.355366     19.51207     36.11133         5     0.730     0.457  73.35   0
       216    994.0914    190.9963 300.4366213 +22.7396891     312.3705     69.07162      1.097     2.20    -9.611952     19.51207     74.23004         8     0.763     0.639  61.11   0
       217    787.5785    198.1333 300.3699299 +22.6799136     237.4748     69.14214      1.255     2.74    -9.541692     19.51207     43.21001         5     0.718     0.461 -71.38   0
       218    647.1171    189.3907 300.3290151 +22.6353333     509.4081      69.1069      1.146     2.65    -9.493296     19.51207     75.22121         9     0.906     0.593  48.24   0
       219    842.6812    180.5774 300.3927989 +22.6913659     742.2024     69.12452      1.124     2.34    -9.478841     19.51207     107.6379        10     0.806     0.740  71.00   0
       220    573.3909    181.1270 300.3087426 +22.6108736     395.8999     69.14214      1.237     3.58    -9.334118     19.51207     59.65075         9     0.999     0.598  30.09   0
       221    854.3471    179.8976 300.3966554 +22.6946633     363.4301     69.24778      1.206     2.30    -9.476464     19.51207     51.71107         7     0.712     0.626 -85.24   0
       222   1015.5135    170.6810 300.4498957 +22.7402579     841.4715     69.30054      1.195     2.21     -9.54274     19.51207     117.5082        12     0.993     0.711 -77.98   0
       223    971.4279    170.0544 300.4363504 +22.7268824     440.7405     69.15976      1.034     2.04    -9.539279     19.51207     90.21977         8     0.727     0.655 -10.29   0
       224    205.6542    163.2994 300.2001446 +22.4955503     400.4687     69.24778      1.531     4.79    -9.249798     19.51207     38.43723         7     0.975     0.668  -7.36   0
       225     67.3904    158.3468 300.1587925 +22.4526743     1097.675     69.15976      1.329     2.36    -9.444328     19.51207     123.7167        16     1.030     0.852 -72.63   0
       226    890.3250    154.9411 300.4159687 +22.6982584     297.1107     69.21259      1.364     2.23    -9.427762     19.51207     58.49157         7     0.796     0.558  56.33   0
       227    224.8302    151.7484 300.2098528 +22.4979821     2722.182     69.19498      1.331     2.32    -9.083591     19.51207     393.2973        24     1.101     0.958  84.97   0
       228      8.9680    146.1921 300.1445919 +22.4316664     646.7237     69.15976      1.280     2.53    -9.415556     19.51207      90.8427         9     0.907     0.600  52.57   0
       229    208.1810    142.3583 300.2077247 +22.4902950     185.9948     69.17738      1.115     3.14    -9.081313     19.51207     40.39323         5     0.719     0.464  12.82   0
       230   1023.2731    138.8179 300.4626559 +22.7334151     7739.433     55.89042      1.093     2.22    -8.986904     19.51207     1383.348        23     1.050     0.739  85.46  24
       231    868.7783    132.8838 300.4164098 +22.6854653     1788.959     69.12452      1.276     2.18    -9.304507     19.51207     259.5079        18     0.962     0.903 -21.21   0
       232    972.3811    131.6049 300.4491247 +22.7161091     1380.409     69.12452      1.120     2.17    -9.079741     19.51207     188.5603        15     0.925     0.753  82.08   0
       233    342.8348    120.3381 300.2567322 +22.5243294     291.6715     69.17738      1.252     1.87    -8.892278     19.51207     53.33957         5     0.685     0.443 -18.55   0
       234    109.0665    117.0035 300.1851523 +22.4533019     375.0971     69.14214      1.382     4.61    -9.311994     19.51207     50.58393         6     0.989     0.652 -17.39   0
       235    469.7824    115.6729 300.2977356 +22.5610270     751.2269     69.15976      1.334     2.62    -9.142203     19.51207     98.65035        11     0.880     0.780  60.91   0
       236    213.0249    111.3083 300.2193040 +22.4828309     308.8848      69.1069      1.510     5.54    -8.799459     19.51207     27.92725         6     1.099     0.787 -87.82   0
       237    243.7882     95.5314 300.2339843 +22.4875208     2857.406     69.17738      1.270     2.37    -8.659791     19.51207     407.9191        22     1.069     0.899  70.36   0
       238     95.0944     94.8268 300.1880059 +22.4427462     405.8406     69.08926      1.495     3.97    -9.276962     19.51207     38.83172         6     0.788     0.573 -39.35   0
       239      5.5377     85.8040 300.1631171 +22.4133046     344.0025     69.15976      1.799     3.45    -9.348629     19.51207     34.07314         5     0.742     0.466  72.08   0
       240    489.7791     80.8489 300.3152553 +22.5570113     3051.881     69.15976      1.310     2.31    -9.105982     19.51207      417.493        24     1.036     0.968  56.63   0
       241    375.4297     80.4811 300.2797995 +22.5226471     299.5886     69.17738      1.133     4.21    -9.012012     19.51207     45.27262         7     0.879     0.655 -71.68   0
       242    547.2109     75.8071 300.3347651 +22.5727656     232.9103     69.03634      1.233     3.44    -8.882528     19.51207     22.74976         5     0.986     0.347  45.23   0
       243    834.7993     69.3268 300.4264393 +22.6570164     279.8272     69.05399      1.283     3.05    -8.905967     19.51207     44.24256         6     0.910     0.627  82.75   0
       244    742.5175     70.4034 300.3973359 +22.6296993     294.5807     69.08926      1.056     3.60    -8.841153     19.51207     50.20463         6     0.958     0.391  19.85   0
       245    618.1160     60.7531 300.3617220 +22.5896746      3108.59     69.14214      1.303     2.40    -8.720889     19.51207     420.4133        24     1.059     0.980  81.47   0
       246    392.8951     59.9585 300.2918888 +22.5219840     608.1963     69.17738      1.263     2.83    -9.123565     19.51207      97.5444        12     0.939     0.824  58.86   0
       247    659.2096     58.0603 300.3753915 +22.6012063     496.0181     69.12452      1.398     3.27     -8.73405     19.51207     58.00253         9     0.998     0.638  79.35   0
       248    675.1474     53.5908 300.3818048 +22.6046938     266.9211     69.15976      1.435     3.50    -8.722216     19.51207     33.89043         5     1.014     0.349  86.18   0
       249    142.1397     52.5270 300.2163424 +22.4447039     264.7519     69.19498      1.343     3.71    -8.676213     19.51207     43.34763         6     1.015     0.434  61.77   0
       250    713.7606     49.4552 300.3951728 +22.6150664     262.9809     69.15976      1.281     4.34    -8.694385     19.51207     35.84866         6     0.944     0.575 -62.24   0
       251    662.3015     45.7488 300.3803477 +22.5985928     1338.913     69.24778      1.316     2.55    -8.659209     19.51207     180.4898        19     0.990     0.960  47.57   0
       252    677.1483     44.2444 300.3854594 +22.6026059     444.6226     69.19498      1.472     5.18    -8.660966     19.51207     49.08788        12     1.314     0.711  49.62   0
       253    748.6957     37.0520 300.4100786 +22.6219593     690.2646     69.23019      1.212     2.35    -8.633478     19.51207     107.0679        12     0.866     0.817 -25.08   0
       254    686.9434     30.4395 300.3929876 +22.6015697     287.1197     69.15976      1.044     2.84    -8.574812     19.51207     53.32886         7     0.831     0.640  66.19   0
       255    492.2968     29.6738 300.3326377 +22.5430591     542.0325     69.28296      1.495     3.38    -9.018809     19.51207     51.68307        10     0.980     0.745  20.78   0
       256     65.2376     29.7250 300.1998465 +22.4151041     235.0116      69.1069      1.210     4.51    -8.933096     19.51207     45.12847         7     1.004     0.773  26.23   0
       257    396.2705     27.9172 300.3033309 +22.5137892     371.3674     69.28296      1.316     3.31    -9.230307     19.51207     51.91545         5     0.774     0.411 -75.20   0
       258    167.6185     18.1085 300.2354218 +22.4424565     1678.822     69.08926      1.231     2.44    -8.288147     19.51207     241.4655        17     0.987     0.865  67.15   0
       259    735.8121     18.0769 300.4122191 +22.6126460     401.7221     69.17738      1.510     5.00    -8.497187     19.51207     39.21241         8     1.169     0.606 -24.83   0
       260    198.1970   1020.8511 299.9190661 +22.7392949     548.2861     66.29971      3.525     5.09     25.25321     19.51207     29.91572         5     1.162     0.632 -20.48  16
       261    170.3281   1014.5509 299.9124585 +22.7291197      1495.93     69.14214      5.925     9.53     23.70161     19.51207     49.97839        21     2.198     1.153  32.23  26
