#   1 NUMBER                 Running object number                                     
#   2 X_IMAGE                Object position along x                                    [pixel]
#   3 Y_IMAGE                Object position along y                                    [pixel]
#   4 ALPHA_J2000            Right ascension of barycenter (J2000)                      [deg]
#   5 DELTA_J2000            Declination of barycenter (J2000)                          [deg]
#   6 FLUX_APER              Flux vector within fixed circular aperture(s)              [count]
#   7 FLUXERR_APER           RMS error vector for aperture flux(es)                     [count]
#   8 FLUX_RADIUS            Fraction-of-light radii                                    [pixel]
#   9 FWHM_IMAGE             FWHM assuming a gaussian core                              [pixel]
#  10 BACKGROUND             Background at centroid position                            [count]
#  11 THRESHOLD              Detection threshold above background                       [count]
#  12 FLUX_MAX               Peak flux above background                                 [count]
#  13 ISOAREA_IMAGE          Isophotal area above Analysis threshold                    [pixel**2]
#  14 A_IMAGE                Profile RMS along major axis                               [pixel]
#  15 B_IMAGE                Profile RMS along minor axis                               [pixel]
#  16 THETA_IMAGE            Position angle (CCW/x)                                     [deg]
#  17 FLAGS                  Extraction flags                                          
         1    682.1471     15.8097 300.3929000 +22.6016676      235.998     69.41788      1.162     4.16    -7.799555      19.5849     45.94114         8     1.105     0.538  88.42   0
         2    487.5344     14.9034 300.3326010 +22.5431185     689.2586      69.5239      1.573     3.37    -8.612448      19.5849     89.14162        11     1.064     0.731 -31.68   0
         3    391.7547     12.9941 300.3034179 +22.5138746     415.5573     69.41788      1.244     3.71    -8.881238      19.5849      60.0362         9     1.075     0.673 -53.81   0
         4    162.9358      3.1055 300.2354770 +22.4424599     1766.076     62.74995      1.302     2.46    -8.631924      19.5849     237.8579        18     0.991     0.881  69.11  24
         5    123.9132   1005.9001 299.8974428 +22.7183605     887.1274     69.57684      3.184     8.25     26.20337      19.5849     33.52442        16     1.696     1.121 -35.48   0
         6     55.4876    962.9910 299.8901619 +22.6855127     2121.541     69.34712     26.796    64.90    -1.298146      19.5849     62.80827       637    16.761     6.973  76.01  19
         7    231.9530    973.9457 299.9414210 +22.7416567      3966.16     69.45324      7.491    31.29     8.708797      19.5849     95.15121       315     8.214     3.490  61.05  18
         8    539.2195    990.5809 300.0315703 +22.8386783     1179.836     69.41788      1.243     2.28    -13.07184      19.5849     166.3572        14     0.886     0.849 -74.12   0
         9    625.6763    985.7936 300.0600428 +22.8632532       4139.9     69.34712      1.253     2.01    -12.95868      19.5849     611.8099        31     1.131     1.060 -49.22   3
        10    631.2816    983.5063 300.0625330 +22.8642793      4516.65      69.5592      1.232     2.08    -12.93982      19.5849      605.743        32     1.085     1.030 -82.35   3
        11    725.8354    986.5316 300.0909941 +22.8935191     320.5451     69.41788      1.164     2.07    -12.95833      19.5849     69.24155         5     0.682     0.470  19.80   0
        12    165.4809   1001.2917 299.9118583 +22.7295270     1294.487     69.54155      4.970     7.34     24.16955      19.5849     39.34506        13     1.951     0.773  52.31   3
        13    159.4771    973.9542 299.9188955 +22.7198913     1067.965     69.40021      4.976     5.59     14.03717      19.5849     35.96333        10     1.128     0.782 -80.65   0
        14    160.5431    997.3134 299.9116197 +22.7269039     1220.703     69.50624      7.269    11.34     22.72235      19.5849     42.45171        29     2.260     1.584 -28.81   3
        15    918.3601    969.3486 300.1565852 +22.9463406     234.9663     69.41788      1.217     2.86    -12.80778      19.5849      48.3899         6     0.713     0.651 -37.87   0
        16     67.4823    918.0262 299.9085270 +22.6762349     1994.291     69.40021     26.113    42.93    -7.650576      19.5849     57.25269       357     7.377     6.935 -33.99   3
        17    154.7680    965.9790 299.9200293 +22.7161919     613.6389     69.41788      2.454     2.90     10.99663      19.5849     36.71556         5     0.784     0.487 -37.23   0
        18    346.9523    997.6788 299.9694442 +22.7829923     280.1367     69.41788      1.448     4.76    -12.93142      19.5849     38.89753         6     0.941     0.683 -64.71   0
        19    220.2906    965.8232 299.9404412 +22.7358267     1747.252     69.34712      8.169    12.27     7.955043      19.5849     44.58318        38     2.506     1.920 -31.01   3
        20     72.0020    949.9252 299.8995453 +22.6867310     2755.155     69.32942     28.547    82.92    -0.546903      19.5849     79.86278      1293    22.830     8.356  78.07  19
        21    201.2658    992.0964 299.9259729 +22.7376411     1103.591      69.5239      8.296    13.33     19.83921      19.5849     53.41223        27     3.075     1.606  50.86   3
        22    124.7310    956.2076 299.9138790 +22.7043701     704.4374     69.40021      7.046     6.56     7.016379      19.5849     34.11649        10     1.795     0.673   5.38   1
        23    135.5486    954.9507 299.9176489 +22.7072593     870.6633     69.45324      4.568     5.94     6.706645      19.5849     35.48536        10     1.205     0.824 -10.00   0
        24    643.9939    952.9527 300.0764414 +22.8593308     3332.583     69.40021      1.279     2.14    -12.59315      19.5849     537.0468        26     1.066     0.968  20.43   0
        25    197.7798    980.6821 299.9286067 +22.7333235     1201.145     69.38251      5.348     5.35     15.33877      19.5849     65.82832         9     1.407     0.659  -6.35   3
        26     90.6837    931.2763 299.9114198 +22.6870002      1127.92      69.5239      6.036     5.07     -3.59963      19.5849     33.71706         5     1.106     0.658  62.07   3
        27    192.2104    987.0474 299.9248031 +22.7334746     1936.856     69.43557      9.098    12.43      18.0151      19.5849      54.4413        54     2.736     2.414 -21.72   3
        28    211.4264    984.2542 299.9316845 +22.7384458     2477.282     69.45324     12.632    28.17     16.15418      19.5849     60.48553       191     5.128     4.296 -32.63   3
        29    235.0066    947.2292 299.9510696 +22.7349178    -29.01038     69.41788      1.132     2.52    -2.478894      19.5849      44.1345         7     0.729     0.649  -5.32   0
        30     94.6532    946.7708 299.9076081 +22.6926316     1018.422     69.43557      6.591     5.58      2.95745      19.5849     33.42298         5     1.233     0.711  15.45   0
        31     73.6571   1019.7155 299.8773326 +22.7072195     4708.661     69.31171     14.184    43.96     20.07099      19.5849     102.5007       664     9.567     8.013 -46.39  27
        32    552.4889    943.5762 300.0510077 +22.8291820     660.3832     69.34713      1.112     2.67    -12.54036      19.5849     103.5504        12     0.894     0.853  40.76   0
        33    166.2579    992.3465 299.9150129 +22.7271976     1297.674     69.47092      9.915    15.04     20.71116      19.5849     41.82388        34     2.742     2.293  82.56   3
        34    446.2632    939.9660 300.0191277 +22.7962637     613.6702     69.41788      1.170     1.95    -12.58478      19.5849     95.09988         8     0.754     0.611  50.63   0
        35    376.9579    938.1782 299.9981516 +22.7749460     3234.534     69.45324      1.242     1.95    -12.54518      19.5849     541.9753        23     0.998     0.928 -41.99   0
        36    103.9345    937.0000 299.9136724 +22.6926203     1491.005     69.40021     11.359    11.44   -0.4818785      19.5849     41.31984        19     2.590     1.406  52.48   2
        37    923.1535    916.8273 300.1751830 +22.9327042     1059.295     69.45324      1.207     2.13    -12.41572      19.5849     174.9613        15     1.009     0.778 -43.57   0
        38    409.3322    925.2993 300.0124145 +22.7809727     255.6731     69.50624      1.180     4.27    -12.50279      19.5849      43.3056         7     1.020     0.520 -61.64   0
        39     96.3439   1016.3817 299.8854650 +22.7130806     3462.168     69.40021      6.937    27.19     29.66343      19.5849     76.35358       246     5.772     3.555  -3.96  19
        40    712.2654    906.2122 300.1129224 +22.8664061     288.1247     69.36482      1.563     4.55    -12.08706      19.5849     47.74756         8     1.554     0.379  56.51   0
        41    746.7639    899.9488 300.1257079 +22.8749579     482.1206     69.43557      1.028     2.18    -12.06094      19.5849     108.5843         9     0.923     0.558 -88.19   0
        42    769.0734    893.5738 300.1347337 +22.8798206     5535.811     69.41788      1.169     1.90    -12.02001      19.5849     938.2318        29     1.011     0.960 -35.49   0
        43    221.8646    999.4803 299.9299699 +22.7459436     304.6104      69.5239      1.549     3.88     22.40279      19.5849     56.18405        10     1.222     0.755  22.58   0
        44    474.3609    881.8085 300.0468043 +22.7880211     227.4887     69.43557      1.435     4.58    -12.28529      19.5849     36.60555         6     1.052     0.566  20.17   0
        45    777.7655    875.6393 300.1432806 +22.8772814     658.4506     69.45324      1.130     2.05    -11.88075      19.5849     106.5084         9     0.766     0.647 -62.31   0
        46    960.4399    874.3039 300.2006535 +22.9316779     186.8181     69.40021      0.934     3.24    -12.41537      19.5849     43.73027         5     0.730     0.444  67.39   0
        47    815.5133    869.2551 300.1571208 +22.8867706     468.9612     69.47091      1.163     2.88    -11.88135      19.5849     70.35352         8     0.899     0.697 -60.01   0
        48    154.4235    868.9907 299.9514977 +22.6882970     250.0163     69.41788      1.496     4.74    -9.675299      19.5849     25.43031         5     0.993     0.641   0.39   0
        49    863.8284    860.6101 300.1749926 +22.8987785     261.0206     69.41788      1.349     3.54    -12.01559      19.5849      46.7703         5     1.078     0.480  -5.13   0
        50    715.3570    859.0912 300.1292257 +22.8538136     299.3017     69.41788      1.150     3.75     -11.7432      19.5849     54.61543         6     0.868     0.552  46.40   0
        51    428.1190    855.9561 300.0408329 +22.7667291     2117.547     69.40021      1.226     1.91    -12.14745      19.5849     373.0273        22     0.971     0.958  27.01   0
        52    726.6986    856.5629 300.1335815 +22.8564901     226.2575     69.41788      0.886     2.20     -11.7615      19.5849      50.9887         5     0.668     0.471  19.07   0
        53    153.4499    841.6459 299.9600953 +22.6801680     473.8392     69.43557      1.615     3.86    -10.46337      19.5849     40.85002         9     0.900     0.743  69.76   0
        54    130.4345    838.8208 299.9538639 +22.6724470     807.8243     69.43557      1.232     2.33    -10.65727      19.5849     115.0123        12     0.883     0.859  -9.42   0
        55   1002.0269    827.4596 300.2288712 +22.9306960     1048.567     69.41788      1.125     1.99    -12.02351      19.5849     180.7839        12     0.852     0.702 -72.29   0
        56    956.4410    825.9529 300.2151459 +22.9165978     1034.952     69.47091      1.201     2.09    -11.97034      19.5849      154.375        14     0.939     0.816  56.07   0
        57    661.0950    826.9052 300.1228024 +22.8283016     293.2622     69.57684      1.859     3.72    -11.62453      19.5849     34.52543         5     1.071     0.371 -35.42   0
        58    740.0710    820.1390 300.1496028 +22.8500488     379.0579     69.45324      1.415     3.38    -11.71279      19.5849     50.26389         9     1.031     0.727  45.94   0
        59    162.5953    820.1012 299.9699486 +22.6767393     157.7881     69.31171      1.203     3.42      -10.771      19.5849     37.86929         5     0.745     0.455 -71.82   0
        60    608.0961    813.9349 300.1105212 +22.8086814     2315.774      69.5239      1.139     1.87      -11.648      19.5849      477.294        18     0.881     0.827 -46.05   0
        61    410.4105    810.8543 300.0500032 +22.7484806     274.0706     69.41788      0.972     2.00     -11.7082      19.5849     53.62276         5     0.674     0.462 -69.85   0
        62    158.2864    807.9194 299.9725739 +22.6719540     578.9647      69.5592      1.197     2.12    -10.94966      19.5849     106.3779         9     0.811     0.656  25.06   0
        63    628.6179    806.2783 300.1194025 +22.8126410     344.5801     69.41788      1.091     2.35    -11.60877      19.5849     57.11739         7     0.761     0.587  62.76   0
        64   1000.8934    793.8748 300.2394486 +22.9207125      552.376      69.5592      1.358     4.12    -11.70886      19.5849     74.32578        11     1.172     0.705 -77.31   0
        65    784.1314    793.6453 300.1719523 +22.8556589     2066.598     69.40021      1.106     1.79    -11.66826      19.5849     396.3817        16     0.889     0.785  82.13   0
        66    501.3328    786.3740 300.0862584 +22.7687434     316.2289     69.40021      0.997     2.61    -11.52644      19.5849     56.94699         6     0.846     0.468  85.68   0
        67    147.4541    784.1635 299.9769382 +22.6618925     371.6699     69.43557      1.143     2.23    -11.10369      19.5849     64.59658         7     0.788     0.573  14.90   0
        68    297.2043    776.3787 300.0260155 +22.7046171     26193.35     69.38251      1.189     1.95    -11.31346      19.5849     4143.492        62     1.138     1.106 -72.00   0
        69    554.9736    775.2836 300.1065620 +22.7816556     796.0568     69.40021      1.086     2.04    -11.43233      19.5849     157.0508        13     0.884     0.812  68.16   0
        70    967.9906    774.3121 300.2355540 +22.9052325     233.0896     69.34712      1.159     2.90    -11.67812      19.5849     54.94969         9     0.917     0.645  53.35   0
        71    584.0314    771.0678 300.1169792 +22.7891634     435.6696     69.41788      1.154     2.13    -11.38678      19.5849     85.63237         8     0.744     0.650  64.16   0
        72    594.7604    769.4387 300.1208494 +22.7919145     247.0746     69.48858      1.028     2.76    -11.36597      19.5849     55.89635         5     0.799     0.536  57.86   0
        73    346.8847    753.6100 300.0488718 +22.7129992     15356.32     69.38251      1.170     1.94    -11.10912      19.5849     2618.353        47     1.098     1.002 -87.91   0
        74    737.7596    756.0081 300.1697526 +22.8309502     375.1636     69.43557      1.250     2.00    -11.28243      19.5849     68.30468         7     0.696     0.634 -63.20   0
        75    361.1898    754.1661 300.0531398 +22.7174519     997.2304     69.40021      1.200     1.96    -11.10618      19.5849     177.4344        14     1.038     0.825  54.02   0
        76    869.8018    749.2894 300.2130844 +22.8686132     1401.396     69.32942      1.146     1.88    -11.37366      19.5849      247.544        12     0.821     0.753 -39.61   0
        77    627.8100    745.3645 300.1389724 +22.7949203     537.2017     69.41788      1.132     2.15    -11.17017      19.5849      85.2894         8     0.796     0.649 -76.31   0
        78    464.5174    745.3099 300.0881639 +22.7459179     173.5594      69.5239      0.883     3.44    -11.17641      19.5849     33.62027         5     0.742     0.460 -70.50   0
        79    229.0775    745.1040 300.0150123 +22.6752003     390.5192     69.54155      1.248     3.32    -11.24437      19.5849     51.91355         8     0.826     0.734 -27.68   0
        80    475.0849    740.4317 300.0930391 +22.7476892     442.1266     69.41788      1.095     2.70    -11.14591      19.5849     66.52616         7     0.886     0.484  -8.27   0
        81     62.5849    734.7542 299.9666482 +22.6222476     284.2285     69.43557      1.288     3.32    -11.20923      19.5849     39.48735         5     0.738     0.443  68.65   0
        82    853.8789    731.4093 300.2139390 +22.8587061     216.0836     69.38251      1.040     3.13    -11.27355      19.5849     42.66117         5     0.982     0.499 -37.69   0
        83    226.9568    729.6487 300.0193811 +22.6701325     340.2177     69.45324      1.229     3.36    -11.22035      19.5849     52.02924         6     0.962     0.432 -13.62   0
        84    550.1201    720.1837 300.1229785 +22.7643911     254.2035     69.43557      1.030     2.17    -11.05785      19.5849     57.40319         5     0.725     0.483 -51.49   0
        85    519.8639    718.2907 300.1141772 +22.7547716     296.6867     69.50624      1.046     2.48    -11.05981      19.5849     53.61719         6     0.741     0.527 -42.40   0
        86    541.9144    715.8765 300.1218256 +22.7606937     695.6785      69.5239      1.191     1.89    -11.04381      19.5849     129.4292        12     0.995     0.649 -73.80   0
        87    936.3116    714.5598 300.2451182 +22.8785784     2186.232     69.40021      1.056     1.88    -11.40217      19.5849      391.561        17     0.904     0.863  -0.42   0
        88    924.7377    706.0344 300.2442831 +22.8726611     808.8627     69.41788      1.162     1.98    -11.30461      19.5849     155.0708        10     0.790     0.705 -17.15   0
        89    287.7979    699.9153 300.0479666 +22.6798679     391.2869     69.34712      1.070     2.15    -10.91128      19.5849     87.06107         8     0.717     0.689 -43.97   0
        90    750.9775    697.3700 300.1929477 +22.8180822     1125.337     69.40021      1.132     1.77    -11.03327      19.5849     220.2229        14     0.826     0.774  15.24   0
        91    955.9407    696.1396 300.2572312 +22.8791718     770.2014     69.48858      1.115     1.90    -11.24393      19.5849     152.0899        10     0.769     0.696  87.65   0
        92    136.5426    683.7784 300.0062043 +22.6298403     311.4109     69.43557      1.076     2.91    -11.08593      19.5849     46.15857         5     0.722     0.455  68.69   0
        93    833.4034    682.9102 300.2233352 +22.8386429     284.4501     69.32942      1.433     4.62    -10.95342      19.5849      37.5164         7     0.984     0.638  40.28   0
        94    869.5297    674.2546 300.2374105 +22.8469869     72175.92     69.45324      1.102     1.83    -10.89038      19.5849     11827.89       108     1.186     1.134 -84.86   0
        95   1016.4651    675.9611 300.2826705 +22.8915145     634.4693     69.40021      1.160     2.13    -11.06563      19.5849     108.9242         8     0.718     0.677 -36.70   0
        96    721.8676    674.7731 300.1912298 +22.8028671     351.1405     69.40021      1.093     2.09    -10.95562      19.5849      72.2327         6     0.711     0.538  53.04   0
        97    555.8768    663.2491 300.1432901 +22.7497807     895.4105     69.41788      1.151     2.20    -10.77472      19.5849     154.3615        10     0.838     0.657 -87.01   0
        98    737.0211    660.4234 300.2006177 +22.8032913     4551.517     69.41788      1.096     1.72     -10.7527      19.5849     826.5449        27     0.976     0.895  80.58   0
        99    238.5649    655.7135 300.0470376 +22.6524162     2444.042     69.40021      1.185     2.07     -10.8162      19.5849     346.6368        22     1.026     0.887  83.70   0
       100    320.5702    653.6079 300.0732179 +22.6764218      693.288     69.41788      1.313     2.69    -10.48902      19.5849     96.50769        10     0.900     0.757  35.33   0
       101    528.8084    648.8909 300.1395346 +22.7375416     413.8462     69.32942      1.286     2.30    -10.66429      19.5849     67.30132         6     0.715     0.574 -84.07   0
       102    520.5266    641.4974 300.1393615 +22.7329359     1630.356     69.54155      1.100     2.06    -10.59508      19.5849     237.8363        17     0.936     0.843  87.91   0
       103    510.8682    635.2109 300.1384000 +22.7282349     683.2185     69.41788      1.170     1.77    -10.54355      19.5849     141.0772        12     1.002     0.639  89.23   0
       104    173.9996    631.0966 300.0349759 +22.6259790     325.4194     69.29401      1.323     3.56     -10.8279      19.5849     47.81276         5     0.634     0.602  89.94   0
       105    188.4024    629.8404 300.0398604 +22.6299416     323.6177     69.41788      0.936     1.95    -10.77143      19.5849     69.86409         6     0.716     0.490  89.22   0
       106    244.7181    626.8539 300.0583353 +22.6459864     247.3394     69.45324      1.387     3.00    -10.55264      19.5849     42.24191         5     0.762     0.419  75.02   0
       107    213.9617    626.4820 300.0488961 +22.6366495     264.5266     69.38251      1.056     3.70    -10.64209      19.5849     36.96349         6     0.795     0.496  -5.79   0
       108    534.6238    625.1727 300.1490580 +22.7324794      206.334     69.40021      1.160     3.33    -10.44022      19.5849     40.23496         7     0.826     0.628  61.57   0
       109    435.4999    624.7513 300.1183493 +22.7026258     877.5472     69.45324      1.204     2.10    -10.43105      19.5849     149.5859        11     0.815     0.749 -47.48   0
       110   1011.1016    621.9116 300.2985772 +22.8743810     315.0707     69.57684      0.776     1.66    -10.59398      19.5849     86.44475         5     0.577     0.525  80.79   0
       111     89.5471    619.8655 300.0123885 +22.5974091      9350.03     69.45324      1.265     2.13    -10.92756      19.5849     1333.007        39     1.122     1.033  56.02   0
       112     10.3770    621.6430 299.9872212 +22.5741510     451.2941     69.47092      1.347     3.95    -10.97636      19.5849     51.54405         9     1.043     0.640  56.23   0
       113    520.4525    620.1094 300.1462938 +22.7267761     511.0949     69.45324      1.100     2.17    -10.39763      19.5849     100.3765         8     0.824     0.600 -54.16   0
       114    938.4003    605.9865 300.2810841 +22.8480215     545.7532     69.25857      1.348     2.08    -10.46321      19.5849     83.93813         9     0.806     0.653  20.94   0
       115    805.5809    604.2804 300.2402376 +22.8077246     299.1788     69.41788      1.254     4.36    -9.970675      19.5849     40.17906         7     1.149     0.472 -49.96   0
       116     35.8056    603.9659 300.0008656 +22.5767179     790.1888     69.41788      1.739     4.12    -10.85877      19.5849     63.34498        15     1.278     0.899 -82.24   0
       117    101.5852    604.2468 300.0212064 +22.5965446     186.8893     69.43557      1.099     3.21    -10.83958      19.5849     33.24094         5     0.723     0.461 -71.74   0
       118    878.6800    598.9952 300.2647391 +22.8281163     335.3203     69.34712      1.077     1.94    -10.16321      19.5849     84.48116         6     0.727     0.574  46.90   0
       119    440.4091    593.3657 300.1300820 +22.6950931     313.2436     69.40021      1.121     2.78      -10.131      19.5849     50.34473         6     0.835     0.488  84.96   0
       120    484.6157    588.7795 300.1453283 +22.7070367     440.0318     69.40021      1.264     2.11    -9.986286      19.5849     84.78497         7     0.843     0.469 -79.44   0
       121    918.4718    584.1944 300.2819568 +22.8357900     1604.513     69.36482      1.140     1.95    -10.26398      19.5849     244.4105        15     0.905     0.767  83.48   0
       122    450.2790    584.4065 300.1360658 +22.6954828     830.6238     69.34713      1.093     2.15    -9.994808      19.5849     135.8698        13     0.884     0.760 -87.46   0
       123   1016.3586    582.4393 300.3130528 +22.8646159     232.8202     69.50624      1.011     2.38    -10.53579      19.5849     54.01636         5     0.666     0.478  16.75   0
       124     12.3040    578.1468 300.0019611 +22.5622607     2423.241     69.48858      1.291     2.22    -10.68413      19.5849     338.1629        24     1.042     0.970 -49.78   0
       125    313.7288    571.1366 300.0979068 +22.6507122     4472.242     69.45324      1.202     1.99    -10.13351      19.5849     740.5542        26     1.095     0.895  58.08   0
       126    436.2099    568.0850 300.1369950 +22.6865793      4377.81     69.36482      1.192     1.97    -9.845415      19.5849     796.9282        26     1.030     0.904  88.22   0
       127    847.7155    561.9072 300.2671465 +22.8081842     951.1882     69.59448      1.232     2.22    -9.961431      19.5849     156.9503        13     0.905     0.833  87.87   0
       128    932.3752    559.3923 300.2943558 +22.8328316     6229.219     69.41788      1.071     1.85    -10.14632      19.5849     1031.231        29     0.983     0.941  45.42   0
       129    496.6884    557.7120 300.1591858 +22.7017416     5669.181     69.57684      1.163     2.01     -9.50951      19.5849     946.8512        30     1.056     0.929  71.94   0
       130    224.2138    553.4064 300.0758412 +22.6187678     588.6287     69.31171      1.072     2.22    -10.08378      19.5849     113.6929        10     0.971     0.668 -13.52   0
       131    470.4546    550.7988 300.1532697 +22.6918898     274.1226     69.34712      1.290     2.63    -9.461458      19.5849     33.69542         5     0.715     0.453 -67.99   0
       132    428.4007    545.9205 300.1417709 +22.6778767      2131.32     69.31171      1.157     2.03    -9.633535      19.5849     331.7665        19     0.927     0.874  52.62   0
       133    771.2052    545.8766 300.2485154 +22.7806491     377.6054     69.32942      1.157     1.79    -9.764319      19.5849     84.70808         8     0.728     0.616  24.00   0
       134    406.8171    544.2117 300.1356118 +22.6709125     684.1946     69.38251      1.195     2.79    -9.719622      19.5849      96.3055        12     1.024     0.740  88.14   0
       135    160.8532    543.7437 300.0592904 +22.5969831     303.5345     69.47091      1.171     3.04    -10.25811      19.5849     51.50861         8     0.983     0.520  58.71   0
       136    848.2109    541.2723 300.2740095 +22.8024058      893.408     69.43557      1.389     2.39    -9.919091      19.5849     121.3485        13     0.988     0.728 -42.98   0
       137    728.7570    538.4921 300.2376913 +22.7658050     363.7312     69.41788      1.025     2.22    -9.745889      19.5849     69.99043         7     0.753     0.600  77.17   0
       138    545.0014    533.4376 300.1821138 +22.7092626       100195     69.43557      1.214     1.95    -9.295014      19.5849     16111.58       132     1.288     1.244 -43.82   0
       139    231.1416    533.5236 300.0844577 +22.6151434     1724.386     69.45324      1.260     2.15    -10.00642      19.5849     261.6065        17     0.939     0.878  74.68   0
       140    590.6650    526.4285 300.1986073 +22.7209426     2326.884     69.41788      0.902     3.76    -9.437839      19.5849     736.2535         9     0.873     0.466 -17.17   0
       141    435.5319    513.9719 300.1543746 +22.6708470     1349.734     69.40021      1.302     2.23    -9.433634      19.5849     199.6676        17     1.180     0.843 -86.63   0
       142    832.5120    499.8400 300.2825847 +22.7858004     789.5038     69.40021      1.088     2.50    -9.868803      19.5849       129.94         9     0.831     0.631 -82.55   0
       143    703.7028    497.5256 300.2432031 +22.7465311     1223.714     69.54155      1.127     2.07    -9.555854      19.5849     204.1004        13     0.835     0.773 -45.37   0
       144    490.9336    493.6534 300.1782173 +22.6816299     411.1201     69.45324      1.265     2.49    -9.239554      19.5849     60.19395         7     0.695     0.663  66.13   0
       145    961.0412    491.2791 300.3254364 +22.8218512     571.4294     69.40021      1.057     2.04    -9.728338      19.5849     120.2503        10     0.828     0.655  62.37   0
       146    832.8096    489.7249 300.2859652 +22.7829840     1232.666     69.40021      1.430     3.01    -9.868803      19.5849     193.9687        15     1.530     0.665  78.26   0
       147    946.9432    490.4593 300.3213067 +22.8173921     393.4965     69.48858      1.000     2.15    -9.754148      19.5849     58.88673         6     0.737     0.498   2.12   0
       148    586.0525    488.0891 300.2096328 +22.7085529     236.6641     69.43557      1.061     3.77    -9.261404      19.5849     45.83133         5     0.660     0.618 -85.08   0
       149    870.9619    484.9867 300.2993969 +22.7930550     2088.492     69.43557      1.174     1.83    -9.957559      19.5849     432.1505        16     0.886     0.828  72.73   0
       150    962.6013    475.3307 300.3311064 +22.8177359     304.2892     69.36482      1.046     3.06    -9.609918      19.5849     65.62608         6     0.839     0.550  29.04   0
       151    102.9188    475.4771 300.0634769 +22.5600187     451.9231      69.5239      1.286     3.25    -10.16194      19.5849     58.55582         7     0.923     0.494   5.46   0
       152    644.2932    455.3826 300.2383963 +22.7166213     397.8569     69.34713      1.258     2.79    -9.240988      19.5849     58.73549         7     0.775     0.625 -18.52   0
       153    959.2794    447.8443 300.3390034 +22.8088425      258.064     69.40021      1.128     2.72    -9.549206      19.5849      48.1456         6     0.728     0.570 -47.84   0
       154    705.3553    447.7606 300.2598911 +22.7327346     468.7986     69.48858      1.386     3.05    -9.407737      19.5849     65.59793        10     0.963     0.748  77.22   0
       155    862.4214    443.9175 300.3100818 +22.7786972     398.8138     69.38251      1.090     1.84    -9.688282      19.5849     84.10927         6     0.701     0.481  77.31   0
       156    846.4738    439.9139 300.3064119 +22.7727689     196.2845     69.54155      1.052     2.63    -9.629213      19.5849      44.1678         6     0.757     0.498  86.27   0
       157    590.9552    438.3017 300.2273387 +22.6957278     1558.605     69.41788      1.235     2.10    -9.237915      19.5849     247.6979        20     1.021     0.921  -2.03   0
       158    951.3769    437.0025 300.3400623 +22.8033598     236.0569     69.36482      1.098     2.86    -9.522218      19.5849     46.35773         6     0.792     0.613  46.79   0
       159    430.6193    425.1960 300.1816958 +22.6438937     210.7951     69.38251      1.253     3.43    -9.223204      19.5849     28.93559         5     0.751     0.453 -73.15   0
       160   1002.4928    417.3248 300.3623976 +22.8130154     546.6535     69.57684      1.046     2.16    -9.514511      19.5849     123.5021         9     0.900     0.663  -5.09   0
       161    874.3156    416.9849 300.3225409 +22.7745226     315.8307     69.38251      1.152     2.28    -9.479887      19.5849     56.49239         5     0.733     0.411 -69.05   0
       162    960.8440    416.0276 300.3498301 +22.8001680     451.4017     69.43557      1.163     1.97    -9.465852      19.5849      83.0846         7     0.777     0.520 -39.99   0
       163    701.8096    412.0645 300.2703855 +22.7214196      633.285     69.40021      1.302     3.27     -9.32097      19.5849     88.81728         9     0.874     0.749 -29.21   0
       164    205.5272    410.5001 300.1164740 +22.5721658     319.7772     69.57684      1.185     2.98    -9.453823      19.5849     47.01592         6     0.881     0.416  69.14   0
       165    267.8855    406.3147 300.1372183 +22.5896702     1686.273     69.54155      1.233     2.16    -9.329644      19.5849     254.1881        18     0.945     0.903 -83.72   0
       166   1000.9459    404.6104 300.3660463 +22.8088979     2078.501     69.41788      1.104     1.84    -9.512672      19.5849     394.4408        17     0.880     0.829 -88.24   0
       167    215.2016    401.1894 300.1225058 +22.5723965     3644.504     69.24084      1.229     2.07    -9.353425      19.5849     600.8245        26     1.067     0.918  76.63   0
       168    980.8461    395.5687 300.3627152 +22.8002792     954.2044     69.45324      1.199     2.34    -9.491175      19.5849     149.6821        13     0.918     0.769 -73.56   0
       169    355.9726    395.3504 300.1681719 +22.6129425     2326.706     69.43557      1.220     2.25    -9.150254      19.5849     346.5783        21     1.016     0.867  65.68   0
       170    600.1150    391.9702 300.2452441 +22.6851692     9079.537     69.41788      1.231     2.00    -9.214629      19.5849     1556.468        35     1.065     0.970  89.91   0
       171    616.6273    392.8154 300.2501108 +22.6903613     351.6704     69.43557      1.273     3.20    -9.246523      19.5849     45.52869         5     0.863     0.482  87.46   0
       172    933.6072    374.3827 300.3548673 +22.7800416     403.0414     69.36482      1.384     3.67    -9.450541      19.5849     58.41962         6     0.958     0.500 -35.97   0
       173    154.7538    372.1747 300.1131446 +22.5459385     1060.824     69.43557      1.261     2.13    -9.504799      19.5849     155.5017        11     0.888     0.692  63.35   0
       174    954.3196    361.7503 300.3654297 +22.7826146     494.1573     69.45324      1.036     1.99    -9.471742      19.5849     92.58519         7     0.681     0.605 -79.19   0
       175    540.7706    361.3608 300.2367129 +22.6585911     3203.546     69.40021      1.219     2.13    -8.847316      19.5849     455.7629        22     0.982     0.925  85.44   0
       176    255.4671    360.8989 300.1481106 +22.5729129     386.5912     69.50624      1.457     3.75    -9.079568      19.5849     47.74668         6     0.847     0.594 -52.14   0
       177    654.6984    351.7291 300.2753132 +22.6899711     330.1042      69.5592      1.328     3.87    -9.337278      19.5849     36.39494         5     0.947     0.453  44.46   0
       178    744.8703    350.3114 300.3038614 +22.7165841     647.5525     69.57684      1.248     2.46    -9.484179      19.5849     96.66389         9     0.920     0.630  78.43   0
       179    447.3471    347.6892 300.2120793 +22.6266591     3018.701     69.43557      1.214     2.17    -8.676903      19.5849     456.4593        23     1.034     0.950 -88.78   0
       180    936.5952    342.0982 300.3662865 +22.7716578     196.6684     69.31171      1.091     2.51    -9.463262      19.5849     49.44703         6     0.763     0.485  82.65   0
       181    839.3862    342.0177 300.3360081 +22.7425175     671.7531     69.38251      1.131     2.08    -9.470195      19.5849     120.7013        10     0.787     0.707   4.78   0
       182    334.7663    326.8433 300.1838290 +22.5869196     1335.929     69.47091      1.367     2.35    -9.001746      19.5849     195.2608        17     0.995     0.865  83.82   0
       183     53.4292    324.4705 300.0971586 +22.5018547     400.2077     69.41789      1.188     3.56    -9.647057      19.5849     63.42823        10     1.134     0.627 -26.10   0
       184    304.3135    316.4347 300.1777393 +22.5748003     14618.41     69.40021      1.250     2.28    -9.012695      19.5849     1913.664        51     1.174     1.080  75.55   0
       185    838.8708    313.7433 300.3450310 +22.7342381     741.8481     69.43557      1.332     2.47    -9.458216      19.5849     105.1812        10     0.883     0.662 -86.41   0
       186      1.3900    304.4555 300.0874959 +22.4805000     1342.191     54.32047      1.029     2.52    -9.633485      19.5849     286.1813        13     1.066     0.588  88.64  24
       187    754.2252    302.5509 300.3222884 +22.7056649     378.2147     69.43557      1.430     3.46    -9.475732      19.5849        48.78         7     0.895     0.659  46.92   0
       188    178.3276    302.8900 300.1429725 +22.5331296     151.5025     69.57684      1.113     3.39    -9.149722      19.5849     36.99449         5     0.784     0.425 -72.44   0
       189    714.6578    296.0858 300.3120611 +22.6919530      1012.87      69.5239      1.302     2.58    -9.464979      19.5849     128.0425        14     0.996     0.797 -64.75   0
       190    376.4895    280.8335 300.2117474 +22.5862212     1208.306     69.38251      1.494     2.67    -8.843804      19.5849     128.5721        18     1.133     0.919  73.95   0
       191    815.6115    273.4500 300.3508672 +22.7156915     372.8273     69.45324      1.301     4.58     -9.37606      19.5849     45.40951         8     1.310     0.455  81.86   0
       192    697.9953    271.3877 300.3148910 +22.6798648      168.004     69.29401      1.225     3.30    -9.371719      19.5849     42.24095         5     0.954     0.514  75.52   0
       193    452.2954    259.9501 300.2421120 +22.6029496     591.9973     69.48858      1.284     2.35    -8.723701      19.5849     89.85863         9     0.799     0.697  23.73   0
       194    697.1412    251.8126 300.3209810 +22.6739847     949.8917     69.40021      1.160     2.06     -9.28476      19.5849     194.4712        12     0.947     0.671  78.18   0
       195    958.3101    246.0884 300.4042379 +22.7505623     1591.835     69.57684      1.191     2.00    -9.436906      19.5849     259.7309        19     0.979     0.866  83.91   0
       196     80.3182    229.9874 300.1361889 +22.4828129     833.5471     69.40021      1.711     4.97    -9.151562      19.5849     63.42678        16     1.244     1.017  -9.47   0
       197    111.1336    229.8992 300.1457912 +22.4920302     295.8173     69.50624      1.326     3.62    -9.166312      19.5849     39.39704         8     0.930     0.718  68.12   0
       198    973.9406    226.8970 300.4153435 +22.7497247     231.1168     69.48858      1.155     2.67    -9.400777      19.5849     42.09383         6     0.741     0.559  47.49   0
       199    164.6111    221.8675 300.1650157 +22.5057636     227.6506     69.43557      1.432     3.52    -9.122675      19.5849     32.31794         5     0.835     0.427  70.91   0
       200    768.5997    213.0776 300.3558192 +22.6842598     374.3862     69.29401      1.300     3.66    -9.238873      19.5849     51.52852         6     0.803     0.490  88.56   0
       201    359.3691    213.3030 300.2283469 +22.5616994     183.1446     69.36482      1.077     3.42    -8.871187      19.5849     34.01746         5     0.756     0.448  72.96   0
       202    866.9351    202.3190 300.3899588 +22.7106180     1080.542      69.5239      1.180     2.29    -9.087752      19.5849     160.3327        15     0.916     0.827 -88.52   0
       203    285.5549    199.7639 300.2097866 +22.5356835     1072.851     69.45324      1.264     2.53    -8.849609      19.5849     139.4868        16     0.978     0.891  35.87   0
       204    363.3438    194.7298 300.2356122 +22.5575577     538.2573     69.43557      1.650     3.51    -8.778495      19.5849     71.82217        11     1.114     0.869 -42.35   0
       205    765.1896    194.1123 300.3609133 +22.6777878     353.6161     69.36482      1.340     2.20    -9.136206      19.5849     58.63747         8     0.771     0.635 -31.42   0
       206    180.4615    186.6404 300.1813764 +22.5004057      333.463     69.41788      1.106     2.65    -8.993883      19.5849     67.48027         7     0.833     0.612 -68.61   0
       207    718.0533    183.9265 300.3495341 +22.6607420     712.2467     69.43557      1.179     2.39    -9.029681      19.5849     120.1208        11     0.910     0.705  87.52   0
       208    782.6451    182.8978 300.3699928 +22.6797926     276.7978     69.43557      1.431     4.36    -9.042592      19.5849     43.03766         7     1.301     0.417  79.01   0
       209    989.3326    176.1084 300.4366317 +22.7397294     426.3197     69.54155      1.107     2.33     -9.07046      19.5849     68.26054         8     0.763     0.663 -55.64   0
       210    721.9589    175.4814 300.3534920 +22.6594848     394.3065     69.38251      0.951     2.33    -8.985508      19.5849     70.81374         6     0.755     0.499  -1.34   0
       211    642.6422    174.4786 300.3291123 +22.6354371     594.4567     69.40021      1.116     2.30    -8.711067      19.5849     94.16231        10     0.874     0.650 -86.34   0
       212    568.8911    166.2715 300.3088120 +22.6109835     374.6759     69.57684      1.204     2.68    -8.608523      19.5849     67.95737         9     0.845     0.673  68.13   0
       213    838.0044    165.8599 300.3927757 +22.6914739     807.1919     69.38251      1.230     2.47    -8.937402      19.5849     119.3807        12     0.915     0.756  54.77   0
       214    850.1852    165.0858 300.3968237 +22.6948988     358.3686     69.36482      1.314     2.32    -8.929473      19.5849     60.26862         7     0.818     0.555 -69.99   0
       215   1010.8370    155.8378 300.4499186 +22.7403376     770.1271     69.48858      1.217     2.04    -8.955377      19.5849     147.7852        14     0.943     0.834  53.37   0
       216    966.7196    155.0824 300.4364039 +22.7269137     438.5391      69.5592      1.098     1.99    -8.921469      19.5849     83.16528         7     0.668     0.627  89.31   0
       217    200.6754    148.5445 300.2000230 +22.4955310     304.8592     69.43557      1.244     3.82    -8.773447      19.5849     47.39177         6     0.894     0.468 -89.63   0
       218     62.8484    143.3396 300.1588849 +22.4527079     965.6748     69.47091      1.382     2.75    -8.697166      19.5849     137.4843        18     1.149     0.903 -69.21   0
       219    885.5472    140.1357 300.4159449 +22.6983141     424.7969     69.45324      1.175     2.01     -8.80646      19.5849      61.4709         6     0.710     0.497  88.10   0
       220     12.2556    139.8297 300.1443095 +22.4365271     218.5278     69.41788      1.188     3.18    -8.716912      19.5849     42.11834         5     0.742     0.683  63.23   0
       221    220.0658    136.7104 300.2098905 +22.4979471     2601.286      69.5239      1.235     2.31    -8.667974      19.5849      383.703        19     0.976     0.888  76.68   0
       222      4.2804    131.1579 300.1446467 +22.4316467      614.579     66.93336      1.323     2.79    -8.725547      19.5849     76.92136        11     0.875     0.804  57.24  16
       223   1018.8607    123.8812 300.4627928 +22.7335487     8963.319     69.50624      1.260     2.07    -8.760453      19.5849     1504.304        35     1.103     0.977  80.91  16
       224    864.1468    118.0434 300.4164431 +22.6855548     1782.209     69.45324      1.266     2.00    -8.688403      19.5849     301.2623        19     1.006     0.876  73.25   0
       225    967.8277    116.7206 300.4491995 +22.7162138     1324.774     69.43557      1.133     1.88    -8.705603      19.5849     264.4591        15     0.841     0.823 -85.00   0
       226    413.5911    113.3527 300.2776532 +22.5492468     344.6171     69.43557      1.314     3.82    -8.544434      19.5849     46.54581         7     0.874     0.606  71.71   0
       227    337.9840    105.1674 300.2567905 +22.5242368     377.6418     69.40021      1.536     4.96    -8.523133      19.5849     41.99522         8     1.042     0.668  23.29   0
       228    464.9398    100.6045 300.2977669 +22.5609718     712.5275     69.38251      1.176     2.29    -8.586802      19.5849     131.8405        11     0.910     0.708  64.15   0
       229    392.8248    101.0932 300.2751707 +22.5395023     265.9875     69.36482      1.344     3.12    -8.503928      19.5849     44.34966         7     0.822     0.750  52.13   0
       230    208.4478     96.1765 300.2194316 +22.4828265     122.8233     69.43557      1.199     3.45    -8.596149      19.5849     27.71989         5     0.775     0.445  69.49   0
       231    239.1451     80.5303 300.2340504 +22.4875362     2984.593     69.45324      1.292     2.40     -8.62757      19.5849     398.6602        27     1.066     1.002  69.25   0
       232     90.2562     80.1635 300.1878978 +22.4427938     413.6159     69.41788      1.357     3.38    -8.640444      19.5849      52.0248         6     0.737     0.641 -71.71   0
       233    485.0880     65.8287 300.3153200 +22.5570177     3161.598     69.41788      1.317     2.41    -8.602475      19.5849     431.1065        23     1.050     0.938  63.46   0
       234    370.4713     65.2292 300.2798530 +22.5225022     304.7415     69.41788      1.153     3.04    -8.645345      19.5849     44.42422         7     0.831     0.629  14.62   0
       235    737.5774     55.2881 300.3973611 +22.6296150     392.3466     69.34712      1.563     3.22    -8.230172      19.5849      44.6851         7     0.932     0.479  81.38   0
       236    613.3666     45.8969 300.3617195 +22.5897171     3096.837     69.40021      1.259     2.25    -8.100334      19.5849     439.3574        24     1.037     0.947 -87.56   0
       237    388.2875     44.8492 300.2920065 +22.5219868     685.0244     69.41788      1.131     2.55    -8.734788      19.5849     94.51883        10     0.930     0.633  80.34   0
       238    654.5376     42.6725 300.3755868 +22.6011211     394.7711     69.45324      1.285     4.47    -7.960202      19.5849     68.12931         9     1.242     0.657 -71.59   0
       239    137.3384     37.3467 300.2164163 +22.4446181     415.5034     69.47092      1.325     3.30    -8.625589      19.5849     57.52417        10     0.977     0.768  22.15   0
       240    940.2350     36.4751 300.4666313 +22.6848761     362.2156     69.40021      1.136     1.98    -8.583693      19.5849     51.24611         5     0.661     0.479  17.94   0
       241    709.1265     34.7817 300.3951500 +22.6152004     234.7405     69.41788      1.347     3.51     -7.99796      19.5849     34.60803         6     0.750     0.576 -48.44   0
       242    657.5931     30.9155 300.3803523 +22.5986567     1383.344     69.34712      1.242     2.34    -7.900417      19.5849     204.3652        17     1.099     0.826 -80.05   0
       243    672.7084     29.4555 300.3855337 +22.6027636     368.6796     69.47091      1.506     4.56     -7.83333      19.5849     50.79122         6     0.984     0.601  62.06   0
       244    744.0938     22.2348 300.4101138 +22.6220637      722.543     69.38251      1.235     2.48    -8.069992      19.5849     110.1771        11     0.933     0.716  68.63   0
       245    287.5401   1011.4261 299.9464940 +22.7690910     608.0074     69.41789      1.259     2.44    -11.49506      19.5849     96.13688        11     0.932     0.706  17.37   0
       246    192.8327   1003.0985 299.9197691 +22.7382604     884.6796     69.40021      3.504     7.49     24.55631      19.5849     35.65362        11     1.747     0.898 -82.14   2
       247     60.9328     14.8403 300.1999775 +22.4152499     319.0763     69.38251      1.463     3.99    -8.816768      19.5849     40.08144         5     0.841     0.541 -54.47   0
       248    165.6130   1006.3734 299.9102444 +22.7310225     529.2039     69.41788      2.726     4.21     26.06673      19.5849     26.42738         5     1.040     0.486 -87.76   1
