#   1 NUMBER                 Running object number                                     
#   2 X_IMAGE                Object position along x                                    [pixel]
#   3 Y_IMAGE                Object position along y                                    [pixel]
#   4 ALPHA_J2000            Right ascension of barycenter (J2000)                      [deg]
#   5 DELTA_J2000            Declination of barycenter (J2000)                          [deg]
#   6 FLUX_APER              Flux vector within fixed circular aperture(s)              [count]
#   7 FLUXERR_APER           RMS error vector for aperture flux(es)                     [count]
#   8 FLUX_RADIUS            Fraction-of-light radii                                    [pixel]
#   9 FWHM_IMAGE             FWHM assuming a gaussian core                              [pixel]
#  10 BACKGROUND             Background at centroid position                            [count]
#  11 THRESHOLD              Detection threshold above background                       [count]
#  12 FLUX_MAX               Peak flux above background                                 [count]
#  13 ISOAREA_IMAGE          Isophotal area above Analysis threshold                    [pixel**2]
#  14 A_IMAGE                Profile RMS along major axis                               [pixel]
#  15 B_IMAGE                Profile RMS along minor axis                               [pixel]
#  16 THETA_IMAGE            Position angle (CCW/x)                                     [deg]
#  17 FLAGS                  Extraction flags                                          
         1    729.1951     11.7860 300.4126663 +22.6081576     388.7105     69.22729      1.270     3.22    -7.719332     19.56604     59.25586         9     0.870     0.728  84.01   0
         2    283.8352     11.7767 300.2740267 +22.4747875     708.9583     69.36872      1.282     2.84    -8.229769     19.56604     88.18304        13     0.926     0.888  -6.43   0
         3    767.2744      6.7757 300.4261582 +22.6181136     340.0781     69.38638      1.513     3.78    -7.847905     19.56604     39.98815         6     1.062     0.386  76.93  16
         4    690.3257      6.3738 300.4023110 +22.5949655     201.6146     69.35106      1.136     3.78    -7.680209     19.56604     44.88145         5     0.934     0.440  45.61  16
         5    787.0889      3.2136 300.4334893 +22.6230190     1000.456     63.05974      1.196     2.17    -7.946099     19.56604     178.2189        12     0.867     0.765  40.47  16
         6    207.8008   1009.3218 299.9261504 +22.7383491      1169.68     69.24499      8.715     9.19     18.90426     19.56604     50.20762        26     1.711     1.482 -23.27   9
         7    194.9077   1020.0140 299.9186603 +22.7375432     878.7253     68.60513      3.260     6.42     23.15756     19.56604      30.7247        12     1.565     0.740  32.57  18
         8    170.6695   1007.3767 299.9152431 +22.7266418     1115.873     69.36872      9.264    12.62     19.28347     19.56604     43.00107        25     2.403     1.843 -43.93  19
         9    173.3786   1023.1445 299.9109493 +22.7319758     677.6736     56.78333      5.208     6.60     24.70339     19.56604     32.65129         8     1.415     0.924 -19.15  26
        10    164.0258   1016.2584 299.9102856 +22.7271931     559.2431     69.35106      3.634     4.50     22.53517     19.56604     39.80581         5     1.059     0.676 -26.98   3
        11    168.4662   1013.4301 299.9125867 +22.7277156     1488.115     69.35106      5.712    12.37     21.41308     19.56604     56.74255        39     2.926     1.456  27.45  19
        12    127.9716   1022.6889 299.8969872 +22.7182092     740.0093     59.06741      2.720     7.13     23.48147     19.56604     34.83399        17     1.504     0.948  -3.41  24
        13    100.4914    955.4930 299.9103326 +22.6906934     1272.088     69.50986     22.248    26.96    0.5442763     19.56604      39.5126        88     6.310     3.197   2.32   3
        14     74.8425    932.0269 299.9100049 +22.6762637     1911.542     69.36872     21.804    40.95    -8.477057     19.56604     61.07544       369     8.446     5.511 -50.58   3
        15     78.3110   1013.7905 299.8844564 +22.7007437     2694.286     69.28036     17.424    52.06     11.59106     19.56604     63.71036       674    10.047     7.486  27.75  27
        16     73.0640    970.4092 299.8969545 +22.6867328     2364.414     69.33339     27.487    82.17   -0.1877267     19.56604     68.48329      1455    14.788    12.667 -70.56  26
        17    196.7354   1001.4280 299.9252819 +22.7327633      1883.03     69.35106      7.106    13.49     16.39071     19.56604     48.16277        50     2.641     2.108  29.66   3
        18    190.6991   1005.2994 299.9221449 +22.7320608     822.6136     69.58031      2.949     6.05     17.98886     19.56604     52.31306        10     1.297     0.798  88.35   3
        19    630.8376   1002.3250 300.0600474 +22.8633111     4072.525     69.29804      1.049     1.64    -13.05778     19.56604     858.9612        27     0.986     0.882  73.72   2
        20    636.4665   1000.0488 300.0625418 +22.8643465       4440.6     69.35106      1.043     1.77    -13.05156     19.56604     822.7892        24     0.917     0.852 -82.17   2
        21    649.2001    969.4819 300.0764633 +22.8593936     3349.515     69.22729      1.126     1.85    -12.95507     19.56604     584.4764        25     1.045     0.860  46.36   0
        22    237.8296    991.5955 299.9412584 +22.7422826     4014.151     69.31572      7.136    27.14     7.120044     19.56604     96.13341       254     6.935     3.433  69.28  19
        23    229.3245    982.9646 299.9414253 +22.7372542      2026.99     69.31572      6.482    19.35     7.534018     19.56604     49.48707        75     4.105     2.535 -18.05   3
        24    227.6995   1001.0662 299.9350247 +22.7419568     1134.755     69.43932      5.163    10.24     14.15601     19.56604     34.43075        17     3.250     0.899 -57.88   3
        25    557.6578    960.0897 300.0510174 +22.8292353     704.7448     69.42168      0.969     1.76    -12.95634     19.56604     168.3331         7     0.670     0.596  82.99   0
        26    216.4412   1003.1843 299.9308352 +22.7391837     2132.045     69.36872     12.449    18.80     16.49928     19.56604     51.20734        76     4.445     2.210 -46.47  19
        27    451.3858    956.6529 300.0190598 +22.7963616     450.0349     69.36872      0.993     1.86    -12.97646     19.56604     88.82684         6     0.630     0.570  53.82   0
        28    382.1143    954.7254 299.9981352 +22.7750197     3232.121     69.45696      1.095     1.76    -12.81107     19.56604     654.1414        22     0.936     0.899   3.05   0
        29    214.7400    997.6406 299.9321119 +22.7370834     1534.617     69.35106      9.049    10.10     14.72037     19.56604     54.71204        33     2.037     1.617  38.74   3
        30    163.8603    992.0865 299.9181068 +22.7202135     874.9307     69.43932      3.744     7.83     14.41734     19.56604     42.93457        12     2.034     0.843 -73.78   0
        31    414.4449    941.7199 300.0124284 +22.7809916     323.6219     69.33339      1.562     2.42    -12.97529     19.56604     39.32714         5     0.686     0.467 -70.25   0
        32    731.3317   1002.9386 300.0911501 +22.8936331     251.0323     69.40403      1.016     1.66    -13.03269     19.56604     73.47571         5     0.676     0.417 -65.70   0
        33    928.3977    933.3468 300.1752396 +22.9327438      1083.36     69.33339      1.005     1.78    -13.29157     19.56604      234.502        14     0.874     0.724 -51.21   0
        34    716.7855    921.5349 300.1131297 +22.8659016     352.6355     69.33339      1.224     2.12    -12.93568     19.56604     46.47066         5     0.684     0.454  23.83   0
        35    544.4380   1007.2276 300.0315493 +22.8387950     1145.546     69.36872      1.014     1.74    -13.14129     19.56604      218.414        13     0.796     0.737  46.50   0
        36    752.0064    916.5083 300.1257400 +22.8750208     466.5318     69.26268      0.931     1.73    -13.00592     19.56604     108.3329         8     0.715     0.609 -84.48   0
        37    495.1248    991.2874 300.0213918 +22.8194239     161.3581      69.4746      0.975     2.39     -12.9965     19.56604     48.67024         5     0.858     0.345 -48.17   0
        38    774.2388    910.0710 300.1347638 +22.8798393     5548.958     69.31572      1.049     1.62    -13.01403     19.56604     1302.041        23     0.871     0.829  45.06   0
        39    965.1914    909.6392 300.1944339 +22.9369634     219.8382     69.36872      0.952     2.68     -13.0163     19.56604     49.20664         5     0.721     0.451 -17.06   0
        40    907.2853    903.0161 300.1785330 +22.9177031     111.7759     69.31572      1.133     3.44    -13.11378     19.56604     35.81087         5     0.797     0.582   2.23   0
        41     85.4866    901.8589 299.9231336 +22.6708108     345.3776     69.43932      1.063     2.94    -10.05309     19.56604     58.02193         6     0.721     0.635  42.61   0
        42    782.6901    892.1029 300.1432478 +22.8772140     755.5234     69.52748      0.964     1.57     -13.0009     19.56604     180.7632         7     0.635     0.597  89.90   0
        43    820.9548    885.5500 300.1573069 +22.8868052     401.9957     69.36872      0.974     1.78    -13.04308     19.56604     85.54411         6     0.697     0.497  -2.73   0
        44    720.4255    875.5488 300.1292364 +22.8537900       353.09     69.36872      0.967     2.15    -12.74721     19.56604     79.49179         5     0.665     0.471  20.00   0
        45    732.0326    873.0319 300.1336721 +22.8565479     432.1297     69.40403      1.379     2.73    -12.81981     19.56604     82.86304         9     0.931     0.661   8.91   0
        46    433.3535    872.3976 300.0408818 +22.7667755     1933.356     69.36872      0.980     1.73    -12.38735     19.56604     386.7116        13     0.793     0.705  65.08   0
        47    158.3975    858.1600 299.9600141 +22.6801705     430.2437     69.35106      1.202     3.48    -11.96499     19.56604      59.7622         7     0.958     0.535 -63.98   0
        48     66.9563    857.0112 299.9319757 +22.6523881     73.18078     69.35106      1.032     2.96    -12.16598     19.56604     39.71851         5     0.950     0.366  31.16   0
        49    135.6815    855.2314 299.9539080 +22.6725112     832.6454     69.35106      1.125     2.07    -12.01106     19.56604     123.8336        10     0.792     0.698  41.74   0
        50     10.0496    844.6726 299.9183156 +22.6317632     98.87906     69.33339      0.947     3.38    -12.30519     19.56604     38.94774         5     0.979     0.562  73.24   0
        51   1007.2020    843.8807 300.2289470 +22.9306624     1009.917     69.26268      1.024     1.64    -12.69554     19.56604     242.7652        10     0.780     0.641  37.77   0
        52    961.5768    842.5490 300.2151495 +22.9166064     1107.974     69.35106      0.975     2.03    -12.65576     19.56604     188.9361        12     0.789     0.695  68.96   0
        53    667.0963    842.5724 300.1233587 +22.8283294     228.8664     69.28036      1.160     1.83    -12.27503     19.56604     48.16321         5     0.661     0.457 -23.50   0
        54    167.9240    836.7484 299.9699439 +22.6768895     350.3181     69.36872      1.298     3.28    -11.95413     19.56604     54.84451         7     0.969     0.564 -20.58   0
        55    744.8842    836.4244 300.1495933 +22.8498895     268.7189     69.31572      0.898     1.52    -12.55162     19.56604     69.39505         5     0.627     0.447 -28.73   0
        56    613.2290    830.4882 300.1105156 +22.8087053     2333.782     69.35106      0.992     1.66    -12.29172     19.56604     459.4739        16     0.833     0.762  44.01   0
        57    163.3905    824.4470 299.9725386 +22.6720005     840.6329     69.36872      1.208     2.24    -11.95679     19.56604     128.2679        12     0.917     0.739  87.14   0
        58    633.8251    823.0471 300.1193516 +22.8127457     363.1605     69.36872      1.058     1.69    -12.25766     19.56604     83.66724         6     0.672     0.523 -42.31   0
        59    789.2570    810.1419 300.1719752 +22.8556448     2089.411     69.42168      1.005     1.64    -12.29862     19.56604     491.1889        15     0.814     0.758  64.83   0
        60   1006.1866    810.2558 300.2395756 +22.9206963     622.0197     69.35106      1.022     1.79    -12.43939     19.56604     130.9627         8     0.720     0.610 -34.54   0
        61    506.2903    802.6768 300.0862740 +22.7686470     392.2497     69.49223      1.026     2.76    -12.15524     19.56604     75.10109         6     0.870     0.454 -89.76   0
        62    152.5514    800.9635 299.9768124 +22.6620114     439.3275     69.35106      1.103     2.67    -11.97546     19.56604     89.85826         9     0.943     0.608  87.71   0
        63    567.7338    796.2078 300.1075067 +22.7852191     284.1935     69.35106      1.110     2.17    -12.13543     19.56604     61.96409         6     0.688     0.609  34.83   0
        64    302.3313    792.8992 300.0260000 +22.7046500     26256.53     69.43932      1.102     1.78    -11.81876     19.56604     5204.544        54     1.052     0.952  72.03   0
        65    560.1339    791.7981 300.1065757 +22.7816738     824.6977     69.35106      1.082     1.74    -12.07855     19.56604     170.2467        10     0.776     0.676 -87.23   0
        66    973.1006    790.9842 300.2355278 +22.9052441     507.7895     69.26268      1.107     1.82    -12.21804     19.56604     118.6902         8     0.696     0.652 -58.13   0
        67    230.4342    791.0133 300.0042586 +22.6825330     118.8854     69.31572      1.050     2.75    -11.85573     19.56604     45.82645         6     0.770     0.495 -88.70   0
        68    589.1550    787.7437 300.1169310 +22.7892135     415.6584     69.38638      0.975     1.99    -12.09527     19.56604     98.16598         7     0.773     0.549 -79.44   0
        69    599.9174    786.1923 300.1207871 +22.7919957       424.78     69.28036      1.095     1.80    -12.09783     19.56604     68.47109         6     0.681     0.531 -54.93   0
        70    743.2097    772.8726 300.1697554 +22.8311359      418.517     69.35106      1.172     2.27    -11.95956     19.56604     78.52964         5     0.743     0.450  49.27   0
        71    352.0146    770.1320 300.0488609 +22.7130246     15313.96     69.36872      1.124     1.74    -11.68674     19.56604     3391.916        44     1.005     0.939  73.81   0
        72    366.2475    770.5727 300.0531449 +22.7174213     1040.854     69.36872      1.087     1.96    -11.66569     19.56604     174.7578        11     0.814     0.673  80.86   0
        73    875.0512    765.8743 300.2131246 +22.8686454     1410.042     69.36872      1.028     1.63    -12.00937     19.56604     347.9998        14     0.834     0.709  87.80   0
        74    633.0513    761.8636 300.1390223 +22.7949461     440.1702     69.40403      1.061     1.80    -11.86736     19.56604     103.3875         8     0.727     0.622  44.76   0
        75    234.6143    761.9150 300.0150266 +22.6754395     430.6138     69.29804      1.096     1.94    -11.82678     19.56604     78.75962         7     0.671     0.634 -74.94   0
        76    480.2544    756.9081 300.0930643 +22.7476995     356.1866     69.40403      0.998     1.92    -11.67317     19.56604     89.72517         7     0.703     0.597 -88.67   0
        77     67.6185    751.2002 299.9666143 +22.6222438     199.9328     69.28036      0.866     1.78    -11.88284     19.56604     55.63004         5     0.658     0.459 -70.23   0
        78    232.2377    746.1005 300.0194332 +22.6701890     330.5084     69.36872      1.100     2.82    -11.81863     19.56604     51.49538         6     0.797     0.587  -4.74   0
        79    525.0895    735.0268 300.1141391 +22.7548650     303.4362     69.31572      1.059     2.67    -11.44023     19.56604     61.16183         6     0.741     0.531  67.81   0
        80    546.9317    732.3633 300.1218053 +22.7606507     734.5593     69.33339      1.079     1.95    -11.41289     19.56604      144.247         9     0.818     0.590  70.70   0
        81    941.4255    731.0923 300.2451389 +22.8785424     2227.735     69.29804      0.994     1.62    -11.74456     19.56604     492.4899        16     0.800     0.765 -84.83   0
        82    466.6194    731.7741 300.0969986 +22.7363948     177.8431     69.33339      1.239     3.20     -11.4292     19.56604     34.78265         5     0.728     0.457  73.21   0
        83    929.8384    722.4568 300.2443352 +22.8725889     847.7986     69.35106      1.025     1.73    -11.71408     19.56604     169.1796        10     0.752     0.659  80.77   0
        84    292.9403    716.5447 300.0479230 +22.6799227     473.4691     69.42168      1.109     2.48    -11.44883     19.56604     79.44083        10     0.960     0.590 -60.92   0
        85    961.1980    712.7286 300.2572803 +22.8791897     917.6453     69.29804      1.054     1.61    -11.67815     19.56604     201.5587        13     0.934     0.746  72.08   0
        86    756.4338    713.8282 300.1930880 +22.8181405     1235.494     69.36872      1.082     2.05    -11.64497     19.56604     273.8735        14     1.269     0.731   3.22   0
        87    838.5819    699.6098 300.2233162 +22.8386772     304.7328     69.31572      1.205     3.40    -11.65675     19.56604     50.87811         6     0.940     0.479 -53.69   0
        88    141.9800    700.5040 300.0062119 +22.6300214     306.9638     69.26268      1.275     2.08    -11.77682     19.56604     55.75108         6     0.730     0.499   4.10   0
        89    874.6714    690.8207 300.2374263 +22.8469670     72438.73     69.35106      1.036     1.63    -11.64021     19.56604     16487.43        95     1.086     0.994  76.88   0
        90    637.3005    695.0651 300.1620789 +22.7770373     153.9851     69.43932      1.036     3.34    -11.26772     19.56604     41.58489         5     0.789     0.411  72.41   0
        91   1021.6102    692.4199 300.2827317 +22.8914520     641.0104     63.75528      1.054     2.00    -11.60124     19.56604     111.5046         8     0.871     0.571  88.00  16
        92    727.1371    690.9340 300.1914075 +22.8027822     308.3527     69.40403      0.974     1.97    -11.56393     19.56604        82.62         6     0.697     0.535 -58.98   0
        93    560.9131    679.7011 300.1432902 +22.7497220     759.1677     69.50986      1.075     1.64    -10.86762     19.56604     182.8226        11     0.821     0.723 -24.53   0
        94    742.1125    676.9914 300.2006091 +22.8032658     4463.188     69.28036      1.058     1.67    -11.56338     19.56604     1075.447        22     0.880     0.808  71.77   0
        95    243.7763    672.2520 300.0470436 +22.6524614      2281.84     69.36872      1.110     1.89    -11.12249     19.56604     426.6406        18     0.911     0.829  52.36   0
        96    325.9208    670.0366 300.0733083 +22.6764696     558.8765     69.29804      1.176     2.81    -10.92642     19.56604     100.9563        11     0.998     0.706 -69.76   0
        97    201.4387    668.1529 300.0352149 +22.6385820     166.7364     69.38638      0.891     1.63    -11.36908     19.56604     61.41039         5     0.662     0.472 -70.81   0
        98    534.0308    665.5118 300.1395365 +22.7375867     423.6963     69.33339      1.119     2.34    -10.70917     19.56604     79.79825         7     0.819     0.592 -66.75   0
        99    525.6644    657.9641 300.1393869 +22.7329107     1560.198     69.35106      1.057     1.59    -10.65734     19.56604     341.6511        14     0.852     0.726  51.70   0
       100    515.8284    651.6321 300.1383845 +22.7281431     552.5909     69.35106      1.041     1.99    -10.63087     19.56604     132.4775         9     0.750     0.671  54.83   0
       101    909.4445    649.2047 300.2618056 +22.8454270     182.8729     69.35106      0.932     1.95    -11.41881     19.56604     49.59873         5     0.666     0.466  68.61   0
       102    178.9354    647.6061 300.0349025 +22.6259341     228.0569     69.31572      1.017     3.31     -11.4403     19.56604     47.90221         5     0.751     0.431  22.03   0
       103    962.4802    642.5239 300.2805180 +22.8593962      181.187     69.45696      0.950     2.45    -11.43113     19.56604      68.0726         5     0.723     0.440 -24.30   0
       104    440.6046    641.4957 300.1182692 +22.7026747     792.7474     69.26268      1.043     1.96    -10.82642     19.56604     138.8156        10     0.755     0.678  16.19   0
       105   1016.5327    638.5621 300.2986671 +22.8744493     422.3828     69.33339      1.261     2.38    -11.47614     19.56604     70.72199         6     0.731     0.545 -38.96   0
       106     94.6852    636.4756 300.0123401 +22.5974590     9596.816     69.45696      1.129     2.03    -11.51536     19.56604     1442.039        34     1.020     0.958  65.78   0
       107     15.7498    638.1008 299.9872900 +22.5742350      343.407     69.43932      1.220     3.36    -11.46967     19.56604     43.48619         7     0.832     0.614  62.24   0
       108    525.4943    636.4367 300.1463355 +22.7266779     352.6985     69.33339      1.019     2.33     -10.5062     19.56604     77.77954        10     0.854     0.717  79.18   0
       109    896.7344    632.2399 300.2633603 +22.8367432      206.077     69.31572      0.934     3.39    -11.31863     19.56604     33.38479         5     1.178     0.283  34.31   0
       110    943.5505    622.9398 300.2809838 +22.8480961     508.9976     69.40403      1.027     2.32    -11.33134     19.56604     99.69115         8     0.808     0.583 -84.55   0
       111     40.6578    620.4246 300.0007748 +22.5766401     765.1135     69.35106      1.643     4.54    -11.33733     19.56604     77.28873        15     1.414     0.812 -83.74   0
       112    810.3929    620.9938 300.2401013 +22.8076403     297.8182     69.20959      1.244     2.82    -11.18898     19.56604     56.64236         5     0.674     0.648   4.19   0
       113    488.7000    617.1662 300.1411494 +22.7101115     167.3558     69.33339      1.182     3.37    -10.52339     19.56604     38.19442         5     0.781     0.422 -74.19   0
       114    883.8026    615.4380 300.2647926 +22.8280398     495.5799     69.36872      1.393     2.46     -11.2045     19.56604     71.48076         9     0.887     0.611  73.54   0
       115    446.0212    609.5569 300.1303414 +22.6951288     398.1803     69.38638      1.232     2.13    -10.72168     19.56604     69.30319         6     0.720     0.555  61.15   0
       116    593.4192    608.3734 300.1766098 +22.7389830     139.2094     69.36872      0.866     3.30    -10.44652     19.56604     47.93054         6     0.867     0.493  87.94   0
       117    489.7589    605.2679 300.1453482 +22.7070123     308.6804     69.33339      0.944     1.97    -10.45088     19.56604     78.64108         7     0.690     0.610 -71.40   0
       118    923.6371    600.8190 300.2819677 +22.8357721     1629.965     69.35106      1.049     1.69    -11.20519     19.56604     331.4254        14     0.824     0.712  60.85   0
       119    455.3979    600.8410 300.1360936 +22.6954379     778.7604     69.35106      1.104     2.05     -10.5992     19.56604     135.4738        10     0.766     0.726  73.69   0
       120   1021.6846    598.7176 300.3132328 +22.8645376     338.5193     63.60137      1.012     2.45    -11.41778     19.56604     85.03515         8     0.850     0.633 -88.71  16
       121     17.4575    594.6448 300.0019507 +22.5622818     2604.008     69.38638      1.142     2.12    -11.20715     19.56604     351.9955        20     0.980     0.849  80.45   0
       122    318.8741    587.7350 300.0978811 +22.6507317     4388.979     69.38638      1.116     1.82    -10.84969     19.56604     862.0194        24     0.961     0.845  79.71   0
       123    441.3647    584.7140 300.1369704 +22.6865990     4306.412     69.33339      1.107     1.95    -10.53565     19.56604     721.3486        25     0.982     0.896 -81.27   0
       124    852.9001    578.6226 300.2671302 +22.8082001     900.8985     69.29804      1.064     1.90    -10.91628     19.56604     165.4289        11     0.835     0.667  70.80   0
       125    937.5229    575.9149 300.2943963 +22.8327731     6150.665     69.45696      1.027     1.71    -11.15432     19.56604     1169.754        30     0.926     0.906 -11.71   0
       126    501.8113    574.2859 300.1591736 +22.7017286     5621.803     69.29804      1.124     1.91    -10.15362     19.56604     1009.075        27     1.009     0.877  71.48   0
       127    229.3482    569.7659 300.0758846 +22.6187200     697.6912     69.36872      1.325     2.62    -10.98385     19.56604     84.81959        12     0.903     0.810  86.11   0
       128    671.4869    570.0315 300.2133911 +22.7513693     309.0382     69.33339      1.160     2.77    -10.49492     19.56604     42.25822         6     0.765     0.498 -85.27   0
       129    476.0544    567.7783 300.1532726 +22.6921372     173.8448     69.36872      1.177     3.89    -10.19192     19.56604     32.08235         6     0.909     0.478 -36.50   0
       130    433.5518    562.4658 300.1417728 +22.6778676     2109.187     69.36872      1.057     1.97    -10.37258     19.56604     364.3505        16     0.850     0.808  45.94   0
       131    411.9015    560.7319 300.1355998 +22.6708778     505.0313     69.43932      1.103     2.37       -10.47     19.56604     125.8513         9     0.968     0.534  62.84   0
       132    166.1208    559.9644 300.0594167 +22.5969391     368.6684     69.29804      1.192     3.30    -11.07038     19.56604     49.83208         8     0.810     0.686  43.30   0
       133    853.2778    557.8705 300.2739954 +22.8023488     772.8929     69.45696      1.199     2.16    -10.76221     19.56604     141.9305        14     0.985     0.768 -37.97   0
       134    733.9197    554.6592 300.2378396 +22.7656628      445.811     69.40403      1.141     2.20    -10.48244     19.56604     99.03732        10     0.920     0.600 -62.75   0
       135    550.1470    550.0196 300.1821101 +22.7092498     99716.95     69.33339      1.192     1.96    -9.913493     19.56604     18639.07       116     1.191     1.165 -55.28   0
       136    236.3071    550.0894 300.0844450 +22.6151596     1681.286     69.50986      1.161     2.02    -10.88312     19.56604     297.7422        18     0.973     0.817 -89.22   0
       137    802.4669    546.0452 300.2620017 +22.7837268      260.899     69.35106      1.187     2.55    -10.50727     19.56604     46.13426         6     0.777     0.495  83.81   0
       138    285.0215    532.7159 300.1052401 +22.6247838     229.9619     69.29804      1.278     2.67    -10.73271     19.56604     39.32652         5     0.775     0.484  58.84   0
       139    440.7148    530.3118 300.1544549 +22.6707818     1334.459      69.4746      1.140     1.87    -10.12199     19.56604     231.7844        15     0.879     0.803 -80.46   0
       140    837.7064    516.3234 300.2826484 +22.7857419     810.1407     69.49223      1.103     2.05    -10.56063     19.56604     141.6659        11     0.883     0.680  73.65   0
       141    708.8694    514.0090 300.2432499 +22.7464752     1261.794     69.33339      1.108     1.85    -10.24303     19.56604     260.6901        11     0.760     0.749  35.47   0
       142    496.3595    510.1296 300.1783334 +22.6816678     248.5034     69.31572      1.042     1.85    -9.890472     19.56604     62.49911         5     0.700     0.420  65.51   0
       143    966.1986    507.8041 300.3254837 +22.8217805     715.8449     69.17419      1.205     2.05    -10.65138     19.56604     123.3341         9     0.768     0.695  17.97   0
       144    951.9257    506.9325 300.3213154 +22.8172552     437.2802     69.42168      1.106     2.01    -10.67687     19.56604     84.90128         8     0.747     0.632 -56.16   0
       145    838.0916    506.5928 300.2859316 +22.7830603     1152.376     69.26268      1.159     1.78    -10.54314     19.56604     241.8022        14     1.211     0.756 -54.50   0
       146    591.3450    504.3269 300.2097913 +22.7084727     313.1234     69.35106      1.205     3.36    -9.909393     19.56604     46.64281         5     0.981     0.342 -68.95   0
       147    876.1556    501.5730 300.2994300 +22.7930196     2161.271     69.36872      1.031     1.79    -10.61788     19.56604     414.7269        16     0.829     0.795  41.80   0
       148    967.9077    491.8781 300.3311937 +22.8177131     403.6162     69.49223      1.144     2.07    -10.42521     19.56604     71.65733         7     0.790     0.523  40.25   0
       149    108.1212    492.2367 300.0634067 +22.5601016     480.3932     69.29804      1.123     2.36    -10.81296     19.56604     82.78204         7     0.710     0.625 -21.39   0
       150    708.5210    476.2272 300.2554219 +22.7355133     254.0828     69.35106      1.109     2.88    -10.09439     19.56604     49.60416         6     0.849     0.502  45.89   0
       151    649.3349    472.1307 300.2383160 +22.7166011     265.0344     69.40403      1.016     2.14    -9.785069     19.56604     73.43528         7     0.674     0.646   3.79   0
       152    710.1840    464.2915 300.2598192 +22.7325813     422.9455     69.28036      1.136     2.44    -10.05575     19.56604     65.80232         7     0.695     0.647  38.53   0
       153    867.4485    460.4964 300.3100665 +22.7786026     634.4669     69.38638      1.147     2.38    -10.41563     19.56604      84.5582         9     0.795     0.732 -16.47   0
       154    852.0579    456.7447 300.3064876 +22.7729141     277.8713     69.40403      1.040     3.89    -10.37951     19.56604     48.50776         9     1.087     0.613 -25.48   0
       155    596.1097    454.9377 300.2273272 +22.6957106     1553.243     69.43932      1.145     1.96    -9.798987     19.56604     295.5746        13     0.823     0.778  51.72   0
       156    956.5403    454.0806 300.3399333 +22.8034403     199.8177     69.40403      1.245     4.32    -10.20234     19.56604     38.71151         6     1.111     0.479  82.06   0
       157   1007.5014    433.6187 300.3624793 +22.8128158     676.8969     69.28036      1.119     2.38    -9.963407     19.56604     107.9614        10     0.891     0.678 -68.57   0
       158    965.9260    432.5761 300.3498493 +22.8000669     419.0266     69.38638      1.023     1.62    -10.06499     19.56604     110.3752         8     0.727     0.601  89.31   0
       159    879.5155    433.3409 300.3226538 +22.7744093     268.3635     69.45696      0.979     2.80    -10.22652     19.56604     47.09443         6     0.834     0.473   2.38   0
       160    706.6089    428.9102 300.2702034 +22.7213414     541.5947     69.28036      1.157     2.00    -9.907031     19.56604     107.1433         8     0.738     0.658  25.75   0
       161    210.7043    427.3271 300.1163834 +22.5722388     274.1182      69.4746      1.153     2.48    -10.24977     19.56604     53.91576         8     0.895     0.560  67.20   0
       162    273.1681    422.9002 300.1372432 +22.5896993     1904.981     69.33339      1.230     2.36    -10.16366     19.56604     318.3881        19     0.995     0.856  70.43   0
       163   1006.0937    421.0562 300.3661225 +22.8087812     2091.874     69.40403      1.130     1.72    -9.958158     19.56604     483.1045        20     0.918     0.834 -88.30   0
       164    220.2686    417.7610 300.1224650 +22.5723606     3721.146     69.31572      1.175     2.16    -10.19844     19.56604      586.238        22     0.981     0.872  76.80   0
       165    361.0443    411.8526 300.1681645 +22.6128744     2248.875     69.36872      1.207     2.14    -9.926173     19.56604     399.1884        19     1.004     0.814  80.64   0
       166    986.0075    412.1384 300.3627545 +22.8002023     910.1383     69.33339      1.030     1.79    -9.970415     19.56604     197.3861        11     0.836     0.678   5.66   0
       167    605.2394    408.5425 300.2452463 +22.6851150     9111.798     69.33339      1.168     2.11    -9.740737     19.56604     1357.102        36     1.058     0.965  78.99   0
       168    622.6595    408.7013 300.2506198 +22.6903804     412.9189     69.43932      1.704     5.64    -9.748826     19.56604     37.67872         9     1.280     0.701 -34.99   0
       169    938.6752    390.8155 300.3549197 +22.7798974     426.7755     69.35106      1.133     3.11     -9.98794     19.56604     83.21149         8     0.921     0.622  54.42   0
       170    159.7216    388.6447 300.1131031 +22.5458433     934.0048     69.35106      1.191     2.23    -10.19647     19.56604     163.8268        13     1.131     0.709  45.43   0
       171    959.3888    378.1902 300.3654819 +22.7824685     539.4404     69.24499      1.005     1.99     -9.96544     19.56604     107.8112        10     0.790     0.682 -60.32   0
       172    545.8709    377.8915 300.2367185 +22.6585168     3173.014     69.50986      1.240     2.03    -9.484805     19.56604     563.8263        21     1.017     0.836  67.61   0
       173    260.6665    377.5289 300.1480962 +22.5729220     474.3611     69.38638      1.307     2.57      -9.9834     19.56604     66.27533         8     0.848     0.665  48.91   0
       174    118.3277    370.6135 300.1060959 +22.5282522     245.3931     69.36872      1.174     3.40    -10.27067     19.56604     34.99937         5     0.741     0.452 -17.89   0
       175    750.1038    366.7187 300.3039623 +22.7164942     621.0085     69.49223      1.210     1.94    -9.950233     19.56604      105.043         9     0.793     0.640  71.35   0
       176    452.5751    364.2688 300.2121032 +22.6266428     3090.361     69.35106      1.203     2.18    -9.594969     19.56604     456.4337        22     1.000     0.922 -82.70   0
       177    844.4098    358.6348 300.3359819 +22.7424150     639.3873     69.33339      1.011     2.08    -10.02287     19.56604     110.8338         8     0.787     0.584 -69.17   0
       178    817.0203    346.0203 300.3315417 +22.7305852     242.3241     69.35106      1.123     1.95    -9.985528     19.56604     56.29938         5     0.613     0.544 -89.70   0
       179    473.8563    345.9673 300.2246715 +22.6277626     990.0114     69.36872      0.623     1.42    -9.305876     19.56604     502.7998         5     0.621     0.338 -79.45   0
       180    340.2221    343.5357 300.1838807 +22.5870099     1215.718     69.33339      1.235     2.21    -9.658356     19.56604     190.8003        18     1.009     0.902  33.88   0
       181     58.4524    340.9943 300.0971123 +22.5017913     431.5459     69.33339      1.181     2.30    -10.14966     19.56604     89.82988         7     0.791     0.556 -62.32   0
       182    309.4342    333.0262 300.1777179 +22.5747618     14467.38     69.36872      1.211     2.12    -9.692308     19.56604      2103.12        42     1.115     0.992  71.28   0
       183    844.1029    330.2180 300.3451172 +22.7341517     501.9895     69.26268      1.071     2.15    -9.968522     19.56604     105.5876         8     0.758     0.643 -49.13   0
       184      5.8293    320.9510 300.0872749 +22.4802539     2406.319     69.36872      1.236     2.30    -10.07417     19.56604     338.8888        22     1.010     0.914  66.98  16
       185    759.3116    319.2023 300.3222667 +22.7055910     242.8821     69.28036      1.051     2.78    -9.774298     19.56604     42.76067         5     0.731     0.443  76.44   0
       186    719.7308    312.6113 300.3120738 +22.6918412     972.9844     69.35106      1.199     2.15    -9.614316     19.56604     169.3963        11     0.856     0.714 -80.12   0
       187    935.1284    305.1470 300.3816429 +22.7541960     295.7155     69.33339      1.185     3.86    -9.886856     19.56604     48.74559         6     0.814     0.525  44.30   0
       188    381.5759    297.2364 300.2117827 +22.5861050     991.5123     69.36872      1.319     2.94    -9.138971     19.56604      147.157        16     1.182     0.809  74.83   0
       189    593.8271    296.3734 300.2781293 +22.6494583     189.3468     69.31572      1.035     3.49     -9.20421     19.56604     38.75262         5     0.947     0.371  85.10   0
       190    703.5448    287.7193 300.3151151 +22.6798366     77.75732     69.38638      0.862     3.38     -9.43699     19.56604     32.89687         5     0.740     0.447  68.12   0
       191    457.6477    276.5710 300.2421651 +22.6029649     541.2028     69.36872      1.159     3.53     -9.11681     19.56604     89.04541        11     1.118     0.742 -81.47   0
       192    702.3458    268.4363 300.3210035 +22.6739334     1038.626     69.36872      1.118     2.22    -9.369904     19.56604     167.0783        12     0.865     0.758  67.19   0
       193    963.4515    262.6000 300.4042944 +22.7504357     1584.159     69.29804      1.081     1.99    -9.634278     19.56604     256.8264        15     0.900     0.793  74.28   0
       194    410.4775    252.4268 300.2353259 +22.5818919     315.6989     69.35106      1.304     4.08     -9.09024     19.56604      44.2095         5     0.962     0.494  84.97   0
       195     85.4856    246.8097 300.1360960 +22.4828576     739.0123     69.28036      1.670     3.59    -9.501864     19.56604     71.84828        12     1.053     0.892  27.03   0
       196    116.3508    246.5852 300.1457600 +22.4920480     377.9039     69.38638      1.459     3.27    -9.449102     19.56604     53.06743         8     0.913     0.655 -88.91   0
       197    979.2660    243.1990 300.4155272 +22.7495878     219.0039     69.33339      1.125     2.25    -9.439241     19.56604     59.51948         6     0.679     0.626 -84.83   0
       198    964.5245    235.9345 300.4132878 +22.7430853     188.5105     69.42168      0.959     3.23    -9.422224     19.56604      31.4638         6     0.780     0.499  89.68   0
       199    773.8293    229.6459 300.3558737 +22.6841863     423.0197     69.38638      1.075     3.49    -9.387852     19.56604     51.84638         5     0.952     0.370 -85.49   0
       200    364.1758    229.3850 300.2284011 +22.5613956     281.8398     69.36872      1.344     2.78    -9.081478     19.56604     47.92345         5     0.724     0.677 -75.40   0
       201    871.9985    218.8623 300.3899765 +22.7104767     987.1948     69.31572      1.122     1.93    -9.417574     19.56604     200.3648        13     0.817     0.805  79.81   0
       202    290.7636    216.2120 300.2098427 +22.5356092     970.7375     69.33339      1.222     2.55    -9.102392     19.56604     135.2997        13     0.924     0.807 -69.69   0
       203    368.4359    211.3906 300.2355682 +22.5575018     538.8151     69.35106      1.392     2.80     -9.07317     19.56604     63.02908         8     0.845     0.680 -39.84   0
       204    770.4728    210.6630 300.3609908 +22.6777219     228.4705     69.38638      1.164     3.09     -9.24943     19.56604     46.88374         6     0.854     0.473  -0.45   0
       205    877.2448    207.2030 300.3953975 +22.7086933     288.6434     69.35106      1.413     4.35    -9.346123     19.56604     39.14347         7     0.905     0.594 -40.82   0
       206    303.0404    203.8886 300.2176614 +22.5357482     299.9096     69.33339      1.496     3.97    -9.085143     19.56604     34.47505         5     0.841     0.535  61.66   0
       207    185.3549    203.4767 300.1812021 +22.5003552     455.1281     69.33339      1.515     3.89    -9.232913     19.56604     44.83583         6     0.908     0.478 -89.94   0
       208    723.0299    200.2463 300.3495883 +22.6605200     752.0267     69.38638      1.151     2.36    -9.098693     19.56604     127.2373        10     0.849     0.687  70.34   0
       209    787.9034    199.7421 300.3699687 +22.6798000     243.2801     69.42168      1.135     2.19    -9.197154     19.56604     50.71941         7     0.719     0.614 -11.46   0
       210    206.8126    196.9941 300.1899770 +22.5049253     291.8759     69.22729      1.386     1.90    -9.201679     19.56604     60.06659         5     0.735     0.451  33.37   0
       211    994.5898    192.2968 300.4368339 +22.7395281     425.9735     69.28036      1.146     2.22    -9.137719     19.56604     78.58279         7     0.773     0.576  69.22   0
       212    727.5052    191.8267 300.3537161 +22.6594388     357.4087     69.28036      1.469     1.76    -9.061268     19.56604     54.42327         5     0.652     0.480  71.54   0
       213    647.6750    191.0224 300.3291068 +22.6353012     672.9415     69.35106      1.276     2.57    -8.936225     19.56604     83.76869        11     0.905     0.738  18.64   0
       214    468.7826    187.4279 300.2745726 +22.5806823     313.4119     69.35106      1.200     3.39     -9.02967     19.56604     31.03061         5     0.785     0.424 -22.72   0
       215    843.0184    182.5008 300.3927458 +22.6913413     635.7918     69.26268      1.053     2.06    -9.161406     19.56604     122.1376         9     0.800     0.643  63.89   0
       216    573.9760    182.8442 300.3088089 +22.6108765     433.2237     69.38638      1.190     2.29    -8.800411     19.56604     92.54592        10     0.856     0.712 -88.50   0
       217    855.0590    181.5352 300.3968131 +22.6946680     414.7057     69.38638      1.243     1.84    -9.181028     19.56604      67.0714         6     0.704     0.499   0.69   0
       218   1016.0863    172.2196 300.4500578 +22.7401837     790.5257     69.28036      1.156     2.18    -9.063367     19.56604     150.9774        12     0.897     0.783 -77.80   0
       219    971.6789    171.7647 300.4363523 +22.7267632     585.8531     69.29804      0.994     1.86    -9.087606     19.56604     117.1714         7     0.671     0.599  59.19   0
       220    205.8521    165.1346 300.2000196 +22.4954854     345.2129     69.38638      1.338     2.06    -9.144941     19.56604     66.20534         6     0.726     0.525 -52.63   0
       221     67.8753    160.1175 300.1587652 +22.4526825     1123.193     69.45696      1.292     2.16    -9.280713     19.56604      183.476        17     1.034     0.892  56.05   0
       222    890.8072    156.5475 300.4160701 +22.6981801     360.6631     69.33339      1.225     2.42    -9.050967     19.56604     63.99078         8     0.765     0.724 -53.02   0
       223     17.3374    156.4964 300.1442399 +22.4364900     208.6812     69.43932      1.259     3.29    -9.301171     19.56604     45.18729         5     0.958     0.432  77.06   0
       224    225.2949    153.3297 300.2098957 +22.4979216     2853.201     69.45696      1.282     2.35    -9.082835     19.56604     342.1449        23     1.047     0.956  72.41   0
       225      9.4103    147.7170 300.1446267 +22.4315921     639.0902     69.31572      1.097     2.29     -9.30438     19.56604     102.9493        10     0.804     0.730  79.79   0
       226    208.5660    144.2383 300.2076452 +22.4902958     281.4155     69.38638      1.238     3.30    -9.110536     19.56604     57.81792         5     0.832     0.580 -43.10   0
       227   1023.6036    140.4163 300.4627261 +22.7332805     6764.641       54.223      0.936     2.05    -9.074979     19.56604     1590.078        19     1.009     0.570  87.68  24
       228    869.1766    134.5805 300.4164555 +22.6853855     1688.763     69.35106      1.185     2.23    -8.976481     19.56604     261.5135        16     0.942     0.824 -72.22   0
       229    972.8481    133.1894 300.4492379 +22.7160126     1322.992     69.36872      1.156     1.97    -9.024945     19.56604     244.1277        12     0.845     0.727 -85.04   0
       230    418.6720    130.0445 300.2776023 +22.5491762     299.1374     69.33339      1.368     3.36    -9.028013     19.56604     42.76783         5     0.787     0.416 -71.03   0
       231    342.6495    121.8109 300.2566214 +22.5240329     197.1868     69.36872      1.056     2.50    -9.056092     19.56604     42.39017         5     0.748     0.416  67.97   0
       232    108.8639    118.5257 300.1849991 +22.4530247     304.9354     69.38638      1.307     4.33     -9.24889     19.56604     43.07801         6     0.957     0.558 -67.37   0
       233    470.0399    117.1662 300.2977680 +22.5608625     905.3513     69.38638      1.265     2.61    -9.039951     19.56604     143.8838        16     1.039     0.865   3.36   0
       234    244.1791     97.2120 300.2339781 +22.4874576     2899.042     69.33339      1.252     2.39    -9.037459     19.56604     435.0316        23     1.086     0.877  73.61   0
       235     95.2405     96.3604 300.1879577 +22.4425741     368.9088     69.42168      1.319     5.10    -9.263528     19.56604     46.50122         9     0.953     0.895  29.23   0
       236      5.5846     87.2148 300.1630705 +22.4130703     294.6917     69.29804      1.456     3.44    -9.394621     19.56604     37.23147         5     0.809     0.422 -68.39  16
       237    490.2361     82.3759 300.3153434 +22.5569102     3120.727     69.36872      1.257     2.35    -8.899145     19.56604     420.2355        24     1.055     0.934  77.07   0
       238    375.7900     82.2795 300.2797588 +22.5226003      321.212     69.31572      1.143     3.19    -8.931999     19.56604       45.158         5     0.902     0.401  84.83   0
       239    742.7316     72.0006 300.3973496 +22.6295324     380.5591     69.31572      1.295     2.63     -8.30876     19.56604     54.93712         8     0.908     0.577  27.93   0
       240    835.3177     70.8474 300.4265814 +22.6569141     298.1806     69.36872      1.065     2.11    -8.512187     19.56604     50.81226         5     0.723     0.423 -70.67   0
       241    183.1452     66.3323 300.2250213 +22.4602945     169.7505     69.38638      1.084     3.43    -8.856494     19.56604     32.80958         5     0.763     0.447  13.98   0
       242    541.4838     64.8477 300.3369847 +22.5672187     173.0702     69.35106      1.049     4.64    -8.559598     19.56604     26.89788         6     1.011     0.604  22.46   0
       243    618.5416     62.3896 300.3617781 +22.5895867     3017.597     69.31572      1.202     2.23      -8.3464     19.56604     424.9411        22     1.081     0.885  89.44   0
       244    393.4720     61.2368 300.2920876 +22.5218487     736.3695     69.31572      1.316     2.81    -8.767113     19.56604     105.6023        15     0.992     0.916  69.45   0
       245    659.7656     60.1314 300.3753513 +22.6012802     328.8759     69.35106      1.020     2.04    -8.199765     19.56604     72.44326         6     0.696     0.536 -57.69   0
       246    675.8146     55.7695 300.3817660 +22.6048304     349.2947     69.35106      1.170     3.18     -8.12333     19.56604     44.60793         8     0.880     0.643  -6.20   0
       247    142.3457     53.9204 300.2163660 +22.4445010     478.2533     69.38638      1.491     2.68    -8.857009     19.56604     60.89796         7     0.815     0.590  55.29   0
       248    945.5960     53.2173 300.4666886 +22.6848424     143.8193     69.28036      0.937     2.25    -8.709507     19.56604     51.79155         5     0.675     0.477 -76.08   0
       249    662.8801     47.2837 300.3804897 +22.5985172     1254.317     69.49223      1.192     2.11    -8.084675     19.56604     199.7614        16     0.923     0.847  86.57   0
       250    303.3905     48.1769 300.2683011 +22.4911082     181.6175     69.35106      1.347     3.85    -8.567288     19.56604     30.66175         5     0.886     0.529 -38.25   0
       251    677.2909     45.3549 300.3856048 +22.6022768     278.6941     69.33339      1.351     4.11    -8.027556     19.56604      45.5712        10     0.906     0.846  42.42   0
       252    749.1913     38.7894 300.4101377 +22.6219118     695.1766     69.24499      1.081     2.13      -8.0212     19.56604     124.3292         9     0.781     0.689  77.03   0
       253    687.5412     32.1090 300.3930953 +22.6015352     348.6228     69.42168      1.274     2.39    -7.913682     19.56604     63.24999         7     0.790     0.600  64.53   0
       254    492.7891     31.4079 300.3326737 +22.5430204     530.3283     69.24499      1.147     2.23    -8.569077     19.56604     86.48026         8     0.883     0.540  70.99   0
       255     65.8027     31.3799 300.1998915 +22.4150842     257.8925     69.28036      1.059     4.14    -9.190245     19.56604     47.73767         7     1.145     0.427 -12.50   0
       256    396.8147     29.6448 300.3033764 +22.5137683      356.974     69.36872      1.207     2.22    -8.523491     19.56604     55.85776         7     0.701     0.621   3.49   0
       257    168.0545     19.7003 300.2354575 +22.4423734     1910.758     69.43932      1.297     2.26    -8.545366     19.56604     279.9054        18     0.987     0.891  44.15   0
       258    736.0191     20.2191 300.4120572 +22.6126263     265.5733     69.35106      1.197     2.40    -7.795138     19.56604     54.89532         7     0.707     0.646 -88.41   0
       259    923.8240    985.8069 300.1567277 +22.9464391      321.644     69.31572      1.034     1.87    -13.66093     19.56604     82.51698         6     0.694     0.530  53.69   0
       260    352.4823   1014.4743 299.9694587 +22.7832635     356.6062     69.45696      1.492     2.80    -13.16653     19.56604     56.93642         5     0.860     0.524 -50.24   0
       261    158.2063   1014.4751 299.9090578 +22.7249342     535.8255     69.28036      2.225     5.87     21.81054     19.56604      32.9621         8     1.011     0.959 -62.43   0
       262    226.7608   1015.8733 299.9299102 +22.7459205     557.5499     69.33339      1.506     3.85     19.92372     19.56604     74.17307         9     1.234     0.618 -35.70  16
