#   1 NUMBER                 Running object number                                     
#   2 X_IMAGE                Object position along x                                    [pixel]
#   3 Y_IMAGE                Object position along y                                    [pixel]
#   4 ALPHA_J2000            Right ascension of barycenter (J2000)                      [deg]
#   5 DELTA_J2000            Declination of barycenter (J2000)                          [deg]
#   6 FLUX_APER              Flux vector within fixed circular aperture(s)              [count]
#   7 FLUXERR_APER           RMS error vector for aperture flux(es)                     [count]
#   8 FLUX_RADIUS            Fraction-of-light radii                                    [pixel]
#   9 FWHM_IMAGE             FWHM assuming a gaussian core                              [pixel]
#  10 BACKGROUND             Background at centroid position                            [count]
#  11 THRESHOLD              Detection threshold above background                       [count]
#  12 FLUX_MAX               Peak flux above background                                 [count]
#  13 ISOAREA_IMAGE          Isophotal area above Analysis threshold                    [pixel**2]
#  14 A_IMAGE                Profile RMS along major axis                               [pixel]
#  15 B_IMAGE                Profile RMS along minor axis                               [pixel]
#  16 THETA_IMAGE            Position angle (CCW/x)                                     [deg]
#  17 FLAGS                  Extraction flags                                          
         1    788.4025     10.5064 300.4334514 +22.6231423     1170.818     69.41519      1.298     2.44    -8.428901     19.60912     138.0545        16     0.983     0.890  23.80   0
         2    171.8619      5.7082 300.2431795 +22.4370858     479.2459     69.59222      1.293     2.97    -8.789237     19.60912     65.83076        11     0.964     0.784   9.13  16
         3    963.2606      3.5940 300.4901912 +22.6734891     344.7028     64.69941      1.066     2.60    -8.600194     19.60912     54.65556         5     0.692     0.475 -14.51  16
         4    736.8360      3.0592 300.4198028 +22.6055636      437.941     62.63143      1.302     3.69    -7.645545     19.60912     64.22064         8     0.934     0.670  65.14  24
         5    237.6586    997.3307 299.9413875 +22.7412897     3988.675     69.52147      8.573    30.42     4.664097     19.60912     111.7867       357     8.158     3.714  57.22  26
         6    246.8798   1022.5443 299.9360422 +22.7512840     691.4871     59.94109      5.482     7.90     6.472041     19.60912     34.67401        12     1.436     1.216 -66.80  26
         7    228.1591   1022.9872 299.9300807 +22.7457887     769.3085     57.76676      3.253     6.94     14.96881     19.60912     71.26018        15     1.815     0.900  12.92  26
         8    160.0764   1021.7698 299.9093250 +22.7249914      927.178     63.33474      5.891     8.09      17.1849     19.60912     41.27692        15     1.587     1.152 -48.58  27
         9    171.9821   1021.4230 299.9131364 +22.7284681      1850.36     64.60425      6.828    15.67     16.71901     19.60912     52.87241        64     3.100     2.202   8.67  27
        10    170.4634   1014.9559 299.9147707 +22.7261591     1274.383     69.50376      6.511     7.79     15.21733     19.60912     47.65331        15     1.899     0.894 -43.79  19
        11     60.5957    953.6815 299.9005995 +22.6756035     1576.898     69.43291     16.470    23.69    -6.017759     19.60912     44.77744        93     4.692     3.321 -80.68   3
        12     76.6495   1015.4675 299.8854668 +22.6981255     2653.464     69.50376     20.271    56.44     8.873464     19.60912     56.49017       574    14.228     6.212  35.48  27
        13     75.3654    943.6204 299.9084612 +22.6771576      2035.87     69.52147     20.811    34.42     -6.05288     19.60912     55.43453       236     7.047     4.666  23.65   3
        14     78.1479    975.2161 299.8990387 +22.6870451     2710.116     69.50376     26.166    69.55    0.7972907     19.60912     62.63971      1034    13.219    10.154  75.90  19
        15    164.1152    995.2198 299.9192254 +22.7185978     971.8007     69.43291      8.138    10.58     10.27516     19.60912     39.07066        19     2.533     1.231  51.80   0
        16    732.3353   1010.2297 300.0910724 +22.8934709     381.3945     69.52146      1.029     2.18    -12.28801     19.60912     63.44994         5     0.680     0.462  78.89   0
        17    925.1068    993.5493 300.1565637 +22.9465068     464.1057     69.57454      1.112     1.92    -13.17834     19.60912     85.74558         7     0.723     0.582  32.07   0
        18    140.0611    978.7730 299.9171088 +22.7066609     727.9555     69.50376      4.355     5.21     6.218449     19.60912     38.69384         9     1.187     0.774 -27.12   0
        19     90.1668   1003.0470 299.8937089 +22.6986282     975.0458     69.53916      3.606     4.38     10.45074     19.60912     39.24639         5     1.044     0.523 -50.69   3
        20    650.3807    976.7805 300.0764475 +22.8592873     3317.317     69.50376      1.064     1.89    -12.30277     19.60912     563.2739        18     0.877     0.821  54.77   0
        21    545.5099   1014.4308 300.0315466 +22.8386144     1170.825     69.45063      1.040     2.03    -12.49056     19.60912     209.2154        17     0.944     0.828  -0.07   0
        22    632.0848   1009.6529 300.0600469 +22.8632257     4045.264     69.55685      1.053     1.68    -12.30277     19.60912     846.3843        20     0.869     0.846 -55.09   3
        23    241.5704    971.1359 299.9511325 +22.7349578    -63.46241     69.52146      0.876     1.54    -2.017368     19.60912     72.88339         5     0.648     0.460  66.45   0
        24    637.6763   1007.3596 300.0625344 +22.8642458     4592.136     69.46835      1.030     1.62    -12.30277     19.60912     913.6094        24     0.973     0.841 -67.60   2
        25    559.1277    967.5154 300.0510620 +22.8292477     758.4447      69.6099      1.077     1.81    -12.34184     19.60912     149.9497        11     0.830     0.708  28.75   0
        26     59.9216    981.0364 299.8914841 +22.6832374     2095.013     69.46835     22.513    29.12    -2.174623     19.60912     55.81504       169     7.467     3.153 -69.08  19
        27    111.0064    962.8206 299.9132786 +22.6933637     1226.153     69.48606      7.995     7.91     1.705701     19.60912     44.45021        14     1.934     0.905 -31.12   2
        28    452.7162    963.9362 300.0191213 +22.7962846      485.391     69.59222      1.048     1.70     -12.1233     19.60912     125.6581         7     0.656     0.578  78.72   0
        29    383.4570    962.0669 299.9981907 +22.7749587      3218.48     69.53916      1.044     1.78    -12.13515     19.60912     595.1714        19     0.901     0.797  69.09   0
        30     91.4200    949.4521 299.9115482 +22.6836506     1281.072     69.48606      9.160     8.29    -3.084459     19.60912     57.06076        23     2.035     1.319 -81.33   1
        31    929.6884    940.7035 300.1752004 +22.9327134     1123.118     69.68057      1.096     1.95     -12.6053     19.60912     187.6881        16     0.929     0.810  19.03   0
        32     88.8385    937.7939 299.9145418 +22.6795351     955.9891     69.53916      8.665     8.59     -6.07394     19.60912     36.62144        12     2.174     0.947  53.93   1
        33    718.4059    929.4555 300.1130371 +22.8661194     207.9554     69.48606      1.091     3.76    -12.34515     19.60912     70.21411         7     1.176     0.596  53.76   0
        34    199.4248    996.7714 299.9296897 +22.7296472     389.2493     69.50376      2.135     3.56     9.730968     19.60912     47.05841         5     1.254     0.332  42.37   1
        35    415.7205    948.9688 300.0124882 +22.7808885     166.6368     69.50376      0.965     2.67    -11.91461     19.60912     51.94858         5     0.769     0.387 -69.98   0
        36    753.4436    923.6531 300.1258380 +22.8749645     565.3039     69.53916      0.991     2.01    -12.33826     19.60912     115.9544         9     0.832     0.614 -53.54   0
        37    775.4713    917.4067 300.1347326 +22.8797791     5675.693     69.46835      0.981     1.73    -12.34294     19.60912     959.2568        23     0.846     0.818  77.83   0
        38    966.4213    916.8254 300.1944253 +22.9368729     187.0499     69.46835      0.940     2.07      -12.359     19.60912     44.32258         5     0.673     0.470 -71.74   0
        39    821.0991    917.1282 300.1490372 +22.8933837     145.4614     69.64525      1.079     2.08    -12.44244     19.60912     51.87418         6     0.719     0.539  43.35   0
        40     86.9562    909.1776 299.9232725 +22.6707707     324.8413     69.55685      1.225     2.56    -9.343918     19.60912     57.46287         6     0.762     0.653 -12.71   0
        41    783.9702    899.5493 300.1431935 +22.8772038     639.1098     69.52146      0.995     1.66    -12.31147     19.60912     141.3634        10     0.777     0.643 -81.85   0
        42    822.1956    892.9570 300.1572477 +22.8867758     391.4882     69.52146      1.024     2.50    -12.42236     19.60912     101.9619         6     0.905     0.423 -62.48   0
        43    870.3702    884.4251 300.1750356 +22.8987731     334.9779     69.50376      1.040     2.94     -12.4604     19.60912     64.94243         6     0.851     0.482 -87.12   0
        44    721.8091    883.0007 300.1292199 +22.8538112     382.5407      69.3265      1.175     2.21    -11.88129     19.60912     77.56262         6     0.727     0.527  45.44   0
        45    434.5652    879.7959 300.0408672 +22.7667104     1988.772     69.50376      1.009     1.69    -11.61674     19.60912     404.8098        15     0.806     0.750 -65.15   0
        46    733.2822    880.1484 300.1337214 +22.8564340     230.4604     69.52146      1.020     2.52    -11.85322     19.60912     60.52341         6     0.760     0.616  71.62   0
        47    477.9839    867.9998 300.0582121 +22.7763574     47.52815     69.39746      1.038     2.55    -11.60399     19.60912     33.47567         5     0.623     0.582  -0.00   0
        48    159.5240    865.4611 299.9600403 +22.6800357     384.7791     69.55685      1.035     2.27    -11.27468     19.60912     83.40269         6     0.781     0.499 -87.51   0
        49    136.9265    862.8607 299.9538671 +22.6725049     764.3816     69.53916      1.186     2.56    -11.28421     19.60912     124.1748        10     0.846     0.733 -69.11   0
        50   1008.6077    851.2858 300.2289131 +22.9307027     1011.149     69.43291      1.032     1.83     -11.7527     19.60912     194.2823        12     0.805     0.704 -17.18   0
        51    962.8273    849.8368 300.2151114 +22.9165635     888.5217     69.50376      0.993     1.66    -12.04587     19.60912     228.3775        11     0.737     0.703  62.44   0
        52    439.4586    849.3137 300.0523102 +22.7594374     282.1115      69.6099      1.024     3.55    -11.60594     19.60912     41.64093         5     0.945     0.445  74.36   0
        53    746.2356    843.7540 300.1496013 +22.8498750     316.9785     69.53916      0.983     2.13    -11.72619     19.60912     66.87333         6     0.692     0.573  42.10   0
        54    168.8059    844.3724 299.9697868 +22.6767784      222.877     69.50376      1.156     2.63     -11.3242     19.60912     39.37495         5     0.705     0.464 -14.74   0
        55    614.4949    837.8817 300.1104935 +22.8086755     2318.115     69.66291      1.004     1.77    -11.48673     19.60912     443.9309        16     0.845     0.737  81.20   0
        56    104.1765    838.6124 299.9515862 +22.6557214     228.8166     69.50376      1.156     3.51    -11.49532     19.60912     38.20245         5     0.753     0.473 -11.51   0
        57    416.9545    835.2166 300.0498987 +22.7486412      363.357     69.52146      1.044     1.88    -11.62307     19.60912     74.17076         7     0.694     0.612   5.20   0
        58    164.8896    831.8057 299.9726595 +22.6720006     699.5772     69.41519      1.088     1.99    -11.34285     19.60912     147.9683        10     0.808     0.700 -66.62   0
        59    635.1061    830.3989 300.1193446 +22.8127113     365.7527     69.39746      0.903     1.58    -11.48685     19.60912     91.01404         6     0.667     0.489  -1.79   0
        60    183.7945    828.4644 299.9796200 +22.6767188     238.4628     69.46835      1.039     2.70     -11.3467     19.60912     50.06218         5     0.793     0.540  54.93   0
        61    790.4509    817.4520 300.1719334 +22.8555855     2055.811     69.53916      0.989     1.74    -11.81437     19.60912     359.4689        16     0.846     0.771  55.24   0
        62   1007.3561    817.4733 300.2395276 +22.9206182     493.3564     69.48606      0.915     1.91    -11.82709     19.60912     99.22525         7     0.765     0.492  -8.29   0
        63    199.0572    811.7287 299.9898076 +22.6765038     236.5987     69.52146      1.141     2.26    -11.34015     19.60912     51.09801         7     0.706     0.643   7.02   0
        64    507.5061    810.2053 300.0862051 +22.7686386     203.7741     69.39746      0.963     2.11    -11.41112     19.60912     57.79771         5     0.689     0.462  68.04   0
        65    153.7253    808.3471 299.9768245 +22.6619247     405.9721     69.52147      1.137     2.41      -11.437     19.60912     79.69382        10     0.829     0.762 -34.46   0
        66    569.3005    803.2490 300.1076972 +22.7851818     108.1857     69.53916      0.890     2.05    -11.10267     19.60912       54.612         5     0.674     0.453  81.93   0
        67    303.6396    800.2891 300.0260316 +22.7046174     26286.14     69.48606      1.062     1.76    -11.46071     19.60912     4890.623        54     1.054     0.961  89.46   0
        68    561.3751    799.2065 300.1065461 +22.7816445     785.4391     69.48606      1.058     1.69    -11.07841     19.60912     170.1329         9     0.723     0.686 -56.84   0
        69    231.5612    798.3923 300.0042468 +22.6824382     205.2143     69.52147      1.025     2.88    -11.29947     19.60912      54.7555         6     0.878     0.686 -76.42   0
        70    974.2759    798.2467 300.2354704 +22.9051821     327.1323     69.50376      0.976     2.25    -11.84926     19.60912     93.07456         8     0.812     0.620  -4.86   0
        71    590.2795    795.3216 300.1168059 +22.7892006     355.8524     69.62758      0.878     1.72    -11.06554     19.60912     94.26853         5     0.649     0.457  12.25   0
        72    744.4263    780.1147 300.1697471 +22.8310678     314.8778     69.48606      0.924     1.97    -11.38639     19.60912     74.74265         7     0.743     0.579  12.52   0
        73    353.3267    777.5439 300.0488788 +22.7130072     15174.94     69.53916      1.058     1.87    -11.46532     19.60912     2528.967        42     1.005     0.953  69.83   0
        74    367.5890    777.9624 300.0531772 +22.7174072     1045.003     69.48606      1.065     1.81    -11.47752     19.60912     182.6651        11     0.808     0.682  22.47   0
        75    876.3801    773.0822 300.2131446 +22.8686116     1353.417     69.46835      1.017     1.90     -11.4929     19.60912     286.5851        13     0.785     0.736 -30.81   0
        76    364.3313    771.7128 300.0541975 +22.7146373     329.7394     69.62758      1.257     3.64    -11.42766     19.60912      46.4194         6     0.876     0.487  41.31   0
        77    634.2589    769.2728 300.1389709 +22.7949176     462.1777     69.53916      1.051     2.10    -11.07692     19.60912     82.80771         6     0.683     0.551  36.03   0
        78    235.9858    769.4301 300.0150444 +22.6754628     414.9921     69.50376      1.041     2.60    -11.27007     19.60912     81.43685         6     0.863     0.491  -5.12   0
        79    481.1191    764.1901 300.0929676 +22.7475220     512.6005     69.45063      1.182     2.71    -11.27353     19.60912     80.42621         7     0.842     0.581  20.22   0
        80    882.5809    760.8646 300.2190521 +22.8669626    -221.0817     69.46835      0.846     1.73    -11.45449     19.60912     57.73942         5     0.635     0.474  70.99   0
        81     68.8376    758.7415 299.9665979 +22.6222193     290.7537     69.52146      1.218     3.02    -11.78333     19.60912       51.421         6     0.764     0.537  57.13   0
        82    233.1359    753.7546 300.0192583 +22.6701130     372.6355     69.52146      1.186     2.42    -11.24786     19.60912     45.37145         6     0.721     0.555 -42.87   0
        83    548.2625    739.6713 300.1218351 +22.7606297     626.3618     69.53916      1.006     1.79    -10.89047     19.60912     148.0275         9     0.781     0.619  27.39   0
        84    942.6647    738.4083 300.2450853 +22.8785239      2257.06     69.48606      0.985     1.72    -11.66542     19.60912     413.7338        18     0.831     0.774 -38.24   0
        85    629.4581    734.6833 300.1487293 +22.7835516     197.0109     69.59222      1.432     4.37    -10.87483     19.60912     30.85143         5     1.016     0.535  48.00   0
        86    931.1179    729.7338 300.2443079 +22.8725720     817.4492      69.6099      0.950     1.56    -11.59408     19.60912     211.0969         9     0.716     0.633  68.17   0
        87    294.2555    723.8111 300.0479943 +22.6798704     333.3369     69.50376      1.089     2.28    -11.22365     19.60912      83.3459         6     0.776     0.550 -21.48   0
        88    757.4257    721.2981 300.1929309 +22.8180824     1168.132     69.46835      0.987     1.82     -10.9888     19.60912     249.8114        11     0.741     0.686  54.08   0
        89    962.0991    719.8914 300.2571675 +22.8790307      804.428     69.66291      1.121     1.83    -11.63311     19.60912     174.7602        10     0.779     0.700 -88.56   0
        90    142.8141    707.9490 300.0060948 +22.6298685     250.6115     69.52146      1.068     2.06    -11.27798     19.60912     69.87444         7     0.703     0.623 -68.11   0
        91    839.8782    706.9871 300.2232726 +22.8386921     307.1296     69.50376      1.280     2.41    -11.11592     19.60912     51.28741         7     0.812     0.629  30.25   0
        92    875.9263    698.1456 300.2373815 +22.8469586     71994.32     69.50376      1.084     1.61    -11.19331     19.60912     17549.82        98     1.124     1.013  75.36   0
        93   1022.9236    699.7396 300.2826875 +22.8914696     565.6105      58.0642      1.029     1.91    -11.91595     19.60912     129.5779        11     0.891     0.699  56.55  24
        94    728.2420    698.3187 300.1913162 +22.8027358      366.708     69.46835      1.060     1.96    -10.94002     19.60912     71.97215         7     0.738     0.579 -26.91   0
        95    562.2210    686.9755 300.1433194 +22.7496953     754.9669     69.48606      1.023     1.75    -10.84119     19.60912     169.6212        11     0.751     0.738 -46.19   0
        96    743.3983    684.3233 300.2005886 +22.8032621     4444.952     69.41519      1.029     1.77    -10.95466     19.60912      821.272        20     0.853     0.808  87.55   0
        97    244.9688    679.7958 300.0469909 +22.6524568     2340.847     69.48606      1.191     2.11     -11.0888     19.60912      412.908        19     1.040     0.816  75.42   0
        98    327.1011    677.6563 300.0732161 +22.6764892     575.2742     69.59222      1.147     1.98    -11.03252     19.60912     112.3257        11     0.825     0.778 -83.68   0
        99    202.2979    675.3986 300.0351610 +22.6383897     248.3742     69.41519      1.364     3.54    -11.09455     19.60912     45.93608         5     0.759     0.477  10.83   0
       100    157.2891    673.6108 300.0217586 +22.6243683     5402.859     69.45063      0.753     0.94    -11.12629     19.60912     2328.207        11     0.534     0.492 -71.33   0
       101    535.2021    672.9822 300.1394623 +22.7375762     332.5012     69.41519      1.194     2.34    -10.88249     19.60912     62.15676         8     0.753     0.656  53.00   0
       102    526.8950    665.1586 300.1394216 +22.7328396     1610.822     69.52146      1.173     1.83    -10.82724     19.60912     314.5691        18     0.963     0.822 -82.75   0
       103    517.1042    658.9498 300.1383943 +22.7281214     691.2565     69.57454      1.128     2.18    -10.78778     19.60912     125.2067        10     0.792     0.736 -78.89   0
       104    180.4821    655.1311 300.0349733 +22.6260305     409.8706      69.6099      1.183     1.80    -11.08116     19.60912     64.45284         6     0.689     0.500  89.07   0
       105    194.3379    653.5148 300.0398039 +22.6297254     180.9465     69.62758      0.944     2.54    -11.06886     19.60912      47.8437         5     0.692     0.464  21.17   0
       106    964.2240    649.9169 300.2805895 +22.8595691        218.2     69.46835      0.957     2.60    -11.29821     19.60912     65.52147         6     0.846     0.522   2.41   0
       107    251.2002    650.5782 300.0584286 +22.6459475     195.6285     69.43291      0.973     2.20    -11.03385     19.60912      43.1623         5     0.680     0.471 -17.46   0
       108    441.9066    648.6919 300.1183360 +22.7026227     906.8636     69.66291      1.145     1.95     -10.8384     19.60912     178.7147        12     0.892     0.722  58.49   0
       109   1017.4490    646.0352 300.2984472 +22.8744018      481.306     69.53916      1.152     2.18    -11.74312     19.60912     99.45063         8     0.825     0.608  70.91   0
       110     95.9734    643.8622 300.0123862 +22.5974344     9975.045     69.50376      1.210     2.00    -11.07887     19.60912     1757.789        40     1.059     0.986  78.42   0
       111     16.9477    645.4753 299.9873225 +22.5741741     218.9594     69.52146      1.040     3.75    -11.04809     19.60912     49.03967         6     0.978     0.440 -15.67   0
       112    527.0010    644.0092 300.1463322 +22.7268021     574.7495      69.3265      1.259     1.84    -10.65942     19.60912     110.4724         7     0.740     0.528 -53.93   0
       113    944.7998    629.9597 300.2810240 +22.8480160     493.8835     69.52146      1.042     1.84    -10.96197     19.60912     115.8444         8     0.732     0.612 -33.18   0
       114     41.8899    628.0362 300.0007367 +22.5766625     698.1678     69.48606      1.511     4.35    -10.89262     19.60912     85.73589        15     1.390     0.772  89.84   0
       115    811.8693    628.0179 300.2402284 +22.8076207     255.2255     69.52146      0.897     1.76    -11.00091     19.60912     58.09496         5     0.598     0.523   1.60   0
       116    107.9901    628.2171 300.0212052 +22.5965556     198.8002     69.45063      1.185     3.76    -11.05543     19.60912     37.07804         6     0.903     0.474  41.18   0
       117    885.3365    622.5290 300.2649059 +22.8280627     368.8966     69.53916      0.918     2.32    -11.02621     19.60912     65.64842         6     0.848     0.412  71.80   0
       118    447.1744    616.9050 300.1303102 +22.6950821     349.4774     69.45063      1.197     2.58    -10.66913     19.60912      68.6783         7     0.876     0.554  75.68   0
       119    594.9443    615.4323 300.1767689 +22.7389752     268.8451     69.52146      1.225     4.03    -10.45085     19.60912     42.33788         6     0.779     0.616  50.70   0
       120    612.6254    613.7882 300.1828070 +22.7438049     301.6807     69.50376      1.407     3.16    -10.45866     19.60912     48.12631         7     0.934     0.478 -84.73   0
       121    642.2329    613.7084 300.1920499 +22.7526593     197.8768     69.45063      1.083     1.83    -10.49675     19.60912     51.61678         5     0.685     0.434 -14.58   0
       122    491.2999    612.7676 300.1453823 +22.7071293     387.9808     69.48606      1.241     2.62    -10.41412     19.60912     61.06783         8     0.914     0.549  69.93   0
       123    924.9386    608.0723 300.2819499 +22.8357775     1576.057     69.53916      1.010     1.58    -10.66953     19.60912     405.8649        15     0.827     0.789  55.17   0
       124    456.7496    608.2820 300.1360923 +22.6954797     903.0225     69.52146      1.162     2.08    -10.54583     19.60912     148.5929        12     0.914     0.778 -34.86   0
       125   1022.8963    605.9176 300.3131912 +22.8645081    -382.1456     58.27573      1.031     1.83    -11.46151     19.60912     97.29542         8     0.739     0.629 -38.58  24
       126     18.8347    602.1020 300.0020096 +22.5623067     2447.607     69.48606      1.217     2.04    -10.58299     19.60912     427.1525        23     1.040     0.920  59.03   0
       127    320.1091    595.0975 300.0978864 +22.6507090     4427.863     69.68057      1.131     1.89    -10.83582     19.60912     869.7287        24     0.938     0.889  48.23   0
       128    442.5573    592.0417 300.1369575 +22.6865627     4472.283      69.6099      1.131     1.90    -10.49388     19.60912      770.025        23     0.950     0.865  73.81   0
       129     86.5499    588.3857 300.0274953 +22.5786996     200.7791     69.53916      4.154     5.62    -10.86213     19.60912     24.10732         5     1.303     0.684  45.86   0
       130    854.2363    585.7588 300.2671695 +22.8081816     954.0969     69.57454      1.036     1.65    -10.92067     19.60912     218.9995        10     0.782     0.651  69.42   0
       131    938.7682    583.1804 300.2943540 +22.8327708     6095.416     69.50376      1.054     1.67    -10.63856     19.60912     1359.881        27     0.905     0.848  72.18   0
       132    503.1192    581.6444 300.1591780 +22.7017418     5470.913     69.48606      1.125     2.03    -10.05437     19.60912     925.7354        26     0.979     0.883 -89.87   0
       133    230.5457    576.9873 300.0759351 +22.6186426     522.1716     69.50376      1.085     2.80    -10.76238     19.60912     103.5923        10     0.943     0.669  44.38   0
       134    434.8266    569.7803 300.1417896 +22.6778558      2091.15     69.50376      1.164     1.86    -10.36023     19.60912     412.3373        18     0.923     0.850 -81.17   0
       135    777.5363    569.3580 300.2486046 +22.7804847     407.6777     69.50376      1.129     3.33    -10.65779     19.60912     77.04232         8     1.033     0.585  72.97   0
       136    413.0683    568.0977 300.1355692 +22.6708471     579.2424      69.6099      1.177     2.60    -10.53149     19.60912     96.18361        10     0.874     0.712 -88.96   0
       137    167.2641    567.8206 300.0592519 +22.5970250     293.4715     69.48606      1.067     2.60    -10.71991     19.60912      52.1633         8     0.805     0.632  47.22   0
       138    854.7061    565.1302 300.2740222 +22.8023972     812.9084     69.62758      1.177     2.36    -10.74742     19.60912     130.4645        12     0.975     0.708 -29.10   0
       139    734.9099    562.1568 300.2376682 +22.7656406     326.3102     69.50376      1.152     2.05    -10.58805     19.60912     81.51633         7     0.685     0.636 -11.22   0
       140    551.4131    557.3235 300.1821117 +22.7092427     100041.1     69.52146      1.137     2.02    -9.793037     19.60912     14577.35       128     1.238     1.187 -73.55   0
       141    237.5193    557.4141 300.0844646 +22.6151205     1729.508     69.48606      1.121     2.08    -10.62571     19.60912     253.6387        17     0.943     0.833  63.75   0
       142    803.4275    552.8907 300.2620236 +22.7835149     156.5391     69.48606      0.896     1.91    -10.56754     19.60912     51.48338         5     0.672     0.452 -66.29   0
       143    286.1180    540.2177 300.1051588 +22.6247674     249.6431     69.46835      1.321     3.03    -10.53036     19.60912     46.04239         7     0.927     0.724  78.54   0
       144    442.1171    537.5544 300.1545323 +22.6707940     1159.935     69.46835      1.071     2.08    -10.01345     19.60912     196.5844        11     0.841     0.684  64.57   0
       145    838.8598    523.6371 300.2825720 +22.7857302     879.0944     69.52146      1.085     1.76     -10.5104     19.60912     171.9928        10     0.744     0.725 -28.88   0
       146    710.2350    521.3788 300.2432383 +22.7465347     1332.704     69.52146      1.210     2.08    -10.30822     19.60912     213.2818        15     0.977     0.775  28.47   0
       147    615.3648    518.2187 300.2147269 +22.7171898     202.6857     69.50376      0.994     2.18    -9.674407     19.60912     44.43303         5     0.722     0.425  67.14   0
       148    497.3490    517.2399 300.1783170 +22.6815259     237.0177     69.50376      1.091     2.59    -9.574884     19.60912     47.69223         6     0.700     0.609  -7.13   0
       149    967.3414    515.1898 300.3253632 +22.8217969     534.4559     69.46835      0.982     1.93    -10.48661     19.60912     114.8692         8     0.703     0.632 -54.31   0
       150    839.3317    514.2241 300.2857785 +22.7831676     976.0876     69.48606      1.078     1.85    -10.48702     19.60912     184.6289        12     0.810     0.743  28.22   0
       151    953.1935    514.3464 300.3212266 +22.8173164     402.3007     69.50376      1.071     1.49    -10.47819     19.60912     91.09708         5     0.651     0.430  24.52   0
       152    877.3577    508.8379 300.2993789 +22.7930140     1938.174     69.59222      1.078     1.72    -10.48405     19.60912     411.8803        15     0.840     0.765  89.31   0
       153    537.5440    505.0066 300.1947998 +22.6900661     131.7018     69.50376      1.398     5.09    -9.603904     19.60912      29.8135         6     0.940     0.779  11.70   0
       154    109.4580    499.3307 300.0635540 +22.5600357     488.2824     69.52146      1.126     3.56    -10.62375     19.60912     73.74386        10     1.078     0.748  -1.12   0
       155    969.1506    499.1529 300.3311395 +22.8177308     479.1329     69.53916      1.121     2.16    -10.48068     19.60912      77.9465         8     0.743     0.668 -36.69   0
       156    101.9189    489.4917 300.0644095 +22.5549515      365.303     69.62758      1.370     3.08    -10.63405     19.60912     40.99732         6     0.777     0.500  -0.11   0
       157    709.6111    483.2173 300.2554462 +22.7353882     203.1214     69.46835      1.163     3.46     -10.1106     19.60912     33.58021         5     0.732     0.472 -77.51   0
       158    318.3842    481.4893 300.1342748 +22.6175954     313.6703     69.43291      1.433     3.99    -10.29582     19.60912     38.84838         6     0.947     0.481  85.08   0
       159    650.6883    479.6165 300.2382687 +22.7166940     410.8794     69.43291      1.149     2.67    -9.648961     19.60912     50.38397         8     0.852     0.620  -6.31   0
       160    965.4850    471.7217 300.3389113 +22.8087502     290.3344      69.6099      1.021     2.79    -10.44973     19.60912     52.42081         5     0.720     0.433  64.26   0
       161    711.4677    471.4267 300.2598558 +22.7325583     423.4134     69.48606      1.168     2.46    -10.05368     19.60912     71.61327         7     0.841     0.538  60.37   0
       162    868.8582    467.8397 300.3100537 +22.7786888     615.2746     69.50376      1.348     3.65    -10.31092     19.60912     114.4303        11     1.291     0.615 -87.34   0
       163    597.3807    462.3438 300.2272864 +22.6957554      1510.55     69.48606      1.161     2.20    -9.481218     19.60912      232.532        18     1.001     0.853  47.03   0
       164    957.8086    460.9828 300.3400077 +22.8033648     178.0594     69.45063      1.026     2.16    -10.40889     19.60912     46.97951         5     0.749     0.470 -30.55   0
       165    437.4713    449.1630 300.1818111 +22.6440306      275.364     69.48606      1.469     4.40    -9.665054     19.60912     36.25948         5     0.858     0.642 -52.11   0
       166   1008.7383    441.0563 300.3623622 +22.8128922     653.2953     69.57454      1.066     1.88    -10.56626     19.60912     115.4699        10     0.769     0.693  -5.79   0
       167    880.6213    440.9189 300.3224671 +22.7744779     318.3169     69.46835      1.111     2.08    -10.13058     19.60912     58.50497         5     0.744     0.442  31.60   0
       168    967.0916    439.7089 300.3498144 +22.8000316     514.1647     69.66291      1.081     1.74    -10.39276     19.60912      114.309         7     0.717     0.576 -75.76   0
       169    504.0856    437.2787 300.2063960 +22.6605912     151.0226     69.62758      1.321     4.45    -9.248535     19.60912     31.80492         5     1.121     0.503  55.97   0
       170    708.0866    436.1445 300.2702669 +22.7214114     528.4175     69.55685      1.148     2.20    -9.835848     19.60912     96.48463         8     0.772     0.649 -46.18   0
       171    211.9880    434.5472 300.1164565 +22.5722125     398.2245     69.50376      1.366     2.28    -10.24244     19.60912     59.55492         8     0.791     0.638  85.66   0
       172    274.3780    430.2784 300.1372336 +22.5897013     1795.674     69.50376      1.183     2.27    -10.15166     19.60912     251.3337        17     0.926     0.862  68.11   0
       173   1007.3475    428.3823 300.3660464 +22.8088329     2107.664     69.48606      1.044     1.91    -10.57135     19.60912     371.3777        15     0.852     0.737  85.46   0
       174    221.5872    425.1219 300.1225015 +22.5723875     3827.724     69.50376      1.188     2.03    -10.15399     19.60912     602.5764        25     1.066     0.915  89.18   0
       175    362.3200    419.1972 300.1681741 +22.6128948     2326.202     69.41519      1.174     2.14    -9.862109     19.60912     344.2895        20     1.035     0.873  77.81   0
       176    987.3109    419.4969 300.3626855 +22.8002784     893.3577     69.68057      1.017     1.83    -10.46675     19.60912     166.9751        11     0.763     0.697 -81.20   0
       177    606.4957    415.8121 300.2452418 +22.6851255     8914.223     69.43291      1.190     2.07     -9.19957     19.60912     1462.071        31     1.035     0.945  66.01   0
       178    623.2404    416.5750 300.2502065 +22.6903633     390.4586     69.53916      1.777     3.53    -9.298736     19.60912     47.95923         8     0.920     0.661 -19.96   0
       179    939.9531    398.1728 300.3548484 +22.7799662     345.5357     69.53916      1.069     2.16    -10.11791     19.60912     72.73168         8     0.779     0.620  39.65   0
       180    161.2839    396.1068 300.1131891 +22.5459737     990.3738     69.68057      1.165     2.36    -10.30971     19.60912     148.5567        13     0.889     0.786 -74.15   0
       181    547.1946    385.2605 300.2367090 +22.6585778     3198.049     69.46835      1.234     2.26    -9.199619     19.60912     451.1239        24     1.015     0.939  86.41   0
       182    960.7239    385.2765 300.3655132 +22.7824804     480.1169     69.59222      1.062     2.30    -10.16521     19.60912     99.91573         8     0.741     0.668  52.51   0
       183    262.2413    384.6629 300.1482788 +22.5729710     339.8545     69.48606      1.266     2.61    -10.02232     19.60912     44.29414         5     0.703     0.462 -10.96   0
       184    119.6422    378.2191 300.1060628 +22.5283500     374.7144     69.52146      1.337     2.84    -10.24975     19.60912     50.11073         6     0.936     0.420  74.00   0
       185    660.9321    375.4944 300.2752860 +22.6898601     169.9165     69.64525      1.067     2.24    -9.551357     19.60912     49.19373         6     0.741     0.500  -0.81   0
       186    751.2480    374.2340 300.3038219 +22.7165597     417.1574     69.53916      1.108     2.51    -9.721394     19.60912      72.9091         6     0.727     0.546  39.39   0
       187    453.7455    371.5845 300.2120750 +22.6266386     2982.278     69.50376      1.208     2.11    -9.276973     19.60912      492.991        24     1.014     0.957 -84.73   0
       188    942.8749    365.9498 300.3662266 +22.7715800     358.0299     69.50376      0.958     1.95    -10.00555     19.60912     71.08438         6     0.705     0.530  55.57   0
       189    845.8077    365.7058 300.3360520 +22.7424370     593.0918     69.39746      1.091     2.30    -9.845145     19.60912     109.4993         9     0.810     0.667 -80.50   0
       190    438.9619    360.4232 300.2111013 +22.6190022     188.4867     69.52146      1.272     2.93    -9.355593     19.60912     36.41377         5     0.756     0.569 -84.88   0
       191    341.3798    350.9011 300.1838462 +22.5870122     1257.339     69.43291      1.314     2.14    -9.749173     19.60912     171.1764        17     1.009     0.815  71.78   0
       192     60.0168    348.2212 300.0972862 +22.5018567     416.6485     69.48606      1.143     2.61     -10.1356     19.60912     82.63058        10     0.894     0.716  79.93   0
       193    310.7255    340.3479 300.1777427 +22.5747915     14636.04     69.52147      1.227     2.15    -9.741604     19.60912     2116.719        45     1.130     1.042  80.26   0
       194    845.2466    337.6991 300.3449735 +22.7342207     674.7458     69.52146      1.128     2.13    -9.769335     19.60912      104.991         9     0.798     0.636  13.97   0
       195      7.1085    328.3593 300.0873073 +22.4802859     2198.147     69.50376      1.184     2.12    -9.889324     19.60912     362.5637        19     0.920     0.902   2.92   0
       196    408.8325    325.5853 300.2130437 +22.5999675     288.2996     69.48606      1.423     4.07    -9.336102     19.60912     39.95167         7     0.875     0.667 -74.20   0
       197    721.1241    319.8602 300.3120989 +22.6919128      888.879     69.55685      1.166     1.94    -9.492099     19.60912     180.3362        10     0.873     0.656  54.44   0
       198    936.1594    312.3727 300.3815338 +22.7541689     202.0515     69.53916      1.025     2.12    -9.789591     19.60912     54.31124         7     0.763     0.572 -33.55   0
       199    382.9815    304.7482 300.2117701 +22.5862353     982.6635     69.48606      1.349     2.25     -9.32381     19.60912     152.4824        14     1.108     0.742  73.51   0
       200    704.1552    295.3560 300.3147713 +22.6797887     301.7106     69.53916      1.316     4.37    -9.439207     19.60912     35.32684         7     0.905     0.600  83.89   0
       201    458.6103    283.9550 300.2420451 +22.6029349     636.3222     69.52146      1.330     2.74    -8.976013     19.60912     94.77333        11     0.916     0.783  56.70   0
       202    703.5300    275.7811 300.3209325 +22.6739771      1048.14     69.52146      1.204     2.20    -9.397167     19.60912     163.8613        15     0.908     0.824 -88.63   0
       203    964.7187    269.9077 300.4042264 +22.7505129     1606.929     69.64525      1.157     2.08    -9.708046     19.60912     279.2398        16     0.897     0.791  80.50   0
       204    412.0737    259.6386 300.2354639 +22.5820036      370.054     69.46835      1.298     2.47    -9.000983     19.60912     53.91048         9     0.888     0.621  71.54   0
       205    117.6296    253.8061 300.1458349 +22.4920479     195.6344     69.50376      1.042     1.59    -9.573349     19.60912     59.91255         5     0.628     0.466  72.49   0
       206     86.8940    253.7786 300.1362971 +22.4828218     801.1866     69.43291      1.504     3.58    -9.524997     19.60912     86.27757        13     1.282     0.644 -35.60   0
       207    980.5491    250.1798 300.4155673 +22.7495805     377.0947     69.48606      1.372     2.60    -9.644153     19.60912     57.31152         5     0.710     0.475 -73.80   0
       208    965.9593    242.4516 300.4135273 +22.7429905     157.2971     69.52146      1.064     4.35    -9.571018     19.60912      30.6375         5     0.797     0.675 -82.81   0
       209    775.2889    236.8692 300.3559165 +22.6842898     282.3257     69.66291      1.167     3.26    -9.345778     19.60912     66.81382         9     0.913     0.827  57.30   0
       210    873.2040    225.9841 300.3899595 +22.7104839     970.9832     69.41519      1.213     2.30    -9.429762     19.60912     165.9253        14     1.048     0.748  83.23   0
       211    292.0543    223.7000 300.2098101 +22.5357071     1013.458     69.59222      1.232     2.24    -9.217182     19.60912     157.2879        11     0.883     0.713 -85.24   0
       212    369.7860    218.9430 300.2355228 +22.5576423     487.4642     69.48606      1.403     2.16    -8.999924     19.60912     66.97453         8     0.751     0.642  45.96   0
       213    771.6107    217.8848 300.3609334 +22.6777320     301.3151     69.45063      1.241     4.54    -9.300693     19.60912     45.14509         7     0.987     0.651  67.50   0
       214    186.5505    210.6722 300.1812482 +22.5003356     403.5346     69.48606      1.185     3.30    -9.148479     19.60912     73.94068        10     1.047     0.717  74.12   0
       215    724.2847    207.6584 300.3495114 +22.6606185      840.361      69.6099      1.178     2.18    -9.212028     19.60912      131.394        12     0.895     0.733 -58.86   0
       216    789.2759    207.3379 300.3698602 +22.6799911     306.5627     69.55685      1.215     2.33    -9.273668     19.60912      49.3399         5     0.724     0.431  19.57   0
       217    208.6725    204.7006 300.1900606 +22.5052544     289.0948     69.66291      1.444     3.75    -9.008162     19.60912     40.11752         5     0.975     0.413  44.62   0
       218    995.5873    199.8922 300.4365810 +22.7396227      479.826     69.45063      1.110     1.65    -9.323661     19.60912     103.1797         6     0.689     0.488  82.72   0
       219    648.6759    198.3546 300.3289862 +22.6352972     635.1035     69.48606      1.435     4.20    -9.103371     19.60912     75.77645        13     1.141     0.884 -57.31   0
       220    844.1510    189.7599 300.3926638 +22.6913710     585.5236     69.53916      1.213     2.76    -9.247392     19.60912     94.11957         9     0.807     0.784 -64.76   0
       221    575.2385    189.9568 300.3088504 +22.6108841     490.0923     69.59222      1.374     3.06    -8.873981     19.60912     60.23453         9     0.968     0.617 -65.55   0
       222    856.4119    188.6332 300.3968503 +22.6947183     424.8129     69.48606      1.368     3.89    -9.248986     19.60912     55.43032         8     0.924     0.647 -68.98   0
       223   1017.2037    179.7002 300.4498756 +22.7402865     879.9517     69.37973      1.082     1.98    -9.155662     19.60912      159.647        10     0.870     0.632  46.23   0
       224    973.0455    178.9444 300.4363514 +22.7268511     446.2615     69.53916      1.098     2.03    -9.146231     19.60912     117.0357         9     0.780     0.640  32.00   0
       225    207.3900    172.7771 300.2000224 +22.4957055     307.0025     69.50376      1.127     4.10     -8.79419     19.60912     51.34578         6     0.750     0.639  52.29   0
       226     69.2496    167.3175 300.1588787 +22.4527178     1067.292     69.52146      1.229     2.46    -9.186411     19.60912     145.6772        14     0.894     0.847  68.54   0
       227    892.3896    163.9749 300.4160661 +22.6984010     401.8034     69.50376      1.255     1.90     -9.10019     19.60912     63.30387         6     0.712     0.487  87.43   0
       228    226.6004    160.6883 300.2099153 +22.4979940     2681.495     69.41519      1.241     2.29    -8.654257     19.60912     412.1423        21     1.093     0.850  79.27   0
       229     10.8603    154.9966 300.1447449 +22.4316713     622.3976     69.48606      1.232     2.37     -9.13599     19.60912     92.02571        10     0.837     0.711  88.89   0
       230    210.2820    151.5243 300.2078176 +22.4904710      321.804      69.6099      1.473     3.17     -8.69742     19.60912     45.88896         6     0.895     0.651 -25.71   0
       231   1023.8724    147.7143 300.4623361 +22.7330833     1607.132     52.98964      0.837     2.05    -8.884995     19.60912     530.4849        11     1.083     0.332  88.43  24
       232    870.5388    141.7709 300.4164614 +22.6854750     1590.972     69.50376      1.138     2.07    -8.972107     19.60912     250.4426        17     0.960     0.846 -80.52   0
       233    974.1678    140.5097 300.4491747 +22.7161342      1509.76     69.45063      1.213     2.18    -8.876395     19.60912     224.7623        14     0.891     0.798 -81.29   0
       234    420.0705    137.3847 300.2776301 +22.5492890     272.8139     69.52146      1.169     2.67    -8.557109     19.60912     49.14661         6     0.728     0.607 -55.63   0
       235    344.5891    128.8179 300.2569353 +22.5242085     408.1984     69.46835      1.376     2.51    -8.703012     19.60912     41.68704         5     0.692     0.478  76.53   0
       236    110.2739    126.3854 300.1849022 +22.4532707     315.2101     69.50376      1.240     3.11    -8.940988     19.60912     46.80765         7     0.984     0.577  70.48   0
       237    471.4927    124.5846 300.2977800 +22.5610201      861.948     69.43291      1.230     2.41    -8.514434     19.60912     108.3534        12     0.871     0.791  69.80   0
       238    399.6075    125.1722 300.2752280 +22.5396492     213.6244     69.50376      0.988     3.36    -8.571042     19.60912     32.28031         5     0.784     0.418 -67.63   0
       239    245.4555    104.5696 300.2339838 +22.4875329     2846.705     69.52147      1.255     2.38    -8.655478     19.60912     382.2879        21     1.015     0.936  71.27   0
       240     96.5604    103.7733 300.1879785 +22.4426681     327.4083     69.53916      1.120     1.98    -8.835987     19.60912     55.14613         5     0.662     0.472  70.63   0
       241    491.4943     89.6993 300.3153213 +22.5569901     3041.032     69.68057      1.244     2.44    -8.443477     19.60912     402.4378        23     1.078     0.912 -80.05   0
       242    376.6417     89.3865 300.2796956 +22.5224883     313.3513     69.52147      1.200     3.88    -8.500815     19.60912     42.01611         6     0.903     0.479 -88.15   0
       243    743.9901     78.9816 300.3974049 +22.6295335     418.9415     69.46835      1.371     3.43    -8.283325     19.60912     48.20163         7     0.891     0.622 -18.48   0
       244    542.9760     72.2774 300.3369933 +22.5674062     188.4426     69.52146      0.850     2.64    -8.453185     19.60912     37.00754         5     0.771     0.483  57.09   0
       245    619.8412     69.7474 300.3617398 +22.5897017     2951.614     69.50376      1.264     2.30    -8.294633     19.60912     454.6526        22     1.027     0.907 -71.49   0
       246    394.7567     68.6936 300.2920422 +22.5219722      733.334     69.50376      1.230     3.29    -8.505239     19.60912     118.1118        12     1.039     0.782  77.10   0
       247    660.6517     66.9149 300.3753650 +22.6011095     336.3214     69.52146      1.228     3.57    -8.177977     19.60912     57.61385         9     0.894     0.744  50.69   0
       248    946.8054     60.0456 300.4667504 +22.6848027      269.476     69.50376      1.219     3.49     -8.62005     19.60912     55.22805         7     1.101     0.584  88.49   0
       249    143.6888     61.1974 300.2164298 +22.4445742     271.6576     69.41519      1.288     3.22    -8.793556     19.60912     32.80001         7     0.831     0.600  62.35   0
       250    985.7393     59.4327 300.4790884 +22.6962784     201.7874     69.53916      1.284     4.48    -8.571651     19.60912     29.68769         5     1.095     0.520 -58.22   0
       251    663.9528     54.5662 300.3803987 +22.5985485     1240.845     69.53916      1.205     2.25    -8.081318     19.60912     206.6593        16     0.985     0.814  73.97   0
       252    678.9447     53.0150 300.3855702 +22.6025920     304.6071     69.48606      1.298     3.52    -8.038538     19.60912     52.55016         7     0.955     0.634  61.75   0
       253    750.5165     46.2270 300.4100631 +22.6220709     779.5761     69.50376      1.240     2.25     -8.12112     19.60912     120.3712        10     0.808     0.744  75.20   0
       254    493.7352     38.9768 300.3324720 +22.5430872     463.6677     69.48606      1.322     3.59    -8.444576     19.60912     69.12293        10     1.022     0.785 -46.33   0
       255    688.1681     39.0830 300.3929615 +22.6013489     332.3714     69.48606      1.220     2.61      -7.9285     19.60912     52.99282         8     0.777     0.665 -53.95   0
       256     66.8380     38.4495 300.1999359 +22.4150045     299.3874     69.52146      1.591     4.59    -8.759567     19.60912     41.70648         6     1.106     0.587  23.53   0
       257    397.7990     37.1589 300.3032170 +22.5138244     399.9607     69.50376      1.209     2.65    -8.523109     19.60912     67.60611         8     0.860     0.625   7.27   0
       258    737.6740     27.4291 300.4121600 +22.6128213     281.8206     69.52147      1.070     3.32    -7.846344     19.60912     50.62439         6     0.841     0.585  65.70   0
       259    169.3456     27.0196 300.2354863 +22.4424513     1871.554     69.48606      1.272     2.22    -8.786912     19.60912      270.554        19     1.007     0.902  78.82   0
       260    730.7080     19.2445 300.4126448 +22.6083826     402.2865     69.48606      1.145     1.93    -7.771303     19.60912     60.99842         6     0.672     0.545 -43.25   0
       261    696.4977     18.4803 300.4022378 +22.5979201     246.1497     69.62758      1.655     3.74    -7.763443     19.60912     23.52458         6     0.984     0.408 -71.13   0
       262    285.4151     18.9206 300.2741866 +22.4749112     647.1967     69.52146      1.209     2.55    -8.522884     19.60912     93.31828         9     0.869     0.675  69.24   0
       263    768.2632     13.9183 300.4260707 +22.6180945      440.699      69.6099      1.628     2.89    -8.158519     19.60912     53.29716         7     0.866     0.551  61.79   0
       264    691.8791     13.6366 300.4023704 +22.5951447     290.1352     69.45063      1.210     3.35    -7.732004     19.60912      32.7537         5     0.757     0.430  20.19   0
       265     78.4984    931.0770 299.9135174 +22.6745049     1890.894     69.64525     11.160    18.30    -8.476782     19.60912     54.99004        81     4.001     2.326  20.51   3
       266    198.6105   1009.1568 299.9254036 +22.7329515     2248.204     69.50376     12.220    21.58      12.9767     19.60912     52.22057       116     4.177     3.097 -29.85  19
       267    218.3416   1009.1727 299.9315289 +22.7388818     2630.117     69.50376     13.927    36.01     12.51665     19.60912     66.30585       276     7.348     4.898 -29.10  27
