#   1 NUMBER                 Running object number                                     
#   2 X_IMAGE                Object position along x                                    [pixel]
#   3 Y_IMAGE                Object position along y                                    [pixel]
#   4 ALPHA_J2000            Right ascension of barycenter (J2000)                      [deg]
#   5 DELTA_J2000            Declination of barycenter (J2000)                          [deg]
#   6 FLUX_APER              Flux vector within fixed circular aperture(s)              [count]
#   7 FLUXERR_APER           RMS error vector for aperture flux(es)                     [count]
#   8 FLUX_RADIUS            Fraction-of-light radii                                    [pixel]
#   9 FWHM_IMAGE             FWHM assuming a gaussian core                              [pixel]
#  10 BACKGROUND             Background at centroid position                            [count]
#  11 THRESHOLD              Detection threshold above background                       [count]
#  12 FLUX_MAX               Peak flux above background                                 [count]
#  13 ISOAREA_IMAGE          Isophotal area above Analysis threshold                    [pixel**2]
#  14 A_IMAGE                Profile RMS along major axis                               [pixel]
#  15 B_IMAGE                Profile RMS along minor axis                               [pixel]
#  16 THETA_IMAGE            Position angle (CCW/x)                                     [deg]
#  17 FLAGS                  Extraction flags                                          
         1    168.6514     23.4284 300.2354828 +22.4423807     1914.749     69.39973      1.416     2.72    -8.884074     19.57479     217.1242        22     1.243     0.959  74.24   0
         2    284.6678     15.8987 300.2739926 +22.4749867     415.7037     69.47037      1.350     3.09    -8.660892     19.57479     69.75522        11     0.953     0.781 -82.69   0
         3    787.6646      6.9897 300.4334665 +22.6230732     1091.667     69.34671      1.287     2.24    -7.992471     19.57479     159.1333        14     0.931     0.796 -67.04   0
         4    493.2298      6.0591 300.3420684 +22.5346418     357.0084     69.39973      1.359     2.95     -8.30034     19.57479      43.6968         5     0.832     0.623  63.33   0
         5    171.3284      2.5546 300.2430847 +22.4371877     567.5301     60.22422      1.429     3.89    -8.905661     19.57479     66.92354        10     0.990     0.695  80.98  24
         6    208.5623   1012.2237 299.9265202 +22.7380484     1176.494     69.39973      5.833    10.63     18.39037     19.57479     55.35463        23     2.628     1.198  47.90  27
         7    174.6497   1019.6029 299.9135779 +22.7299779     1544.498     69.34671      5.795    12.52     20.76829     19.57479     38.72875        34     2.421     1.802 -76.66  19
         8    170.8559   1010.5527 299.9153465 +22.7262449      1312.77      69.4174      6.743     8.61     17.90249     19.57479     46.09377        17     1.685     1.229 -44.97   3
         9    166.7643   1017.0024 299.9119745 +22.7268643     1591.716     69.36439      5.051     8.37      19.7503     19.57479     46.03047        18     1.657     1.183  72.59  27
        10     84.9509   1002.9202 299.8911428 +22.6982546     1560.804     69.39973     18.836    24.13     10.60013     19.57479     42.01443        88     4.200     3.848  79.75  19
        11     77.0731   1016.2603 299.8843514 +22.6997103     2424.042      69.4174     22.328    60.93     10.79767     19.57479     63.18794       668    18.054     5.706  46.38  27
        12     75.1694    929.0383 299.9121609 +22.6741461     1958.801     69.38206     13.787    22.26    -9.514597     19.57479     62.15833       113     4.708     2.924 -10.56   3
        13    147.8908    977.1221 299.9190972 +22.7097671     591.2338      69.5233      5.047     4.92     7.311779     19.57479     36.84805         5     1.012     0.677  54.05   0
        14    631.4645   1006.1694 300.0600506 +22.8632664     4225.383     69.39973      1.169     1.92    -13.25406     19.57479     639.4732        27     1.025     0.960   7.99   3
        15    649.7296    973.2456 300.0764608 +22.8593017     3352.145     69.36439      1.186     2.05    -12.84965     19.57479     520.8307        23     0.987     0.914 -59.44   0
        16    637.0064   1003.8488 300.0625321 +22.8642636     4378.623     69.38206      1.166     1.84    -13.23305     19.57479     860.4963        24     0.986     0.848 -82.31   3
        17    801.7087    966.4142 300.1260281 +22.9029332     153.8627     69.31134      0.845     3.49    -12.88183     19.57479      33.5885         5     0.782     0.450 -18.23   0
        18    558.2308    964.0710 300.0509612 +22.8292146     683.8717     69.38206      1.084     1.91    -12.67542     19.57479     140.8189         8     0.714     0.640 -60.75   0
        19    382.7214    958.6273 299.9981227 +22.7749765     3205.479     69.38206      1.144     1.98     -12.6587     19.57479     495.6564        23     0.992     0.885  74.43   0
        20    109.2109    959.8513 299.9127035 +22.6932005     1132.625     69.38206      3.561     3.55     1.558308     19.57479     36.46339         5     1.134     0.321 -70.50   2
        21    731.5160   1006.8063 300.0910037 +22.8934682     296.9623     69.31134      0.981     2.08    -13.12671     19.57479     62.99194         5     0.691     0.450 -65.42   0
        22    165.3724    998.9680 299.9174153 +22.7212781     974.3453     69.38206      4.484     8.77     14.17225     19.57479     34.81239        12     2.241     0.958 -78.56   2
        23    451.9506    960.3069 300.0191120 +22.7962386     415.0105      69.4174      1.147     2.02    -12.67224     19.57479     84.69502         7     0.770     0.590  78.84   0
        24    217.7535   1004.8795 299.9317687 +22.7387038      2334.65     69.39973     13.437    30.59     15.98037     19.57479     64.87225       179     5.904     4.401 -29.54  27
        25     89.3142    946.6097 299.9108339 +22.6834299      1071.81     69.31134      5.296     5.38    -3.690044     19.57479     46.12099        13     1.177     0.886 -28.47   1
        26    415.0424    945.4002 300.0124834 +22.7808855     311.7125     69.38206      1.472     2.33    -12.52207     19.57479     46.44349         5     0.725     0.560  83.06   0
        27     74.8892    940.5983 299.9083103 +22.6773746      1953.89     69.29365     21.035    34.76    -6.824578     19.57479     55.87408       223     8.180     4.099 -11.11   3
        28    928.9739    937.1423 300.1752288 +22.9326964     1167.918     69.38206      1.198     1.85    -13.00379     19.57479     215.5383        10     0.812     0.663 -85.46   0
        29    117.1780    937.1749 299.9225617 +22.6890948     555.2028     69.34671      5.516     5.54    -5.472085     19.57479     23.93676         5     1.153     0.751  80.19   0
        30    239.5205    995.8484 299.9414754 +22.7426522     4076.154     69.38206      7.538    26.50     6.876173     19.57479     100.4776       244     8.678     2.247  70.17  18
        31    718.4178    926.6690 300.1130205 +22.8665438     401.7897     69.39973      1.607     4.79    -12.66403     19.57479     45.16537         7     1.724     0.377  79.09   0
        32    924.4534    989.7172 300.1566977 +22.9464338       396.86      69.4174      1.059     2.16     -12.9948     19.57479     65.51556         5     0.687     0.453  66.35   0
        33     61.4653    977.4281 299.8921492 +22.6838957     2102.648     69.36439     18.821    25.13    -2.230085     19.57479     58.59269       135     5.013     3.499 -20.12   3
        34     78.0473    969.6248 299.8998405 +22.6866407     2704.818     69.39973     26.370    69.19    0.3367618     19.57479     66.05835      1082    13.661     9.722  55.71  19
        35    752.8190    920.2066 300.1258414 +22.8750079     492.2499     69.34671      1.161     2.64    -12.75078     19.57479     84.11743         8     0.850     0.630  20.55   0
        36    774.7698    913.9512 300.1347172 +22.8797963     5670.882     69.39973      1.124     1.74     -12.7219     19.57479     1197.028        30     0.979     0.944 -66.56   0
        37    820.3033    913.9142 300.1489179 +22.8934415      182.517     69.55856      1.107     2.88    -12.81115     19.57479     42.78416         7     0.751     0.638  86.94   0
        38    965.6784    913.2072 300.1944672 +22.9368291     215.9284     69.31134      1.066     2.11    -12.82156     19.57479     48.97836         5     0.701     0.444 -74.41   0
        39    227.7779    987.8974 299.9404148 +22.7368470     1539.715     69.31134      6.359    12.35     8.883549     19.57479     53.89433        35     2.458     1.727  -8.38   3
        40    783.3144    896.0455 300.1432091 +22.8772196     715.4496     69.36439      1.103     1.87     -12.5738     19.57479     144.9708         9     0.720     0.697  14.08   0
        41    821.5142    889.5974 300.1572121 +22.8868245     432.1413     69.31134      1.089     2.72    -12.62566     19.57479     69.45169         5     0.702     0.456  67.41   0
        42    544.8937   1010.8691 300.0315691 +22.8386350     1166.036     69.50566      1.200     1.94    -13.20495     19.57479     218.2179        15     0.994     0.802 -11.76   0
        43    869.9914    880.8885 300.1751565 +22.8988607     329.7317     69.31134      1.237     3.43    -12.71079     19.57479     39.09889         5     0.641     0.584  -0.78   0
        44    721.4145    879.3502 300.1293594 +22.8538627      402.014     69.39973      1.079     2.22    -12.30209     19.57479      72.1943         7     0.843     0.487  84.08   0
        45    433.7872    876.2227 300.0408361 +22.7666715     2013.961     69.36439      1.156     1.91    -12.29449     19.57479     377.3088        18     0.962     0.818 -89.43   0
        46    159.1668    862.0927 299.9600487 +22.6801834     412.6544     69.32903      1.174     1.84    -11.73354     19.57479     84.98427         8     0.740     0.630 -36.56   0
        47    136.3617    859.0995 299.9539368 +22.6724778     783.7033     69.39973      1.176     2.08    -11.85238     19.57479     133.3359        11     0.840     0.712  13.15   0
        48   1007.7859    847.7147 300.2289205 +22.9306442     1011.732     69.32903      1.113     2.05    -12.51556     19.57479     189.1424        13     0.870     0.797  18.87   0
        49    962.2542    846.2128 300.2152094 +22.9165648     1104.232     69.38206      1.192     1.83    -12.50117     19.57479     214.4785        12     0.839     0.751 -15.97   0
        50    745.7089    840.1000 300.1497040 +22.8498832     261.1889     69.54093      1.044     2.00    -12.03161     19.57479     72.49319         6     0.682     0.562 -33.65   0
        51    613.8842    834.3088 300.1105317 +22.8086826     2382.746     69.54093      1.100     1.88    -11.92511     19.57479     464.8111        20     0.933     0.831 -89.59   0
        52    416.0546    831.2289 300.0499640 +22.7484442     305.2034     69.38206      1.204     1.84     -11.9449     19.57479     62.08094         6     0.689     0.525  46.57   0
        53    164.0340    828.2258 299.9725831 +22.6719359     734.0729     69.39973      1.262     2.28    -11.83491     19.57479     110.7179        12     0.983     0.774 -56.72   0
        54    634.1597    826.8911 300.1192592 +22.8126357     262.2754     69.38206      0.987     2.64    -11.90289     19.57479     58.50993         5     0.628     0.555  78.15   0
        55    183.5275    825.7085 299.9794602 +22.6770668     209.0088     69.54093      1.244     3.17    -11.81158     19.57479     50.58851         6     0.863     0.511 -45.76   0
        56    789.8262    813.8790 300.1719838 +22.8555855     2065.366     69.38206      1.092     1.66    -11.82619     19.57479     478.8257        16     0.922     0.753 -88.29   0
        57   1006.7698    814.0624 300.2395569 +22.9206742      535.632     69.39973      0.982     1.81    -12.27104     19.57479     122.4124         8     0.715     0.616  55.11   0
        58    506.5908    806.6841 300.0861226 +22.7685684     310.4193     69.32903      1.014     2.40    -11.79586     19.57479     49.05021         5     0.677     0.474  74.19   0
        59    153.1180    804.5775 299.9768865 +22.6618788     575.7749     69.34671      1.272     3.27    -11.93208     19.57479     81.49652        10     1.055     0.609  68.15   0
        60    302.9572    796.7991 300.0259931 +22.7046272     26127.77     69.38206      1.207     1.91    -11.66665     19.57479      4797.74        58     1.138     1.024 -89.66   0
        61    560.7687    795.8344 300.1065164 +22.7817085     785.2555     69.39973      1.129     1.76    -11.69321     19.57479     160.8021        10     0.789     0.698  49.07   0
        62    973.6706    794.7515 300.2355186 +22.9052072      478.048     69.36439      1.116     2.09    -12.12612     19.57479     81.83129         6     0.700     0.523  49.87   0
        63    231.2996    795.0338 300.0042898 +22.6826126      242.302     69.36439      1.223     3.35    -11.69896     19.57479     44.65427         5     0.796     0.407  72.17   0
        64    589.5795    791.5369 300.1168840 +22.7891176     462.5891     69.34671      1.101     2.41    -11.64635     19.57479     81.14607         9     0.893     0.647  57.12   0
        65    600.6081    789.9123 300.1208463 +22.7919594      239.745     69.29365      0.988     3.59     -11.6221     19.57479     49.34283         6     0.937     0.531  27.18   0
        66    705.7770    786.1782 300.1548131 +22.8224297     212.7494     69.38206      1.287     4.64    -11.69233     19.57479     33.97447         8     0.964     0.635  80.67   0
        67    352.6311    774.0352 300.0488474 +22.7130058     15250.48     69.39973      1.179     1.93    -11.44799     19.57479     2619.217        41     1.074     0.976  77.06   0
        68    366.9007    774.5623 300.0531140 +22.7174391     1037.924     69.38206      1.211     2.07    -11.44704     19.57479     166.5406        13     0.967     0.697  67.12   0
        69    875.6461    769.5677 300.2131507 +22.8685920     1386.591      69.4174      1.033     1.90    -11.62606     19.57479     244.4123        14     0.905     0.713  73.77   0
        70    363.6953    768.4152 300.0541171 +22.7147139     306.0385     69.31134      1.186     4.05    -11.39464     19.57479     44.72556         7     0.879     0.803 -73.77   0
        71    633.2802    765.8057 300.1388635 +22.7948401      373.961     69.31134      1.113     2.93    -11.41954     19.57479     82.23434         8     1.022     0.579 -19.24   0
        72    234.9325    765.8102 300.0149275 +22.6753228     305.6401     69.38206      1.054     2.30     -11.4632     19.57479     77.02868         8     0.784     0.641 -39.59   0
        73    480.7816    760.7928 300.0930232 +22.7476580     337.7547     69.34671      1.151     3.07    -11.32859     19.57479     78.19103         8     0.990     0.598 -84.16   0
        74     39.2849    761.6256 299.9554983 +22.6153874     220.8572     69.36439      1.061     3.67     -11.7848     19.57479      48.2846         5     0.834     0.480 -46.88   0
        75    881.7556    757.3679 300.2190248 +22.8669198     174.3853     69.43506      0.828     1.70    -11.56564     19.57479     62.55647         5     0.649     0.460 -18.50   0
        76     68.1673    755.2945 299.9665288 +22.6222446     334.0289     69.36439      1.252     4.06    -11.65896     19.57479     51.33799         6     0.891     0.604 -83.36   0
        77    232.7430    750.1881 300.0193293 +22.6701855     274.8906     69.36439      1.114     2.98    -11.33648     19.57479     42.29003         6     0.730     0.629   6.67   0
        78    525.7035    738.7181 300.1141856 +22.7547994     296.9981      69.5233      1.240     2.05    -11.05989     19.57479     52.75706         5     0.691     0.442  77.66   0
        79    547.5178    736.1141 300.1218228 +22.7605955     604.2333     69.50566      1.111     2.09    -11.01787     19.57479     121.1946        10     0.853     0.679  45.01   0
        80    941.9789    734.9747 300.2450869 +22.8785391     2238.189     69.34671      1.089     1.76    -11.38389     19.57479     494.0353        14     0.868     0.694  77.23   0
        81    930.3843    726.4360 300.2442496 +22.8726115     790.9161     69.38206      0.988     2.02    -11.25413     19.57479     131.8314        11     0.990     0.573 -77.43   0
        82    293.4120    720.3784 300.0478880 +22.6798436     443.0049     69.36439      1.046     2.19    -11.16091     19.57479     86.31297         9     0.872     0.611  88.40   0
        83    757.1324    717.6700 300.1931017 +22.8181601     1276.032     69.43506      1.265     4.66    -11.40357     19.57479     233.7624        17     1.350     0.837   2.62   0
        84    961.4830    716.3569 300.2572260 +22.8790364      780.445     69.34671      1.033     2.02     -11.3584     19.57479     139.7397        11     0.838     0.728  81.09   0
        85    838.7697    703.4427 300.2231699 +22.8385478     244.0038      69.4174      1.250     4.10    -11.25338     19.57479     35.50607         6     1.048     0.459  57.68   0
        86    875.2777    694.6227 300.2374186 +22.8469574     72334.57     69.34671      1.099     1.80    -11.15447     19.57479     13224.92       102     1.193     1.075  76.31   0
        87    637.8017    698.5945 300.1621372 +22.7769032     178.5281     69.20512      1.015     3.43    -10.99985     19.57479     33.20496         5     0.734     0.463  16.64   0
        88   1022.3027    696.3051 300.2827179 +22.8915009     608.3377     61.03317      1.111     1.79     -11.3618     19.57479     150.8708        10     0.901     0.623 -30.50  24
        89    727.7034    695.1287 300.1912659 +22.8028645     386.0182     69.48801      1.185     1.92    -11.20849     19.57479     79.47104         7     0.743     0.581  73.70   0
        90    561.6575    683.4659 300.1433504 +22.7497256     912.4849      69.4174      1.167     2.18    -10.91095     19.57479     140.2908        14     0.927     0.818 -69.95   0
        91    742.7584    680.7938 300.2006188 +22.8032620     4589.802      69.4174      1.138     1.85    -11.11788     19.57479     894.4284        27     0.989     0.896  65.95   0
        92    244.2631    676.2384 300.0469646 +22.6524332     2495.083     69.38206      1.253     2.07    -11.19334     19.57479     408.3064        22     1.140     0.875  75.12   0
        93    326.2775    674.2300 300.0731180 +22.6764670     528.4672     69.36439      1.154     2.46    -11.11818     19.57479     82.72245        10     0.852     0.720  62.68   0
        94    526.3475    661.8244 300.1393979 +22.7329240     1548.002     69.39973      1.190     2.18    -10.83128     19.57479     250.8258        17     0.936     0.885  40.51   0
        95    516.6501    655.4809 300.1384427 +22.7281948     697.9536     69.39973      1.231     2.52    -10.76993     19.57479     87.15234        12     0.921     0.791 -54.59   0
        96    179.6478    651.7860 300.0348327 +22.6260282        311.3     69.38206      1.290     1.87    -11.23899     19.57479     53.86421         5     0.652     0.468  77.82   0
        97    250.4974    646.8260 300.0584678 +22.6458670     260.4764     69.34671      1.331     2.95    -11.18777     19.57479     38.22302         5     0.744     0.452 -68.71   0
        98    219.9139    646.7191 300.0489955 +22.6366588     381.2699      69.5233      1.317     3.75    -11.22768     19.57479     44.47792         6     0.988     0.523 -47.41   0
        99    963.0958    646.5322 300.2804413 +22.8594600     245.9162      69.5233      1.096     2.07    -11.03083     19.57479     54.51658         5     0.692     0.464 -20.93   0
       100    441.2937    645.3872 300.1182750 +22.7026957     892.4451     69.31134      1.222     2.17    -10.86796     19.57479     133.0754        10     0.839     0.714  81.95   0
       101     95.2999    640.3763 300.0123340 +22.5974401      9733.88     69.32903      1.210     2.18    -11.24049     19.57479      1392.56        38     1.115     1.001  82.62   0
       102   1016.6664    642.3271 300.2985169 +22.8743026      459.047      69.4174      1.200     2.09    -10.98354     19.57479     83.61369         6     0.782     0.469   0.00   0
       103     16.5240    641.6894 299.9874382 +22.5741695      402.629      69.5233      1.292     4.37    -11.22535     19.57479      54.8886         8     1.023     0.630 -50.89   0
       104    561.3603    639.7262 300.1574832 +22.7370811     241.6349     69.36439      1.116     3.81    -10.60587     19.57479     37.91122         5     0.904     0.461 -43.50   0
       105    526.0671    640.3624 300.1462903 +22.7266796     521.6012     69.36439      1.233     2.08    -10.62494     19.57479     78.09583         7     0.696     0.625 -14.52   0
       106    944.1995    626.6469 300.2810158 +22.8480846     450.4403     69.38206      0.999     2.09     -11.0867     19.57479     102.1357         8     0.885     0.484 -58.01   0
       107     41.3854    624.2328 300.0008356 +22.5766273     757.3997     69.36439      1.719     5.26    -11.23001     19.57479     70.78801        16     1.490     0.716 -75.85   0
       108    490.0384    621.2823 300.1412816 +22.7103976     189.0652     69.34671      1.188     3.40    -10.42679     19.57479     34.37621         8     0.956     0.591 -63.56   0
       109    884.3752    619.2681 300.2647630 +22.8280381      635.069     69.36439      1.693     2.17    -11.13599     19.57479     55.22832         6     0.676     0.584 -41.62   0
       110    446.3266    613.5346 300.1301987 +22.6950637     367.7435      69.4174      1.126     2.94    -10.66895     19.57479     50.50945         7     0.846     0.590  70.18   0
       111    641.7828    611.0958 300.1918336 +22.7529758     188.1101     69.29365      1.174     4.07    -10.40719     19.57479     36.35798         6     1.134     0.418  59.97   0
       112    594.5170    612.1831 300.1767623 +22.7391163     295.9489     69.34671      1.270     3.77    -10.32649     19.57479     43.40922         5     0.828     0.603  48.58   0
       113    611.8717    609.9177 300.1829025 +22.7436695     115.4272     69.50566      1.133     2.56    -10.30455     19.57479     43.57466         6     0.777     0.622  82.15   0
       114    490.6389    609.1445 300.1454152 +22.7070937     437.2352     69.38206      1.214     2.54    -10.30205     19.57479     65.72746         8     0.854     0.638 -11.19   0
       115    456.0827    604.8270 300.1360656 +22.6954906      849.413     69.38206      1.257     2.00    -10.52298     19.57479     147.1207        14     0.922     0.829  69.82   0
       116    924.2751    604.6507 300.2819560 +22.8357947     1542.165     69.38206      1.051     1.85    -11.13402     19.57479     305.1988        14     0.809     0.766  79.45   0
       117   1022.4145    602.4188 300.3132881 +22.8645565     431.8108     60.32593      1.025     2.29    -10.86666     19.57479     76.63078         5     0.666     0.483  78.02  16
       118     18.0485    598.5787 300.0019285 +22.5622658     2346.023     69.39973      1.233     2.15    -11.12152     19.57479     353.7416        21     0.997     0.916  73.10   0
       119    319.4304    591.5689 300.0978679 +22.6506957     4415.367     69.38206      1.159     2.20     -10.9749     19.57479     620.9119        24     1.032     0.884  89.70   0
       120    441.9124    588.5944 300.1369343 +22.6865815     4336.494     69.29365      1.258     2.14    -10.55466     19.57479     680.2612        28     1.068     0.946  86.74   0
       121    853.4301    582.4836 300.2670776 +22.8081973     1039.809     69.39973      1.182     2.15    -10.86655     19.57479     126.4666        13     0.930     0.818 -22.44   0
       122    938.0859    579.7275 300.2943662 +22.8327717     6037.831     69.50566      1.128     1.76    -10.94929     19.57479     1166.314        28     1.022     0.891 -77.91   0
       123    502.4314    578.1832 300.1591517 +22.7017426     5554.798     69.36439      1.197     2.11    -10.26245     19.57479     807.5076        29     1.050     0.932  70.80   0
       124    229.9946    573.7961 300.0758389 +22.6187641     666.4691     69.22283      1.200     2.56    -11.16088     19.57479      101.163        11     0.895     0.786 -73.06   0
       125    671.8028    573.6454 300.2133595 +22.7512215     293.3083     69.38206      1.181     1.78    -10.48687     19.57479     55.84024         5     0.690     0.426  23.67   0
       126    476.7137    571.0311 300.1534733 +22.6919772     132.5712     69.36439      1.126     4.53     -10.2562     19.57479     27.77411         6     0.911     0.641  50.78   0
       127    434.1165    566.3334 300.1417458 +22.6778539     2055.257     69.48801      1.278     2.35    -10.44752     19.57479     284.8108        19     1.010     0.916  72.22   0
       128    776.9609    566.0547 300.2485872 +22.7805612     440.3112     69.38206      1.129     2.28    -10.54929     19.57479      70.1753         7     0.815     0.529  47.03   0
       129    412.7166    564.7310 300.1356088 +22.6709758     567.2405     69.48801      1.169     2.36    -10.52045     19.57479     80.88925        11     0.910     0.699  81.82   0
       130    166.4804    564.1545 300.0592322 +22.5969405     359.4194     69.36439      1.206     2.60     -10.8403     19.57479     60.73645         7     0.888     0.482 -79.89   0
       131    853.8527    561.7311 300.2739564 +22.8023619      747.609     69.39973      1.216     2.41    -10.67777     19.57479     116.6385        10     0.910     0.665 -59.50   0
       132    550.7565    553.8808 300.1820940 +22.7092562     98984.17     69.36439      1.267     2.10    -10.25349     19.57479     16016.27       126     1.285     1.256 -69.13   0
       133    236.8862    553.8045 300.0844800 +22.6150960       1808.9     69.31134      1.322     2.20    -11.10107     19.57479     279.4513        21     1.070     0.959 -69.58   0
       134    734.2980    558.3385 300.2378032 +22.7655582     438.0105     69.47037      1.308     2.38    -10.40457     19.57479     69.92618         6     0.709     0.565  56.95   0
       135    441.4963    534.0414 300.1545391 +22.6707978     1276.391     69.39973      1.258     2.16    -10.24388     19.57479     170.4914        16     0.956     0.801  87.48   0
       136    838.2892    520.2998 300.2825738 +22.7857949     835.3276     69.54093      1.116     2.11    -10.52383     19.57479     136.4397        12     0.876     0.703  54.42   0
       137    709.5808    517.9882 300.2432197 +22.7465601     1349.405     69.34671      1.263     2.11    -10.37497     19.57479     197.9662        18     1.001     0.881  76.85   0
       138    496.8585    514.0123 300.1782771 +22.6816489      415.975     69.34671      1.534     2.32    -9.932464     19.57479     59.98104         8     0.790     0.643  63.43   0
       139    966.8834    511.8724 300.3254055 +22.8218994     667.8683     69.50566      1.172     1.85    -10.53196     19.57479     120.7461        10     0.807     0.665  84.96   0
       140    952.5054    510.8274 300.3212614 +22.8172920     375.9309     69.29365      1.021     2.77    -10.58355     19.57479     51.70836         8     0.843     0.629 -42.52   0
       141    838.6317    510.3206 300.2859243 +22.7830303     1046.704     69.38206      1.325     3.97    -10.53118     19.57479     153.0185        16     1.429     0.758  76.47   0
       142    591.9419    508.5725 300.2096435 +22.7085939     368.8018     69.38206      1.603     3.14    -9.985934     19.57479     40.46762         5     0.745     0.600  80.02   0
       143    876.6755    505.3782 300.2993895 +22.7930088     2123.969     69.36439      1.130     2.05    -10.58148     19.57479     319.2456        17     0.943     0.822  79.96   0
       144    537.8645    501.0890 300.1952406 +22.6902329     100.6657     69.50566      0.990     3.17     -9.82628     19.57479      34.9945         5     0.777     0.513  35.81   0
       145    968.4680    495.6668 300.3311671 +22.8177164     295.9669     69.43506      0.983     2.17    -10.51054     19.57479     58.85308         5     0.660     0.470 -68.89   0
       146    108.7429    496.0695 300.0634204 +22.5600840      460.921     69.39973      1.108     2.43    -10.58905     19.57479     85.41927         9     0.854     0.647  31.34   0
       147    101.1121    485.6759 300.0644272 +22.5548127     197.4056     69.50566      1.250     3.82    -10.58433     19.57479     33.86668         5     0.857     0.489 -51.48   0
       148    650.2911    475.9296 300.2384220 +22.7167092     377.3635     69.54093      1.119     1.69    -10.09939     19.57479     75.08932         7     0.654     0.607  75.29   0
       149    710.8291    467.9878 300.2598590 +22.7325714     378.8626     69.38206      1.238     4.14    -10.23975     19.57479     62.43846         7     0.896     0.657  79.78   0
       150    868.3177    464.0837 300.3102049 +22.7786384     550.4424     69.50566      1.205     3.07    -10.55769     19.57479     91.46538        10     0.933     0.758 -43.70   0
       151    852.3235    460.4863 300.3063883 +22.7728129     252.3687     69.50566      1.026     2.35     -10.5378     19.57479     50.26495         5     0.673     0.485  14.82   0
       152    596.8246    458.8260 300.2273308 +22.6957710     1571.608     69.34671      1.305     2.13    -9.726125     19.57479     238.3952        20     1.089     0.903  88.84   0
       153    957.2516    457.1874 300.3401749 +22.8032968     243.8209      69.4174      1.250     2.78    -10.41092     19.57479     40.02279         5     0.710     0.669 -19.88   0
       154   1008.0011    437.6348 300.3623567 +22.8128759     655.4128     69.34671      1.147     2.16    -10.08327     19.57479     117.4395        10     0.848     0.656  86.27   0
       155    966.3501    436.4130 300.3497631 +22.8000505     486.2392     69.43506      1.119     2.21     -10.2711     19.57479     80.12488        10     0.793     0.738 -61.99   0
       156    880.1650    436.7886 300.3227679 +22.7743433      257.415     69.38206      1.374     3.66    -10.49559     19.57479     39.94724         5     1.045     0.369  87.91   0
       157    707.2596    432.4118 300.2703074 +22.7212814     569.7325     69.36439      1.444     2.92    -10.08909     19.57479     59.97194        10     0.975     0.686  77.41   0
       158    211.3267    431.6834 300.1162214 +22.5723860     385.7115     69.50566      1.594     2.62    -10.34903     19.57479     36.38449         5     0.799     0.620 -44.55   0
       159    273.7365    426.7828 300.1372156 +22.5896986     1800.624     69.36439      1.286     2.22    -10.10151     19.57479     276.9704        19     0.988     0.891  63.99   0
       160   1006.7023    424.9847 300.3660621 +22.8088503     1876.809     69.27595      1.128     1.92    -9.994273     19.57479     374.9328        17     0.904     0.803  65.72   0
       161    220.9139    421.6341 300.1224664 +22.5723777     3766.766     69.34671      1.253     2.22    -10.31758     19.57479     561.7595        27     1.067     0.950 -89.45   0
       162    986.5601    416.0778 300.3626736 +22.8002576     857.3181     69.36439      1.202     2.55     -10.0523     19.57479     132.4192        12     0.903     0.797  70.83   0
       163    361.6958    415.7294 300.1681607 +22.6129037     2303.286     69.48801      1.268     2.14    -9.840238     19.57479     360.0924        24     1.069     1.003  44.77   0
       164    605.8645    412.3023 300.2452621 +22.6851178       8972.4     69.48801      1.289     2.21    -9.597898     19.57479      1270.69        39     1.154     1.016  74.21   0
       165    623.8193    412.1742 300.2508946 +22.6904622     379.1143     69.36439      1.851     5.39    -9.655478     19.57479      45.4668         7     1.612     0.509 -56.25   0
       166    939.3956    394.8501 300.3548617 +22.7800301      424.425     69.36439      1.401     2.75    -10.22394     19.57479      76.9406         6     0.918     0.488 -87.29   0
       167    160.5621    392.5847 300.1131453 +22.5459381     950.1321     69.38206      1.261     2.45    -10.10938     19.57479     132.9406        14     0.990     0.809  67.94   0
       168    546.4868    381.8052 300.2366831 +22.6585614      3048.91     69.31134      1.228     2.29    -9.240547     19.57479     461.1193        21     1.102     0.844  80.35   0
       169    959.9638    381.8239 300.3655077 +22.7824453     439.0988     69.39973      1.172     2.36    -10.10488     19.57479      91.2209         9     0.881     0.612  55.92   0
       170    261.4105    381.1262 300.1482152 +22.5728970     323.3953     69.38206      1.314     4.22    -9.813249     19.57479     36.17633         8     0.873     0.695  29.85   0
       171    660.0370    371.6862 300.2753270 +22.6896845     280.8833     69.36439      1.141     3.82    -9.388657     19.57479     35.06384         6     0.875     0.570  88.49   0
       172    750.6610    370.6316 300.3039002 +22.7165347     569.6938      69.4174      1.279     2.65     -9.81807     19.57479     80.11706         9     0.940     0.598  82.27   0
       173    453.1370    368.0913 300.2120841 +22.6266411     2817.525     69.47037      1.304     2.39    -9.131843     19.57479     391.3179        22     1.032     0.933  70.41   0
       174    845.0032    362.4409 300.3359617 +22.7424424     747.7142     69.39973      1.389     2.52    -10.10927     19.57479     97.17632        14     0.928     0.882 -74.34   0
       175    942.2282    362.4290 300.3662774 +22.7715582     405.3695     69.34671      1.109     1.91    -10.05966     19.57479     55.56057         5     0.637     0.491   9.19   0
       176    437.8309    356.6556 300.2110359 +22.6187686     253.5154     69.39973      1.197     3.49    -9.085635     19.57479     40.97097         5     0.953     0.369 -85.66   0
       177    340.6025    347.3238 300.1838205 +22.5869397     1084.196     69.29365      1.211     2.25    -9.234968     19.57479     155.8278        13     0.898     0.800 -81.83   0
       178     59.1163    344.6952 300.0971801 +22.5017644     414.6603     69.55856      1.104     2.11    -9.679762     19.57479     84.86086         8     0.759     0.608  81.69   0
       179    310.0389    336.8287 300.1777238 +22.5747624     14369.63      69.4174      1.348     2.41    -9.348188     19.57479     1947.554        48     1.217     1.072  81.96   0
       180    844.6880    334.0652 300.3450803 +22.7341918     651.4863     69.47037      1.203     2.80    -9.881653     19.57479     95.95627        11     0.888     0.802  46.73   0
       181      6.4292    324.7352 300.0872975 +22.4802310     2365.171     69.39973      1.284     2.30     -9.52857     19.57479     297.3591        22     1.014     0.968 -70.97  16
       182    183.8149    322.9599 300.1429855 +22.5329299     195.3115     69.39973      1.282     3.95     -9.53449     19.57479     33.73584         5     0.867     0.516  36.15   0
       183    408.2330    322.3097 300.2129819 +22.6000327     298.7498     69.34671      1.383     3.42    -8.954274     19.57479     35.47009         5     0.770     0.440  13.09   0
       184    720.4240    316.3646 300.3121058 +22.6918814     879.6974     69.39973      1.201     2.60    -9.086654     19.57479     111.2763        15     1.043     0.797 -80.19   0
       185    935.5272    309.2205 300.3814700 +22.7542541     328.6429     69.39973      1.168     2.30    -9.860113     19.57479     57.02201         5     0.706     0.448  66.28   0
       186    382.1955    300.9042 300.2118330 +22.5860802      1027.05     69.29365      1.544     4.46    -9.016893     19.57479     103.9978        18     1.458     0.869  74.86   0
       187    821.2369    293.6844 300.3508852 +22.7155606     249.7598     69.36439      1.191     3.34    -9.452474     19.57479     39.27962         6     0.715     0.648  78.02   0
       188    457.7828    280.4916 300.2419789 +22.6028747     460.8828     69.31134      1.343     2.36    -8.774128     19.57479     94.90443        11     0.922     0.763  72.07   0
       189    702.8870    272.3046 300.3209504 +22.6739657     1096.657     69.55856      1.299     2.52    -8.761707     19.57479     142.5105        14     0.982     0.754  83.10   0
       190    964.0839    266.6268 300.4042072 +22.7505573     1687.057     69.38206      1.216     2.09    -9.750306     19.57479     263.9103        18     1.083     0.810  67.08   0
       191    410.8228    256.0854 300.2352915 +22.5817895     247.8429     69.32903      1.396     4.44    -8.747756     19.57479      33.1769         7     0.988     0.788 -17.41   0
       192     86.1986    250.4681 300.1361894 +22.4828466     662.9811     69.34671      1.599     4.10    -9.348981     19.57479     64.66731        16     1.219     0.937 -35.10   0
       193    979.8262    246.4635 300.4156639 +22.7494720     329.2053     69.38206      1.360     3.43    -9.714499     19.57479     39.98005         5     0.849     0.547  50.36   0
       194    774.7680    233.1673 300.3560531 +22.6842470     282.0851     69.43506      1.297     2.72    -8.988275     19.57479     53.33826         7     0.764     0.637  80.50   0
       195    872.5255    222.6413 300.3899395 +22.7104955     985.0785     69.36439      1.216     2.50    -9.221383     19.57479     139.6787        15     0.962     0.823  71.01   0
       196    291.3252    220.3079 300.2097377 +22.5356946      1024.63     69.54093      1.268     2.67    -9.116851     19.57479     127.2292        13     0.953     0.774  64.36   0
       197    369.1589    215.4535 300.2355208 +22.5576314     478.7166     69.36439      1.351     3.70    -8.668976     19.57479     65.29589        10     1.159     0.636 -80.14   0
       198    186.1323    207.3756 300.1812321 +22.5004439     284.6315     69.36439      1.134     2.17    -9.106624     19.57479      53.9137         6     0.698     0.587 -59.56   0
       199    723.8400    203.9900 300.3496568 +22.6606067     771.2604     69.38206      1.296     2.79    -8.741762     19.57479     114.8823        13     1.027     0.767  54.53   0
       200    788.9619    203.7842 300.3700150 +22.6800508      305.205     69.39973      1.322     1.85     -8.94804     19.57479     59.28561         7     0.692     0.620 -13.32   0
       201    995.1571    196.3432 300.4367170 +22.7396465     442.2282     69.34671      1.424     3.58    -9.099182     19.57479     69.88058        11     1.066     0.740  60.54   0
       202    727.0435    195.8674 300.3532915 +22.6592313     326.1727     69.36439      1.475     4.87    -8.733007     19.57479     50.93311         7     1.052     0.638 -22.44   0
       203    648.3926    194.9449 300.3290912 +22.6354082     548.9891     69.38206      1.187     2.92    -8.744784     19.57479     79.82845        10     0.939     0.705 -72.22   0
       204    773.8231    192.9110 300.3688269 +22.6723912     829.5939     69.31134      0.495    -0.52    -8.849944     19.57479     631.9646         5     0.382     0.367  -2.77   0
       205    843.6967    186.2906 300.3927528 +22.6914113     608.6992     69.55856      1.192     2.54    -8.934171     19.57479     94.31492        12     0.961     0.734 -84.55   0
       206    574.4630    186.8623 300.3086933 +22.6109384      562.652      69.4174      1.453     2.82    -8.774111     19.57479     65.46606        10     0.948     0.668 -53.66   0
       207    855.7944    185.5227 300.3967732 +22.6948127     419.2916     69.29365      1.378     2.28    -8.943681     19.57479     62.60023         7     0.773     0.620  79.17   0
       208   1016.5349    176.1104 300.4499530 +22.7402256     858.5182     69.48801      1.172     2.22     -8.62183     19.57479     124.5298        12     0.902     0.784  88.54   0
       209    972.3187    175.5743 300.4363353 +22.7268365       508.69     69.36439      1.118     2.45    -8.737453     19.57479     92.37019         8     0.886     0.528  67.24   0
       210    206.7070    169.0852 300.2000550 +22.4956182     329.2494     69.55856      1.131     3.22    -8.848256     19.57479     50.81513         7     0.840     0.585  66.66   0
       211     68.3990    163.8283 300.1587811 +22.4526394     975.9418     69.34671      1.295     2.57    -9.079432     19.57479     134.5241        16     1.036     0.868 -89.32   0
       212     18.1918    160.3960 300.1442993 +22.4365978     273.8145     69.22283      1.546     3.64    -9.065511     19.57479     28.85015         5     0.992     0.385 -84.76   0
       213    891.2946    160.1906 300.4160626 +22.6981568     407.0614     69.32903      1.249     3.82    -8.749338     19.57479     51.01091         8     0.829     0.713   3.18   0
       214    225.8230    157.1320 300.2098767 +22.4979165     2732.078     69.36439      1.337     2.46    -8.740286     19.57479     347.3888        26     1.156     0.964 -89.88   0
       215     10.1462    151.6383 300.1446423 +22.4316711     598.0136     69.38206      1.369     2.77    -9.049566     19.57479     79.46706        12     0.898     0.847 -77.94   0
       216    209.5817    148.1104 300.2077555 +22.4904570     251.3318     69.31134      1.216     2.76    -8.776369     19.57479     43.63099         6     0.732     0.608  34.61   0
       217   1023.7247    144.1994 300.4625530 +22.7331978     4187.381     53.61062      0.950     2.29    -8.045822     19.57479     1162.755        17     1.088     0.515 -88.83  24
       218    869.8226    138.3072 300.4164706 +22.6854352     1630.081     69.31134      1.246     2.44    -8.698327     19.57479     213.3722        17     1.118     0.829 -89.48   0
       219    973.4796    137.1554 300.4491665 +22.7161332     1257.348     69.36439      1.118     2.08    -8.349248     19.57479     194.9973        13     0.931     0.687  71.36   0
       220    419.1474    133.7231 300.2775984 +22.5491343      355.454      69.4174      1.272     3.85    -8.607956     19.57479     42.89588         8     0.991     0.641  32.33   0
       221    347.1944    123.6621 300.2584792 +22.5246821     336.8887     69.36439      1.362     3.34    -8.611882     19.57479     39.05948         5     1.110     0.291  55.70   0
       222    109.5698    123.0522 300.1848042 +22.4532781     333.9501      69.4174      1.316     2.27      -8.9684     19.57479     42.61109         6     0.746     0.493  84.81   0
       223      7.8196    122.3055 300.1534377 +22.4225537     238.5307     69.31134      1.331     3.95    -8.989773     19.57479     32.68602         6     0.932     0.586  65.74   0
       224    470.8229    121.1440 300.2977603 +22.5610035     721.1244     69.39973      1.310     2.65    -8.569426     19.57479     89.37741        12     0.898     0.813   1.24   0
       225    398.9262    121.1970 300.2753717 +22.5394763     373.9167     69.29365      1.732     4.53    -8.590596     19.57479     31.10239         6     1.038     0.562 -80.92   0
       226    855.9707    113.4016 300.4202346 +22.6741258     8230.189     69.34671      0.635     0.93    -8.627891     19.57479     3967.043        10     0.527     0.421  87.64   0
       227    244.7531    100.9771 300.2339832 +22.4874637     2947.057     69.39973      1.375     2.47    -8.676261     19.57479     400.1444        24     1.124     0.955  79.19   0
       228     95.9512    100.5523 300.1878729 +22.4427348     361.2726      69.4174      1.269     1.99    -8.947918     19.57479     62.71826         8     0.768     0.607 -84.86   0
       229      6.8151     91.4145 300.1631480 +22.4133849     214.6123     69.32903      1.329     4.15    -8.939945     19.57479     29.77427         5     0.909     0.540  50.77   0
       230    490.8271     86.2171 300.3153185 +22.5569599     2989.652     69.39973      1.353     2.38     -8.49276     19.57479     394.4545        26     1.157     0.971  66.41   0
       231    376.5045     85.9753 300.2798243 +22.5226384     186.3193     69.29365      1.223     4.19    -8.550411     19.57479     31.00808         6     1.009     0.498  86.78   0
       232    743.2512     75.5316 300.3973924 +22.6294881      489.244     69.36439      1.370     3.31     -8.29126     19.57479     54.34492         9     1.020     0.589 -60.69   0
       233    835.8654     74.8421 300.4264786 +22.6570173     246.8628     69.36439      1.230     2.28    -8.520518     19.57479     49.88964         6     0.750     0.520  41.99   0
       234    619.1212     66.2864 300.3617258 +22.5896592     3052.764      69.5233      1.287     2.26    -8.445119     19.57479     399.4394        24     1.093     0.930  81.56   0
       235    393.9719     65.2280 300.2919891 +22.5219110     854.2947     69.34671      1.481     2.91    -8.478434     19.57479     92.91349        14     0.986     0.898 -69.02   0
       236    660.6135     63.8809 300.3754286 +22.6013935     390.7393     69.36439      1.360     2.65    -8.444752     19.57479     55.59333         6     0.727     0.606 -20.29   0
       237    676.0117     59.5286 300.3816368 +22.6047532     336.0034     69.39973      1.388     3.39    -8.403654     19.57479     38.41873         6     0.893     0.540  66.29   0
       238    946.3452     56.9128 300.4667408 +22.6849288     193.5455      69.4174      1.235     4.05    -8.392467     19.57479     42.05593         8     0.941     0.752  53.99   0
       239    714.8299     55.3699 300.3950784 +22.6151809     235.8007     69.34671      1.080     4.22    -8.196308     19.57479      37.2676         5     0.905     0.562  47.65   0
       240    663.4390     51.0632 300.3804668 +22.5985544     1256.998     69.38206      1.284     2.72    -8.358333     19.57479      150.298        18     1.008     0.921 -74.62   0
       241    678.4337     50.2759 300.3853928 +22.6028181     402.8451     69.38206      1.656     4.56    -8.319717     19.57479      47.9294         6     1.277     0.463  46.20   0
       242    749.8387     42.7444 300.4100817 +22.6220322     752.2839     69.38206      1.300     2.46    -8.056499     19.57479     98.89771        11     0.836     0.782 -89.42   0
       243    687.6617     36.1036 300.3928647 +22.6015063     386.1908     69.47037      1.317     3.73      -8.1684     19.57479     45.85366         7     0.766     0.625 -67.81   0
       244    493.4121     35.4751 300.3325841 +22.5431512     657.5714     69.39973      1.796     2.77    -8.370401     19.57479     63.30275         9     0.896     0.688  60.50   0
       245     66.7174     35.2830 300.1999633 +22.4152295     438.4121     69.50566      1.735     2.39    -8.939945     19.57479     48.57117         6     0.695     0.605  50.33   0
       246    397.3577     33.1166 300.3034589 +22.5136985     390.8453     69.34671      1.326     4.50    -8.384509     19.57479     48.38498         8     1.159     0.530 -70.72   0
       247    227.8785   1020.0526 299.9299741 +22.7460932     622.5297     68.61794      1.985     5.41     19.72616     19.57479      74.1077        13     1.381     1.063  -5.49  16
       248    736.7831     23.9225 300.4121192 +22.6127108     398.3993     69.38206      1.504     3.31     -7.84489     19.57479     39.53659         7     0.861     0.627  35.49   0
       249    232.3646    993.8995 299.9398859 +22.7399446     2103.047     69.36439      6.696     9.54     9.388649     19.57479     56.90577        42     2.118     1.668  70.56   3
       250    729.9776     15.8317 300.4126231 +22.6083467     483.5029     69.38206      1.619     2.58    -7.812685     19.57479     60.88313         7     0.724     0.656  37.31   0
       251    691.3212     10.4135 300.4023376 +22.5952150     204.9525     69.38206      1.437     3.43    -7.954667     19.57479     34.12263         5     0.769     0.441  20.28   0
       252    353.4071   1017.8041 299.9697341 +22.7831425     355.1298     69.22283      1.268     2.48    -13.19547     19.57479     51.02935         5     0.722     0.437 -66.94   0
       253    197.1122   1005.8371 299.9250416 +22.7327793     1856.883     69.36439      9.252    16.98     16.33227     19.57479     47.27039        69     3.695     2.169 -33.96  19
