#   1 NUMBER                 Running object number                                     
#   2 X_IMAGE                Object position along x                                    [pixel]
#   3 Y_IMAGE                Object position along y                                    [pixel]
#   4 ALPHA_J2000            Right ascension of barycenter (J2000)                      [deg]
#   5 DELTA_J2000            Declination of barycenter (J2000)                          [deg]
#   6 FLUX_APER              Flux vector within fixed circular aperture(s)              [count]
#   7 FLUXERR_APER           RMS error vector for aperture flux(es)                     [count]
#   8 FLUX_RADIUS            Fraction-of-light radii                                    [pixel]
#   9 FWHM_IMAGE             FWHM assuming a gaussian core                              [pixel]
#  10 BACKGROUND             Background at centroid position                            [count]
#  11 THRESHOLD              Detection threshold above background                       [count]
#  12 FLUX_MAX               Peak flux above background                                 [count]
#  13 ISOAREA_IMAGE          Isophotal area above Analysis threshold                    [pixel**2]
#  14 A_IMAGE                Profile RMS along major axis                               [pixel]
#  15 B_IMAGE                Profile RMS along minor axis                               [pixel]
#  16 THETA_IMAGE            Position angle (CCW/x)                                     [deg]
#  17 FLAGS                  Extraction flags                                          
         1    165.3152     11.6605 300.2354529 +22.4424590     1971.586     69.36133      1.340     2.42    -9.238216      19.5391     232.6853        20     1.049     0.929  84.25   0
         2    733.2159     12.0430 300.4120490 +22.6126744      228.464      69.2732      0.883     2.26    -8.532415      19.5391     66.04882         6     0.729     0.522  56.13   0
         3    726.6315      3.6799 300.4127101 +22.6082987     434.2853     64.80857      1.128     3.55    -8.499106      19.5391     76.34718         9     1.080     0.602  84.52  24
         4    281.1764      3.8966 300.2739894 +22.4749488     592.2947     65.50233      1.170     2.12    -9.223161      19.5391     103.5085         8     0.767     0.621  49.66  16
         5    194.3603   1013.1860 299.9189865 +22.7384578     657.4791      69.2732      3.384     4.49     25.47978      19.5391      31.0687         5     1.199     0.478 -87.44   0
         6     71.5212    918.0178 299.9118090 +22.6742989     1932.652     69.25556     19.083    35.64    -8.741214      19.5391     44.99303       231    10.124     3.482 -25.98   3
         7     70.7644    962.2355 299.8971781 +22.6867399     2388.188     69.32609     28.590    80.86  0.003033433      19.5391     63.56482      1469    15.247    11.898 -77.89  19
         8    194.4037    995.5204 299.9247530 +22.7334091     1566.065      69.1673      7.069    11.64     18.69026      19.5391      49.3596        34     2.231     1.690  16.19   3
         9    193.5673    991.8693 299.9256821 +22.7321117     1230.118     69.23792      7.660    11.98     17.09272      19.5391     69.14838        26     3.033     1.317 -32.60   3
        10    628.0193    994.2503 300.0600514 +22.8632055     4035.638     69.23792      1.133     1.84    -13.06656      19.5391     835.9966        27     0.981     0.878 -82.92   3
        11    633.5728    991.8928 300.0625484 +22.8641957     4625.309     69.20262      1.102     1.80    -13.02903      19.5391     877.6437        25     0.945     0.883 -77.40   2
        12    226.1823    991.9744 299.9357844 +22.7419359     1064.686      69.2732      8.569    15.08     16.21158      19.5391     32.92998        30     3.757     1.684  64.93   3
        13    234.6436    982.5843 299.9414722 +22.7417857     3826.207      69.2732      7.536    27.92      9.02502      19.5391     97.78709       285     7.550     3.238  64.87  18
        14    163.2984    987.9083 299.9175659 +22.7218867     778.4176     69.43174      4.462     4.34     16.02362      19.5391     35.83123         5     0.969     0.676   3.27   0
        15    349.8017   1005.6890 299.9697513 +22.7829833     325.5177     69.18497      1.179     3.59    -12.74077      19.5391     35.97494         6     0.737     0.634 -58.08   0
        16     92.7609    985.7010 299.8963699 +22.7000691     716.6993     69.25556      4.211     3.22     13.20975      19.5391     34.07962         5     0.822     0.622  36.05   1
        17     40.6930    985.6527 299.8802135 +22.6844155     810.2015     69.30846      4.104     4.19    -4.029335      19.5391     31.41674         5     1.230     0.408 -12.23   1
        18    728.4747    994.9343 300.0911141 +22.8935397     279.3187     69.30846      1.109     1.88    -12.93596      19.5391     60.87394         6     0.705     0.496  83.88   0
        19     71.6618    930.8067 299.9076893 +22.6780053     2108.458     69.22028     19.565    30.53    -7.549849      19.5391     61.98662       209     9.928     2.607 -27.88   3
        20    920.9373    977.9555 300.1566224 +22.9463909     352.3239      69.2732      1.168     2.37    -13.42578      19.5391     71.93319         9     0.778     0.723   6.46   0
        21    158.6731    977.1985 299.9196161 +22.7174290     780.7773     69.14964      6.699     8.17     11.90709      19.5391     42.83678        13     1.859     1.004  84.28   2
        22    167.8690   1007.8818 299.9124816 +22.7289821     1440.827     69.36133      6.120    13.26     23.54909      19.5391     53.42735        37     2.566     1.907  46.43  18
        23     78.9369   1013.7954 299.8829270 +22.7039649      2957.91     69.22028     17.639    54.21     16.47096      19.5391      68.4993       773    10.958     7.442  41.48  27
        24    155.5636   1005.9975 299.9092717 +22.7247465     605.9802     69.25556      2.568     3.90     22.73612      19.5391     30.51919         5     0.880     0.496  89.31   0
        25    223.8103   1008.3198 299.9297241 +22.7459074     443.5664     69.23792      1.494     5.48     23.40644      19.5391      43.4714        10     1.154     0.786  70.98   0
        26    102.7607    993.2318 299.8970240 +22.7052301      477.415     69.29083      2.233     2.92     17.15657      19.5391     32.39765         5     0.814     0.635 -54.93   0
        27    138.1876    962.9745 299.9178826 +22.7072013     873.6527     69.25556      5.069     7.59     6.498064      19.5391     36.58271        12     1.320     1.220   4.27   0
        28    646.3522    961.2897 300.0764939 +22.8592520     3323.875     69.22028      1.104     2.07    -12.75472      19.5391     542.1887        20     0.930     0.856  39.57   0
        29    223.2574    975.6959 299.9401762 +22.7363927     1616.286     69.32609      7.543    11.43     9.955963      19.5391     50.12364        32     2.053     1.773  44.63   3
        30    213.8422    995.8000 299.9307032 +22.7393265     1827.583     69.23792     11.146    14.68     18.46533      19.5391     56.56685        53     3.136     1.911 -12.09   3
        31     40.7774    959.0811 299.8888917 +22.6768292     753.4964     69.22028      3.931     4.86    -7.052307      19.5391      31.6157         5     1.584     0.423  24.91   1
        32    798.0000    954.9999 300.1257802 +22.9029363     174.1746     69.02586      0.897     1.74    -12.83071      19.5391     49.75386         5     0.598     0.532 -90.00   0
        33    554.9822    952.2059 300.0510054 +22.8292322     757.9554     69.22028      1.068     1.73    -12.54634      19.5391     180.1388        10     0.815     0.708  30.08   0
        34    212.1256    989.3102 299.9322830 +22.7369514     1710.147     69.41415      8.827    12.02     15.60079      19.5391     53.22573        43     2.479     1.927 -87.70   3
        35    216.8574    989.5921 299.9336619 +22.7384531     1443.712     69.23792      8.396    10.77     15.93524      19.5391     43.88844        28     1.973     1.637  60.60   3
        36    205.2275   1000.6214 299.9264556 +22.7381211     964.1136     69.25556      6.759     6.33     20.60334      19.5391     51.89592        15     1.454     1.222 -36.82   1
        37    105.6487    944.8710 299.9136679 +22.6922422     1353.036     69.23792      9.920     9.97    -0.306593      19.5391     36.26151        20     1.975     1.402  28.24   2
        38    379.3542    946.6328 299.9981734 +22.7749258     3105.244     69.29084      1.039     1.80    -12.50406      19.5391     557.4358        17     0.875     0.789  67.69   0
        39     86.7573    934.6810 299.9111170 +22.6836490     1337.048     69.22028      9.424    10.24    -5.001378      19.5391     52.32517        26     2.181     1.339 -48.15   3
        40    448.7231    948.6757 300.0190873 +22.7963322     530.8107     69.34371      0.956     2.33    -12.59526      19.5391     102.8703         8     0.864     0.548 -59.46   0
        41    411.9790    933.4314 300.0126197 +22.7809333     271.4158     69.25556      1.381     2.44    -12.39867      19.5391     42.29333         5     0.726     0.561 -86.76   0
        42    925.4082    925.2267 300.1751871 +22.9325971     959.9673     69.25556      1.016     1.99    -13.00255      19.5391     181.4759        12     0.805     0.759  -8.63   0
        43    575.4277    922.7297 300.0669672 +22.8269127     203.5788     69.23792      1.097     3.39     -12.1969      19.5391     36.74988         5     0.755     0.441 -68.61   0
        44    102.8426   1021.6145 299.8878063 +22.7133855     2717.367     63.68667      4.738    17.70     27.71447      19.5391     71.50272        98     3.803     2.288  15.23  27
        45    714.0642    913.8853 300.1130176 +22.8659646     316.6733     69.36133      1.284     3.72    -12.65481      19.5391     57.35441         5     0.707     0.563  87.69   0
        46    749.1136    908.2239 300.1257792 +22.8748525     435.8256     69.22028      1.068     1.93    -12.64967      19.5391     103.6593         8     0.743     0.605 -50.55   0
        47    771.3759    902.0012 300.1347410 +22.8797434     5628.989     69.20262      1.038     1.68    -12.60814      19.5391     1201.087        24     0.895     0.854 -51.55   0
        48    817.3035    901.8226 300.1491103 +22.8934652     352.1324     69.18497      1.216     2.06    -12.62112      19.5391     54.88137         6     0.687     0.594  11.70   0
        49     82.6298    894.0844 299.9230504 +22.6707775     505.7572     69.25556      1.721     3.29    -9.776589      19.5391     54.58431        12     1.036     0.794 -35.04   0
        50    476.8060    890.3770 300.0468054 +22.7880423     185.3321     69.23792      1.347     3.42    -12.28504      19.5391     30.93792         5     0.731     0.462 -14.83   0
        51    779.8579    884.0986 300.1432121 +22.8771496     559.7892     69.34371      1.078     1.80    -12.47356      19.5391     149.3864         8     0.745     0.605  53.84   0
        52    818.0138    877.6308 300.1572073 +22.8867352      464.529     69.25556      1.196     1.77    -12.44076      19.5391     70.14182         7     0.658     0.614 -12.94   0
        53    866.4248    868.7107 300.1751993 +22.8986903     323.7719     69.20262      0.959     2.14    -12.37545      19.5391       48.898         5     0.664     0.474 -72.43   0
        54    729.2012    864.8920 300.1336823 +22.8564464     245.5373      69.1673      0.921     1.62    -12.27245      19.5391     93.11053         6     0.678     0.504 -42.61   0
        55    430.5315    864.2360 300.0409169 +22.7666597     2153.647     69.25556      1.048     1.94    -12.27873      19.5391      387.042        17     0.882     0.770 -85.40   0
        56   1018.7626    863.8292 300.2242882 +22.9429552     132.4199      69.2732      0.887     3.14    -12.20597      19.5391      42.6019         5     0.866     0.428  43.01  16
        57    155.6685    850.0750 299.9600661 +22.6800971     429.5294     69.32609      1.363     3.04    -11.33005      19.5391     63.86536         9     0.861     0.748  -2.50   0
        58    541.5480    999.0150 300.0315805 +22.8386244      1188.19     69.25556      1.075     1.87    -13.19148      19.5391      208.405        13     0.796     0.757 -25.35   0
        59    132.9314    847.1339 299.9539585 +22.6724275     756.7051     69.30846      1.100     1.88    -11.50417      19.5391     166.0161        10     0.840     0.712 -31.82   0
        60   1004.5507    835.8043 300.2289778 +22.9306484     1051.959     69.23792      1.002     1.82    -12.16549      19.5391     205.9089        11     0.795     0.682 -63.10   0
        61    958.6506    834.2864 300.2151574 +22.9164551     1001.897     69.25556      1.074     1.89    -12.23058      19.5391     212.4273        13     0.889     0.790  64.16   0
        62    742.2322    828.1752 300.1496926 +22.8498174     407.6076     69.25556      1.152     1.93    -12.15619      19.5391     86.57121         5     0.716     0.400  76.95   0
        63    610.4144    822.3732 300.1105270 +22.8086191     2272.876      69.2732      0.988     1.86    -11.82619      19.5391      436.403        16     0.846     0.742  79.60   0
        64    412.3695    819.3392 300.0498789 +22.7483341     239.9058     69.29084      0.975     3.40    -11.77618      19.5391     47.02233         5     0.803     0.465  44.41   0
        65    160.6331    816.5546 299.9725173 +22.6719798     740.1844     69.30846      1.087     2.30    -11.63446      19.5391     128.6446        12     0.868     0.774 -71.26   0
        66    631.0972    814.7480 300.1194485 +22.8126348     415.7529     69.32609      1.002     2.71    -11.87335      19.5391     87.61008         6     0.887     0.503 -66.92   0
        67    786.3859    802.0665 300.1719464 +22.8555632     1992.407     69.22028      0.989     1.62    -12.22913      19.5391     448.5065        14     0.809     0.747  45.91   0
        68   1003.1990    802.0349 300.2395470 +22.9205460     429.5514     69.22028      0.980     1.81      -12.094      19.5391     127.1817         8     0.695     0.638  53.82   0
        69    503.2822    794.6674 300.0861947 +22.7685340      250.184     69.36133      1.011     2.10    -11.66473      19.5391     58.88109         6     0.647     0.626  76.04   0
        70    149.8662    792.9285 299.9768594 +22.6619753     553.2161     69.29083      1.200     2.14    -11.80562      19.5391     85.68324         9     0.748     0.717 -88.44   0
        71    299.5729    784.8535 300.0260200 +22.7045958     26223.02      69.2732      1.076     1.84    -11.30801      19.5391     4904.416        51     1.025     0.964  73.50   0
        72    557.4124    783.7181 300.1066055 +22.7816305     700.1573     69.23792      0.928     1.62     -11.6333      19.5391     145.5871         7     0.647     0.565  -8.60   0
        73    970.1978    782.8246 300.2355065 +22.9051390     480.4322     69.20262      1.157     1.85    -12.11003      19.5391     100.4685         7     0.667     0.625 -65.09   0
        74    227.5245    782.8812 300.0042631 +22.6824064     296.0628     69.36133      1.154     1.93    -11.32221      19.5391     53.03469         5     0.676     0.469  69.32   0
        75    586.4163    779.9025 300.1168761 +22.7892353     358.1633      69.1673      0.972     2.02    -11.63308      19.5391     86.95766         8     0.744     0.642   5.51   0
        76    597.2836    778.1671 300.1208241 +22.7919969     252.5913     69.22028      1.009     2.11    -11.63319      19.5391     65.53049         5     0.711     0.430  76.10   0
        77    702.5870    774.3422 300.1548614 +22.8224791     226.2178     69.22028      0.934     2.18    -11.78717      19.5391     56.54732         5     0.653     0.482 -76.61   0
        78    740.1568    764.6699 300.1697120 +22.8309681     431.5226     69.22028      1.047     1.25    -11.77804      19.5391     93.23184         5     0.571     0.455 -19.95   0
        79    349.2756    762.1041 300.0488777 +22.7129873     15325.46     69.39655      1.099     1.77    -11.28253      19.5391      3101.19        40     1.014     0.913  68.22   0
        80    363.4727    762.5723 300.0531408 +22.7173816     955.2752     69.25556      1.039     1.86    -11.28031      19.5391     166.3711        14     0.903     0.767 -89.31   0
        81    872.2293    757.7996 300.2131046 +22.8685898     1430.933     69.22028      1.015     1.51    -11.92762      19.5391     339.3188        13     0.792     0.694  89.34   0
        82    630.2074    754.0163 300.1389333 +22.7949409     458.1985     69.18497      1.002     1.97    -11.55152      19.5391     118.0997         7     0.789     0.545 -63.76   0
        83    231.5352    753.8178 300.0149655 +22.6752773     460.8448     69.23792      1.208     2.47    -11.30054      19.5391     74.52491         9     0.838     0.683  64.13   0
        84     36.2268    749.7837 299.9555942 +22.6154918     298.5216      69.2732      1.174     3.72    -11.99264      19.5391     43.35857         6     0.778     0.535 -46.83   0
        85    477.3744    748.6804 300.0930952 +22.7475696     395.1108     69.23792      1.151     2.63    -11.10989      19.5391     64.59547         8     0.859     0.629  87.71   0
        86    878.5110    745.6064 300.2190300 +22.8669716     316.9473      69.1673      0.959     2.70    -11.86017      19.5391      56.8988         5     0.691     0.473  71.35   0
        87    229.3164    738.1088 300.0193862 +22.6701072      309.694     69.39655      1.128     2.62    -11.29771      19.5391     45.66623         7     0.711     0.662  86.36   0
        88    552.5955    728.6680 300.1230168 +22.7643906     219.5044     69.23792      1.095     3.12    -11.30462      19.5391       55.278         5     0.724     0.485  82.13   0
        89    522.3283    726.5806 300.1142748 +22.7547135     318.4221     69.29083      0.903     2.25    -11.15521      19.5391     58.93921         6     0.785     0.467  85.43   0
        90    544.0682    724.2289 300.1218065 +22.7605593     756.9343     69.23792      1.064     1.79    -11.23539      19.5391      153.188        12     0.907     0.664  87.81   0
        91    938.6000    723.0212 300.2451117 +22.8784953     2222.068      69.1673      0.998     1.62    -11.73874      19.5391      493.138        17     0.802     0.768 -12.30   0
        92    927.0595    714.4774 300.2442929 +22.8725831     958.6625     69.30846      1.066     1.68    -11.58387      19.5391     175.1686        11     0.827     0.623  72.30   0
        93    290.2775    708.4804 300.0479757 +22.6799051     432.2863     69.36133      1.025     2.53    -11.13173      19.5391     73.10945         7     0.790     0.568 -86.73   0
        94    753.3355    705.7874 300.1929743 +22.8180166     1279.281     69.20262      0.965     1.75    -11.28422      19.5391     258.3796        12     0.862     0.622  52.14   0
        95    958.1599    704.5884 300.2572074 +22.8790630     872.1121     69.23792      1.032     1.61    -11.57352      19.5391     176.5741        11     0.784     0.651 -79.64   0
        96    835.7721    691.4035 300.2233416 +22.8385977     288.1773     69.22028      1.251     2.71    -11.17543      19.5391     54.73589         6     0.734     0.620  62.63   0
        97    871.8436    682.7542 300.2373984 +22.8469251      72319.8     69.29083      1.051     1.59    -11.16654      19.5391     17558.76        93     1.099     1.003  70.24   0
        98   1018.8368    684.4780 300.2826731 +22.8914674     590.4216     69.22028      1.010     1.83    -11.53043      19.5391     120.1943         9     0.742     0.679 -12.15  16
        99    724.2839    683.0903 300.1913066 +22.8027913     352.4416     69.39655      1.001     1.59     -11.0749      19.5391     98.98831         6     0.669     0.484  43.45   0
       100    558.1364    671.7045 300.1432705 +22.7497060     872.6221     69.34371      1.019     1.86    -10.80318      19.5391     179.2398        10     0.795     0.685  59.67   0
       101    739.3411    668.9508 300.2005962 +22.8032459     4504.308     69.30846      1.037     1.69    -11.00242      19.5391     1014.226        20     0.859     0.787  69.02   0
       102    240.9546    664.2338 300.0470323 +22.6524154     2436.842      69.2732      1.127     1.77    -11.11352      19.5391     505.6933        20     0.950     0.813  71.97   0
       103    323.0042    662.1801 300.0732108 +22.6764449     583.6417     69.22028      1.039     1.66    -11.07511      19.5391     136.1654         9     0.701     0.672  69.53   0
       104    198.6845    659.9509 300.0352863 +22.6385027     260.1919     69.23792      1.328     2.73    -11.18678      19.5391     36.76712         5     0.785     0.471  34.03   0
       105    531.2432    657.7414 300.1394405 +22.7376339     360.6443     69.23792      1.100     1.97    -10.69768      19.5391     69.94852         7     0.767     0.552  62.39   0
       106    522.8572    649.8615 300.1393930 +22.7328577     1511.785     69.32609      1.071     1.63    -10.65698      19.5391     380.1093        14     0.854     0.725  25.33   0
       107    513.2073    643.6088 300.1384230 +22.7281694     692.2563      69.1143      1.034     1.73    -10.62833      19.5391     151.9112        10     0.753     0.723  44.02   0
       108    176.2388    639.8018 300.0348626 +22.6259889      232.629      69.2732      1.158     2.19    -11.23709      19.5391      50.6362         6     0.713     0.542 -43.34   0
       109    437.9702    633.4456 300.1183155 +22.7026884      839.931     69.29083      1.081     1.86    -10.69757      19.5391     188.4534        12     0.997     0.648  51.31   0
       110    216.3646    634.8357 300.0489486 +22.6366057      215.635     69.32609      1.032     2.27    -11.14509      19.5391     53.28762         5     0.713     0.441 -69.94   0
       111    959.8413    634.5345 300.2805174 +22.8594449     329.9188     69.23792      1.046     1.89    -11.05026      19.5391     62.61419         6     0.710     0.496   5.91   0
       112     91.9218    628.4680 300.0123493 +22.5974344     9950.791     69.36133      1.160     1.94    -11.11273      19.5391     1656.886        38     1.036     0.995 -75.85   0
       113     12.8947    629.9957 299.9873064 +22.5741518      332.449      69.1673      1.269     3.99    -10.84688      19.5391     44.20176         8     0.920     0.682   0.01   0
       114    522.8226    628.6837 300.1462691 +22.7267697     446.4236     69.22028      1.051     1.97     -10.5251      19.5391     114.2656         9     0.783     0.680  69.51   0
       115    940.7059    614.7059 300.2809986 +22.8480157     471.6281     69.41415      0.961     1.79    -10.84807      19.5391     112.0217         8     0.759     0.581  85.65   0
       116     37.7218    612.7783 300.0006149 +22.5766682     722.4411     69.25556      1.716     5.27    -10.82152      19.5391     69.81741        16     1.559     0.805 -84.23   0
       117    104.1289    613.5598 300.0209889 +22.5968235     143.0008     69.22028      1.081     3.46    -11.04333      19.5391     35.09401         5     0.757     0.456 -18.85   0
       118    717.7798    603.9285 300.2150246 +22.7781140     821.5419     69.29083      0.514     0.83    -10.81915      19.5391     518.1099         5     0.429     0.331  24.31   0
       119    487.1841    597.2439 300.1454003 +22.7070596     531.3285      69.2732      1.417     2.83    -10.39174      19.5391      67.9017         8     0.866     0.669  -3.17   0
       120    920.7947    592.7518 300.2819289 +22.8357435     1561.267     69.23792      1.000     1.57    -10.66605      19.5391     395.8867        14     0.841     0.677  79.33   0
       121    452.7308    592.9513 300.1360749 +22.6954955       838.05     69.25556      1.178     2.06    -10.48205      19.5391     152.9874        10     0.819     0.677  41.05   0
       122   1018.5734    590.8923 300.3130267 +22.8645020      328.718     69.20262      0.948     1.73    -11.44623      19.5391     70.15219         6     0.693     0.495 -89.18   0
       123     14.7894    586.6177 300.0019977 +22.5622848     2353.364     69.22028      1.152     2.01    -10.70827      19.5391     406.3116        20     0.952     0.864  55.91   0
       124    316.1293    579.6996 300.0978918 +22.6507216     4437.766     69.39655      1.121     1.83    -10.76033      19.5391     858.7195        26     1.039     0.821  66.12   0
       125    438.5157    576.7475 300.1369200 +22.6865825     4313.074     69.29083      1.074     1.87    -10.48169      19.5391     768.1752        24     0.965     0.843  74.76   0
       126    850.0504    570.4695 300.2671196 +22.8081460     878.1729     69.25556      0.992     1.69    -10.49744      19.5391     185.9077        10     0.777     0.653  57.77   0
       127    934.7118    567.8870 300.2943527 +22.8327701     5865.393     69.41415      1.046     1.68    -10.67472      19.5391     1318.367        24     0.878     0.831  72.57   0
       128    499.0981    566.2862 300.1591728 +22.7017473     5648.711     69.41415      1.128     1.82    -10.26544      19.5391     1102.633        26     0.971     0.859  67.75   0
       129    226.5401    561.9228 300.0758167 +22.6187459     646.8192     69.30846      1.078     2.40    -10.70895      19.5391     99.16707         8     0.792     0.621  57.40   0
       130    472.5657    559.4000 300.1531545 +22.6918149     227.7842     69.20262      1.399     3.45    -10.40557      19.5391     32.43138         5     1.048     0.329  21.40   0
       131    430.7633    554.4014 300.1417724 +22.6778448     2178.006     69.25556      1.091     1.85     -10.4306      19.5391     358.8531        18     0.920     0.806  64.49   0
       132    773.4868    554.1407 300.2485675 +22.7805130     319.5663     69.34371      1.133     2.08     -10.4548      19.5391     63.23807         6     0.719     0.499  86.42   0
       133    409.0629    552.8447 300.1355272 +22.6708903     565.9208      69.2732      1.181     1.85    -10.44175      19.5391     122.1156         9     0.814     0.639 -27.73   0
       134    163.2966    552.3122 300.0592844 +22.5970144     394.0997     69.43174      1.148     2.41    -10.65721      19.5391     64.41078         9     0.872     0.654  19.04   0
       135    850.5921    549.8023 300.2740074 +22.8023719     594.4568     69.06125      1.056     2.01    -10.44782      19.5391     141.0845        10     0.830     0.680 -32.21   0
       136    731.2823    546.5561 300.2378837 +22.7656866     436.4483     69.22028      1.095     2.46    -10.35063      19.5391     87.64542        11     0.853     0.812 -89.62   0
       137    547.3677    541.9756 300.1820996 +22.7092420     99737.28     69.23792      1.126     1.93    -9.683682      19.5391     17466.47       124     1.205     1.163  67.71   0
       138    233.5300    542.0173 300.0844599 +22.6151329     1678.989      69.2732      1.152     2.04    -10.53796      19.5391     275.4765        16     0.889     0.810  79.61   0
       139    437.8409    522.5497 300.1543279 +22.6708260     1518.421      69.2732      1.322     2.36    -10.29643      19.5391     231.2025        19     1.372     0.821 -84.82   0
       140    282.4771    524.8033 300.1052723 +22.6248775     182.4287      69.1673      0.923     2.23    -10.41236      19.5391     45.26239         5     0.711     0.464  69.90   0
       141    849.6991    518.5453 300.2838897 +22.7931256     188.4339     69.34371      1.010     3.42     -10.4348      19.5391     36.80524         5     0.789     0.428  22.59   0
       142    834.7944    508.3834 300.2825471 +22.7857408     810.9423     69.20262      1.016     1.85    -10.42342      19.5391     176.3985        11     0.798     0.710  57.77   0
       143    706.0551    506.0007 300.2432074 +22.7464794     1293.508     69.18497      1.127     1.97    -10.02308      19.5391     270.4981        15     0.916     0.794  69.55   0
       144    915.5485    503.3744 300.3093490 +22.8084946     132.3765      69.2732      1.187     3.49      -10.533      19.5391     32.43567         5     1.077     0.326  68.49   0
       145    610.9879    502.7478 300.2146570 +22.7170519     121.3038      69.2732      1.067     3.62    -9.572362      19.5391     29.35233         5     0.803     0.500 -58.85   0
       146    493.6412    502.0805 300.1783444 +22.6816819      415.679     69.22028      1.237     2.23    -9.858114      19.5391     54.15554         7     0.710     0.621 -84.92   0
       147    963.3023    499.8059 300.3253995 +22.8217737      532.068      69.1673      0.999     1.66    -10.66801      19.5391     127.7814        10     0.858     0.624  36.75   0
       148    835.2226    498.7717 300.2858046 +22.7831080     1136.502     69.25556      1.182     2.01    -10.42342      19.5391     193.2433        14     0.996     0.712 -82.16   2
       149    949.1334    498.9126 300.3212713 +22.8172729     491.0301     69.34371      1.080     1.84    -10.61836      19.5391     78.55045         6     0.675     0.535 -61.58   0
       150    873.2658    493.4165 300.2994034 +22.7929670     2141.729     69.23792      1.028     1.80     -10.4598      19.5391     395.4822        16     0.893     0.745  71.23   0
       151    105.7872    484.2621 300.0635313 +22.5602414     557.2603     69.22028      1.287     2.57    -10.65928      19.5391     79.60592         9     0.894     0.617  69.59   0
       152    965.2310    483.9786 300.3311451 +22.8178033     328.1616     69.25556      1.005     1.86    -10.58317      19.5391     81.66767         7     0.691     0.596  86.76   0
       153     98.1150    474.6123 300.0642833 +22.5551717     132.1774     69.20262      1.169     3.40    -10.67044      19.5391     29.93718         5     0.763     0.438 -20.01   0
       154    646.7514    464.1700 300.2383310 +22.7166934     355.0814      69.2732      1.073     2.40    -9.593821      19.5391     85.03065         8     0.862     0.591 -70.54   0
       155    707.5400    455.9828 300.2599252 +22.7325592     450.5044     69.20262      1.113     1.95    -9.923794      19.5391     83.32895         6     0.709     0.497  86.04   0
       156    864.7504    452.3226 300.3101038 +22.7786094     472.4548     69.25556      1.015     2.01    -10.40779      19.5391     101.4453         9     0.769     0.676 -87.51   0
       157    848.6356    448.5075 300.3063204 +22.7726859     322.6775     69.20262      1.172     2.68    -10.34172      19.5391     63.61467         8     0.803     0.764  49.89   0
       158    593.4070    446.8882 300.2273358 +22.6957428     1535.745      69.1673      1.091     1.88    -9.548919      19.5391      270.565        16     0.896     0.801  42.51   0
       159   1004.6588    425.7414 300.3623671 +22.8128745     722.3481     69.32609      1.138     2.08    -10.57765      19.5391      116.101         9     0.763     0.692  71.81   0
       160    962.9237    424.4305 300.3497765 +22.7999993     443.5788     69.25556      0.976     2.71    -10.56658      19.5391     93.87943         9     0.899     0.674  40.69   0
       161    703.7328    420.6533 300.2702188 +22.7212707     502.0975      69.2732      1.153     2.61    -9.773629      19.5391     102.0915         8     0.932     0.579  45.76   0
       162    207.8533    419.2270 300.1163801 +22.5722028     282.5825      69.2732      1.164     2.76    -10.17828      19.5391     61.31859         8     0.906     0.585  83.31   0
       163    270.4080    414.9177 300.1372267 +22.5897273     1816.004     69.18497      1.227     2.14    -9.885595      19.5391     293.9175        20     1.153     0.825  54.56   0
       164   1003.2986    413.0249 300.3660746 +22.8088121     2091.892     69.18497      1.016     1.64    -10.57854      19.5391      485.955        16     0.860     0.733  80.39   0
       165    217.5641    409.6863 300.1224980 +22.5723778     3547.258     69.23792      1.120     2.10    -10.06458      19.5391     574.4195        21     1.019     0.820  64.48   0
       166    983.3023    404.2472 300.3626897 +22.8003012     1033.225     69.29083      1.187     1.85    -10.56037      19.5391     192.4119        11     0.839     0.729  54.31   0
       167    358.3395    403.8756 300.1681585 +22.6129259      2464.74     69.30846      1.181     2.17    -9.715258      19.5391     374.0806        19     0.965     0.843  67.20   0
       168    602.4573    400.4577 300.2452391 +22.6851218     9006.908     69.32609      1.077     2.02    -9.536349      19.5391     1377.109        33     1.061     0.919  60.25   0
       169    619.9558    400.3018 300.2507385 +22.6903210     433.0041     69.25556      1.784     5.62    -9.555051      19.5391     44.12398         9     1.483     0.601 -41.02   0
       170    935.8807    382.8391 300.3548562 +22.7799470     496.1987     69.22028      1.193     2.55    -10.42927      19.5391     79.52819         7     0.892     0.545 -76.45   0
       171    157.3636    380.7767 300.1131784 +22.5460267     958.2593      69.2732      1.177     2.27    -10.26573      19.5391     145.7854        11     0.962     0.678  43.01   0
       172    956.6456    370.1206 300.3654631 +22.7825098      572.303     69.25556      1.088     2.11    -10.44679      19.5391     110.0479         9     0.795     0.678  70.07   0
       173    543.1117    369.9099 300.2366865 +22.6585634      3277.39     69.41415      1.239     2.09    -9.482422      19.5391     568.2413        24     1.059     0.874  68.16   0
       174    257.8996    369.3752 300.1481317 +22.5729065     224.5442     69.20262      0.957     2.53    -9.814128      19.5391     58.41493         7     0.884     0.550  52.95   0
       175    115.5981    362.7833 300.1060447 +22.5283368     303.3486      69.1673      1.067     3.47    -10.19229      19.5391     41.31264         5     0.762     0.456  72.94   0
       176    656.6445    360.3071 300.2751561 +22.6898274     189.6475     69.25556      1.366     3.13    -9.583643      19.5391     46.50033         5     0.936     0.414 -73.31   0
       177    747.3069    358.8391 300.3038748 +22.7165683     463.5548     69.25556      1.112     2.51    -9.877732      19.5391     93.07395         9     0.906     0.661 -83.50   0
       178    449.7480    356.2563 300.2120641 +22.6266591     3010.478     69.29084      1.167     1.99    -9.545527      19.5391      497.174        21     0.984     0.864  88.59   0
       179    841.6197    350.3684 300.3360172 +22.7423849     638.1227     69.25556      1.074     2.09    -10.10757      19.5391     114.3881         7     0.794     0.483  86.00   0
       180    939.1415    350.3558 300.3664249 +22.7715872     239.7547      69.2732      0.963     1.49    -10.30458      19.5391      70.3586         5     0.619     0.458  19.60   0
       181    434.3389    344.8147 300.2109856 +22.6187552     170.4815     69.22028      0.969     2.62    -9.505802      19.5391     43.94545         5     0.729     0.442 -72.91   0
       182    814.5712    337.9689 300.3316142 +22.7307203     320.3227     69.25556      1.074     3.21     -9.93659      19.5391     46.47058         6     0.752     0.599 -42.09   0
       183    337.3205    335.5020 300.1838299 +22.5869974     1277.474     69.37894      1.139     2.23    -9.577332      19.5391     189.5347        12     0.903     0.693  66.15   0
       184     55.9277    332.8950 300.0972137 +22.5018631     488.6387     69.36133      1.151     2.43    -10.39589      19.5391      84.3278         8     0.788     0.627  34.34   0
       185    306.7152    324.9845 300.1777275 +22.5748025     14689.97     69.22028      1.208     2.02    -9.620214      19.5391     2479.052        44     1.116     1.003  74.05   0
       186    841.2363    322.0947 300.3450808 +22.7341448      632.115     69.25556      1.075     2.12    -9.994903      19.5391     143.1835         8     0.786     0.592  50.38   0
       187      2.9584    312.8233 300.0872797 +22.4802154     2513.791     61.93617      1.251     2.15    -10.51858      19.5391     406.9005        23     1.103     0.875  73.78  24
       188    180.8678    311.1846 300.1430847 +22.5331064     239.6686     69.23792      1.302     3.82    -9.885464      19.5391     35.69793         8     0.840     0.676  44.62   0
       189    716.9263    304.4747 300.3120665 +22.6918476      988.863     69.32609      1.163     1.92    -9.607882      19.5391     168.5535        13     0.868     0.773  46.95   0
       190    931.9321    297.1419 300.3814598 +22.7541322     272.4336      69.2732      1.113     2.31    -9.907597      19.5391     61.31644         6     0.720     0.554 -50.51   0
       191    378.8767    289.2036 300.2117904 +22.5861632      1066.21      69.1673      1.305     3.41    -9.390586      19.5391     145.4801        13     1.092     0.719  63.60   0
       192    591.3685    287.7402 300.2783964 +22.6494241     193.4611     69.29083      1.245     3.48    -9.366151      19.5391     29.22707         5     0.760     0.459 -75.89   0
       193    817.8826    281.9913 300.3508254 +22.7156251     313.7466     69.20262      1.253     4.69    -9.827578      19.5391     49.88194         8     1.053     0.759  41.23   0
       194    454.6562    268.7375 300.2420124 +22.6029992     607.2421     69.30846      1.184     2.18    -9.173865      19.5391     103.6897         8     0.834     0.566  77.79   0
       195    699.5119    260.6191 300.3208822 +22.6740301     1033.843     69.20262      1.019     2.06    -9.384206      19.5391      158.645        13     0.884     0.741  76.56   0
       196    960.7193    254.7405 300.4042053 +22.7505613     1457.592     69.30846      1.041     1.88    -9.635811      19.5391     298.5085        14     0.882     0.737  87.20   0
       197    407.5481    244.7048 300.2351576 +22.5819793     488.1913     69.32609      1.552     4.02    -9.165771      19.5391     54.17628         9     1.072     0.803 -30.03   0
       198    113.1709    238.6280 300.1456046 +22.4919830     269.2277     69.23792      1.335     3.90    -9.804849      19.5391     42.40714         9     0.970     0.703  84.24   0
       199     82.6675    238.7685 300.1360818 +22.4828758     694.9965     69.25556      1.381     2.62    -9.844784      19.5391     88.39038        10     0.914     0.681 -42.16   0
       200    976.6548    234.8214 300.4156424 +22.7496047     188.2988      69.2732      1.055     3.42    -9.514381      19.5391     40.51887         5     0.753     0.449  75.07   0
       201    771.1302    221.4546 300.3559106 +22.6842253     300.9862     69.29083      1.170     2.81    -9.364078      19.5391     57.37732         7     0.845     0.573  71.91   0
       202    361.8725    221.4232 300.2285067 +22.5616042     222.7691     69.29083      1.019     3.68    -9.448309      19.5391     39.08578         6     0.936     0.560  70.28   0
       203    869.1790    210.8176 300.3899228 +22.7105274      1070.18     69.23792      1.157     2.13    -9.707793      19.5391     193.2032        11     0.853     0.692  89.00   0
       204    287.8418    208.4129 300.2097061 +22.5356788     1171.502      69.2732      1.283     2.40    -9.648012      19.5391     156.5843        14     0.942     0.810  58.39   0
       205    365.8455    203.2108 300.2356543 +22.5575651     435.7811      69.2732      1.254     2.60    -9.362794      19.5391     55.92181         8     0.796     0.647  45.97   0
       206    182.4797    195.5576 300.1811236 +22.5004027     334.7278     69.23792      1.018     2.25    -9.467512      19.5391     75.45267         6     0.775     0.497  84.74   0
       207    720.4429    192.4073 300.3495469 +22.6606972     798.0966      69.2732      1.048     2.00    -9.242789      19.5391     146.2372        14     0.938     0.734  50.47   0
       208    785.0634    191.9588 300.3698271 +22.6799199     198.4807     69.23792      1.152     3.65     -9.33969      19.5391     32.52857         5     0.652     0.587   1.84   0
       209    203.6234    188.8354 300.1898774 +22.5048118     258.0429      69.2732      1.294     4.01    -9.432961      19.5391     45.76101         7     1.173     0.392  75.07   0
       210    991.7382    184.6172 300.4366445 +22.7396834     337.9918     69.23792      1.009     2.35    -9.255267      19.5391      84.4054         7     0.857     0.514  57.91   0
       211    724.5978    183.7603 300.3536480 +22.6594564     452.7843      69.2732      1.237     2.02    -9.246662      19.5391     68.95422         6     0.677     0.574 -27.46   0
       212    644.9555    183.0607 300.3290672 +22.6354024     644.6916     69.29083      1.189     2.00    -9.195572      19.5391     109.8926         9     0.729     0.699   7.85   0
       213    840.3467    174.4749 300.3927320 +22.6914471     609.9123      69.2732      1.057     1.95    -9.326299      19.5391     133.2162        11     0.820     0.712  72.26   0
       214    571.2570    174.9457 300.3087522 +22.6109947     514.4016     69.30846      1.204     2.59    -9.223542      19.5391     65.19644         7     0.746     0.616  75.35   0
       215    852.3811    173.5075 300.3967972 +22.6947720     447.7053     69.18497      1.244     2.49     -9.33097      19.5391     68.05933         8     0.852     0.635 -86.91   0
       216   1013.1990    164.3142 300.4499286 +22.7402677     823.8088      69.1673      1.073     2.24    -9.150335      19.5391     138.3922        11     0.997     0.604  89.83   0
       217    969.0630    163.6076 300.4363916 +22.7268545     554.6866     69.22028      1.216     2.21    -9.150335      19.5391     100.3565        10     0.857     0.701  68.69   0
       218    727.7211    158.5843 300.3627923 +22.6531558     591.6437      69.2732      0.790     1.19    -9.231533      19.5391     199.8893         5     0.565     0.445 -80.51   0
       219    203.3288    157.0892 300.2000887 +22.4956097     473.8596     69.41415      1.523     3.48    -9.263329      19.5391     73.57014         8     1.031     0.642  89.32   0
       220     65.1670    151.9561 300.1588211 +22.4527139     1159.281     69.29083      1.330     2.08    -9.373727      19.5391     182.1384        17     1.111     0.826 -86.87   0
       221    888.1248    148.7200 300.4159851 +22.6983460     299.7043     69.36133      1.303     2.11     -9.14909      19.5391     59.60974         6     0.713     0.561  77.18   0
       222    222.5568    145.2969 300.2098925 +22.4979879     2878.033     69.25556      1.187     2.19    -9.271573      19.5391     377.1889        21     1.031     0.865  76.74   0
       223      6.6812    139.4601 300.1447094 +22.4315899     725.0089     69.32609      1.340     2.39     -9.48938      19.5391     95.04494        11     0.918     0.702  64.54   0
       224    206.2833    135.7910 300.2079184 +22.4903806     382.3938     69.20262      1.278     4.18    -9.260227      19.5391     62.34716         6     1.008     0.494 -22.79   0
       225   1021.2189    132.4244 300.4627800 +22.7334960     8948.784       65.147      1.083     1.92    -9.128275      19.5391     1546.852        34     1.024     0.936  77.21  24
       226    866.4965    126.5447 300.4164387 +22.6854954     1856.028     69.34371      1.148     2.12      -9.1093      19.5391     255.5941        21     1.073     0.844  86.17   0
       227    970.2354    125.2210 300.4492152 +22.7161660     1294.672      69.2732      1.154     1.89    -9.101984      19.5391      258.123        15     0.882     0.807 -84.96   0
       228    339.8510    113.6141 300.2566455 +22.5240440     443.3098      69.2732      2.048     3.59    -9.250507      19.5391     54.99739         6     0.998     0.493   0.79   2
       229    106.3313    110.9442 300.1849175 +22.4532841      470.478      69.2732      1.526     3.31    -9.278889      19.5391     77.40544         8     1.108     0.516  68.86   0
       230    467.3008    109.0754 300.2977696 +22.5609273     804.2119     69.37894      1.201     2.77    -9.004376      19.5391     130.8308        14     1.110     0.788  78.00   0
       231    241.4441     89.0597 300.2340112 +22.4875012     2920.828      69.2732      1.219     2.28    -9.236025      19.5391     390.8928        20     1.039     0.834  78.10   0
       232     92.3375     88.4488 300.1878678 +22.4426312     361.1902     69.30846      1.189     2.56    -9.282771      19.5391     62.72167         6     0.673     0.620  53.15   0
       233    487.4488     74.3970 300.3152912 +22.5569996      3045.26     69.25556      1.176     2.18    -9.010345      19.5391      408.959        23     1.050     0.876  79.12   0
       234    373.1166     74.0173 300.2798396 +22.5226383     366.5668     69.22028      1.363     3.28    -9.163152      19.5391      49.4502         6     0.867     0.469  66.12   0
       235    739.9131     63.7551 300.3973612 +22.6295469     442.9909     69.23792      1.304     3.62    -8.789541      19.5391     56.42301         7     0.850     0.663 -81.83   0
       236    180.1151     58.3050 300.2249237 +22.4602888     209.0487     69.43174      1.212     3.29    -9.222908      19.5391     39.74801         6     0.746     0.637 -55.15   0
       237    615.7659     54.3530 300.3617409 +22.5896713     3178.412     69.29083      1.200     2.24     -8.81209      19.5391     468.2917        22     1.010     0.870 -89.42   0
       238    390.6910     53.5585 300.2919436 +22.5220266     708.4703     69.25556      1.196     2.29    -9.146269      19.5391     114.2913        12     0.897     0.750  81.32   0
       239    657.1002     51.7803 300.3754484 +22.6013092     427.3148      69.1673      1.157     2.28    -8.722836      19.5391     79.16824         9     0.847     0.628  69.70   0
       240    727.0000     49.8973 300.3978335 +22.6216969     225.0452     69.13197      1.510     3.73    -8.713213      19.5391     29.41249         5     1.388     0.289  90.00   0
       241    672.9648     47.7120 300.3817095 +22.6048901     334.7012     69.23792      1.234     2.90    -8.678658      19.5391     49.59692         6     0.794     0.639  29.66   0
       242    139.3607     46.2717 300.2161610 +22.4446182     361.6634     69.22028      1.357     3.05    -9.253416      19.5391     53.00467         6     0.707     0.665  88.91   0
       243    942.9001     45.1464 300.4666709 +22.6849547     342.8892     69.34371      1.250     2.44    -9.087713      19.5391     53.01167         5     0.740     0.494  62.85   0
       244    660.0726     39.3415 300.3804092 +22.5986237     1412.252     69.29083      1.234     2.20    -8.677324      19.5391     204.2364        15     1.018     0.741  74.26   0
       245    674.8857     37.5883 300.3855918 +22.6025551     419.6233     69.20262      1.823     5.00    -8.649255      19.5391     53.44268         9     1.305     0.542  58.05   0
       246    746.3680     30.7912 300.4100657 +22.6220021     775.1997     69.25556      1.112     2.07    -8.623863      19.5391     118.6198        12     0.877     0.728  42.18   0
       247    684.3555     23.6586 300.3930599 +22.6013860      261.867      69.2732      1.134     2.36    -8.604259      19.5391     68.37988         8     0.873     0.577  72.98   0
       248    490.2616     23.3424 300.3327280 +22.5431719     519.1775     69.30846      1.192     2.45    -9.073398      19.5391      85.9157         9     0.915     0.604  78.08   0
       249     62.7367     22.9969 300.1999023 +22.4149675     368.6565     69.23792      1.430     2.80    -9.286544      19.5391     48.29994         5     0.778     0.388  71.99   0
       250    393.9266     21.4918 300.3033515 +22.5137835      377.346     69.41415      1.210     2.49    -9.134933      19.5391     66.09306         8     0.807     0.636  83.90   0
       251    776.2178     19.7298 300.4229549 +22.6277573     155.3682     69.29083      1.143     3.46    -8.561331      19.5391     34.79963         6     0.725     0.655  74.91   0
       252    290.0691   1020.0291 299.9465076 +22.7691590     614.3281     68.51067      1.169     2.02    -11.69944      19.5391     115.4097         9     0.771     0.670  44.58  16
       253    166.2299    999.5492 299.9146860 +22.7261024      1065.29      69.2732      6.120     8.72      20.5215      19.5391     42.81871        15     2.389     0.889 -44.28   3
       254    126.2973   1013.0504 299.8978819 +22.7179771     795.9731     69.32609      1.230     9.03     24.83695      19.5391     33.26561        10     3.341     0.681  28.65  18
