#   1 NUMBER                 Running object number                                     
#   2 X_IMAGE                Object position along x                                    [pixel]
#   3 Y_IMAGE                Object position along y                                    [pixel]
#   4 ALPHA_J2000            Right ascension of barycenter (J2000)                      [deg]
#   5 DELTA_J2000            Declination of barycenter (J2000)                          [deg]
#   6 FLUX_APER              Flux vector within fixed circular aperture(s)              [count]
#   7 FLUXERR_APER           RMS error vector for aperture flux(es)                     [count]
#   8 FLUX_RADIUS            Fraction-of-light radii                                    [pixel]
#   9 FWHM_IMAGE             FWHM assuming a gaussian core                              [pixel]
#  10 BACKGROUND             Background at centroid position                            [count]
#  11 THRESHOLD              Detection threshold above background                       [count]
#  12 FLUX_MAX               Peak flux above background                                 [count]
#  13 ISOAREA_IMAGE          Isophotal area above Analysis threshold                    [pixel**2]
#  14 A_IMAGE                Profile RMS along major axis                               [pixel]
#  15 B_IMAGE                Profile RMS along minor axis                               [pixel]
#  16 THETA_IMAGE            Position angle (CCW/x)                                     [deg]
#  17 FLAGS                  Extraction flags                                          
         1    790.6130     17.1426 300.4334430 +22.6231342     1032.766     69.58535      1.223     2.38    -8.635164     19.64215     141.3696        14     0.918     0.828 -13.15   0
         2    965.4398     10.1840 300.4902008 +22.6734662    -200.0784     69.63856      1.066     2.30    -8.166219     19.64215     63.73647         6     0.755     0.496  89.31   0
         3    738.9800      9.5451 300.4198186 +22.6054895     392.7516     69.60309      1.217     3.63    -8.558802     19.64215     61.93596        10     1.024     0.735 -65.86   0
         4    634.3685   1016.2424 300.0600679 +22.8632731     4000.722       69.674      1.083     1.83    -13.00262     19.64215     735.9141        23     0.921     0.864  62.00   2
         5    200.6806   1016.7194 299.9250096 +22.7331930     2674.919     69.74485     10.313    25.54     8.971767     19.64215     59.64082       187     4.903     3.693 -37.35  27
         6    171.9821   1023.2593 299.9139621 +22.7264463     566.0296     56.35073      2.688     6.12     14.13052     19.64215     41.44601        11     1.476     0.713 -61.27  27
         7    175.2799   1021.1486 299.9156742 +22.7268321     1024.536     65.79153      4.345     7.18     13.26455     19.64215     42.88973        18     1.579     1.030  88.32  19
         8     77.2114   1017.8531 299.8862814 +22.6964251     2229.217     69.62083     20.005    40.26     7.748905     19.64215     55.52383       286     7.610     5.911  11.04  27
         9     76.5803    939.8488 299.9114823 +22.6738849     1879.639     69.63856     15.328    24.96    -7.934877     19.64215      47.0875       137     6.372     2.715 -22.68   3
        10     83.8306    986.2720 299.8986206 +22.6893653     2816.369     69.62083     24.544    50.50     3.081343     19.64215     60.44485       621     9.668     7.321  52.22  19
        11    927.2395    999.8394 300.1566565 +22.9464360     432.5891     69.69173      1.058     1.95    -13.64785     19.64215     83.39262         6     0.682     0.533 -60.67   0
        12    177.7666   1015.9990 299.9181238 +22.7261034     928.1381     69.58535     12.181    14.74      11.7143     19.64215      46.3316        18     4.883     1.237 -30.56  19
        13    165.6174    999.1511 299.9198349 +22.7176257     808.6302     69.65628      4.171     5.75      9.19321     19.64215     30.44078         9     1.028     0.904 -81.49   1
        14    165.7005   1004.7831 299.9180268 +22.7192647      890.371      69.5321      4.555     6.08     10.62763     19.64215     40.11291        10     1.363     0.763 -63.84   3
        15     78.4801    965.0668 299.9038627 +22.6816818     2236.928     69.72714     20.035    29.15    -2.738536     19.64215      58.9037       183     8.453     2.790 -20.70   3
        16    146.4372    985.7512 299.9182387 +22.7080240     824.7186     69.63856      3.214     6.88     6.563745     19.64215     47.19118        12     2.056     0.645  53.18   0
        17    652.6631    983.2925 300.0764945 +22.8593111     3216.082     69.72714      1.108     2.00    -12.77397     19.64215     551.1313        23     0.993     0.879  23.49   0
        18    239.3139   1003.9702 299.9411680 +22.7411433     4225.646     69.62083     10.117    34.64   -0.0245347     19.64215     125.5247       514     9.636     4.627  64.53  18
        19    243.8981    977.5043 299.9512105 +22.7349344    -11.85845     69.79794      0.902     1.68    -4.884979     19.64215     70.13754         5     0.652     0.457  25.82   0
        20    220.1775   1015.8466 299.9313530 +22.7387993     3171.743     69.63856     11.912    35.02     6.313489     19.64215      72.2802       349     6.538     5.207 -26.78  27
        21    110.6509    969.2755 299.9124854 +22.6925524     1075.196     69.62083      9.066     8.99     1.798973     19.64215     35.75031        15     1.856     1.215  55.78   2
        22    561.2346    974.1312 300.0510139 +22.8292438     735.5887     69.62083      1.139     1.59    -12.90806     19.64215     181.2768        11     0.851     0.690  50.26   0
        23    639.9261   1013.8774 300.0625685 +22.8642626     4543.859     69.72714      1.125     1.79    -12.98876     19.64215     945.9653        23     0.924     0.862 -71.79   2
        24    385.6972    968.6728 299.9981745 +22.7749833     3267.242     69.74485      1.110     1.90     -12.7884     19.64215     567.8593        19     0.900     0.846  56.06   0
        25    454.9545    970.5982 300.0190912 +22.7963281     585.6492     69.62083      1.063     1.66    -12.94204     19.64215     115.4514         9     0.776     0.597 -68.67   0
        26    418.2662    955.5398 300.0125807 +22.7809957     265.0498     69.65629      1.225     2.28    -12.87991     19.64215     42.80855         5     0.683     0.463 -21.56   0
        27    170.1114   1008.5868 299.9181588 +22.7216797      903.045      69.5676      5.692     6.12     11.08876     19.64215     37.06929        11     1.649     0.639  84.80   3
        28    931.7956    947.2283 300.1752090 +22.9326995     970.4229     69.58535      1.075     1.78    -13.21737     19.64215     206.8694        11     0.791     0.730 -35.65   0
        29    721.2092    936.4062 300.1131084 +22.8664260     386.0446     69.47881      1.619     5.00    -12.75739     19.64215      56.8898         8     1.661     0.425  51.19   0
        30     60.4943    992.2769 299.8894175 +22.6840746      1946.48     69.74485     23.391    41.08    -2.172568     19.64215     58.38461       304     9.898     4.731 -70.08  19
        31    755.6412    930.1149 300.1258824 +22.8749504     446.4155     69.58535      1.078     2.09    -12.89437     19.64215     89.11938         9     0.812     0.622  33.50   0
        32    166.5264   1010.6129 299.9163851 +22.7211834     832.1028     69.63856      6.360     7.47     11.93688     19.64215     36.11854        10     1.490     1.048 -85.45   3
        33    777.7365    923.9481 300.1347737 +22.8798089     5530.561       69.674      1.088     1.74    -12.89116     19.64215     1192.063        27     0.934     0.861  66.49   0
        34    968.7514    923.4158 300.1944846 +22.9369451     294.5246     69.65629      1.046     2.82    -13.03227     19.64215     39.40735         5     0.714     0.458 -19.31   0
        35     89.1346    915.4368 299.9233282 +22.6706605     505.6094     69.62083      1.328     4.32    -10.26149     19.64215     56.28744         8     1.115     0.615 -60.59   0
        36    786.1556    906.0095 300.1432367 +22.8771857     697.1091     69.63856      1.080     1.82    -12.71209     19.64215     147.7925        11     0.867     0.669  18.55   0
        37    969.2737    905.1422 300.2005965 +22.9318548     290.2862     69.65629      1.162     2.12    -12.89766     19.64215     52.96927         6     0.698     0.555  36.68   0
        38    824.5593    899.3459 300.1573725 +22.8867922     426.8742     69.58535      1.051     2.17    -12.67318     19.64215      71.8748         6     0.743     0.506  46.49   0
        39    872.9158    890.5732 300.1752989 +22.8987767     282.1301     69.62083      1.001     2.12    -12.64787     19.64215     59.26156         6     0.741     0.491  -6.23   0
        40    724.2460    889.6089 300.1292887 +22.8539073     290.4464     69.63856      0.989     2.24       -12.47     19.64215     77.95704         7     0.806     0.578 -77.37   0
        41    436.7888    886.4006 300.0408497 +22.7667277     1953.079     69.44327      1.015     1.74    -12.46229     19.64215     423.0183        15     0.852     0.745  80.77   0
        42    735.6584    886.9481 300.1337097 +22.8565672     227.5966       69.674      1.107     2.30    -12.48736     19.64215     62.07495         7     0.713     0.636  79.38   0
        43     98.7295    874.5903 299.9396030 +22.6618361     214.4947     69.60309      1.075     3.41    -11.41972     19.64215     29.72171         5     0.742     0.453  18.95   0
        44    161.9364    872.1234 299.9600427 +22.6801123     301.5292     69.69173      1.071     3.19    -11.28032     19.64215     60.49985         8     0.828     0.723  -0.21   0
        45    139.2086    869.2538 299.9539150 +22.6724641     662.4324     69.62083      1.125     1.90    -11.53644     19.64215     142.1597        10     0.840     0.692 -42.79   0
        46   1010.7794    857.8355 300.2289392 +22.9307142     1015.909     69.63856      1.076     1.96    -12.63571     19.64215     206.5781        15     0.899     0.810   1.86   0
        47    964.9498    856.3683 300.2151247 +22.9165529     981.8528     69.65629      1.029     1.55    -12.53828     19.64215     252.4167        12     0.822     0.713  69.64   0
        48    748.5167    850.2028 300.1496752 +22.8498775     252.2278     69.54986      1.011     1.96    -12.22026     19.64215     67.24782         5     0.678     0.447  64.00   0
        49    616.7488    844.3391 300.1105464 +22.8086658     2432.866       69.674      1.066     1.82    -12.00329     19.64215     453.3415        16     0.853     0.763  77.63   0
        50    418.9867    841.4492 300.0499414 +22.7484911     278.8982     69.65629      1.097     3.12    -12.14918     19.64215     52.23742         7     1.015     0.574 -44.14   0
        51    166.9426    838.2679 299.9726156 +22.6719104      643.114     69.63856      1.135     1.86    -11.83926     19.64215     131.1995        10     0.807     0.694 -67.36   0
        52    637.3096    836.6610 300.1194469 +22.8126311     387.7238     69.70943      1.130     2.19    -11.96791     19.64215     57.86327         6     0.652     0.619  75.74   0
        53    185.6788    835.6882 299.9792772 +22.6767971     369.5126     69.74485      1.185     3.49    -11.87459     19.64215     55.72483         5     1.115     0.315 -37.97   0
        54    792.7133    824.0482 300.1719566 +22.8556255     2016.825     69.60309      1.055     1.70    -11.87465     19.64215     447.5507        13     0.792     0.752  67.10   0
        55   1009.8143    824.0991 300.2396180 +22.9207356     592.2491      69.5321      1.067     1.97    -12.40502     19.64215     111.0595         9     0.723     0.691  -7.06   0
        56    509.6986    816.6125 300.0862473 +22.7685896     214.4186      69.5321      1.096     2.96    -11.77757     19.64215     51.13976         6     0.815     0.529 -44.93   0
        57    156.1508    814.7863 299.9769029 +22.6619379     461.0986     69.65628      1.187     2.28    -11.87995     19.64215      76.7733         8     0.808     0.573  39.70   0
        58    305.8799    806.8900 300.0260108 +22.7046280     25962.05     69.74485      1.157     1.84    -11.97112     19.64215     5197.072        57     1.064     1.024  83.97   0
        59    563.7531    805.7344 300.1066108 +22.7816876     860.0885     69.63856      1.064     1.73    -11.66778     19.64215      174.011         8     0.653     0.639 -22.05   0
        60    976.6250    804.8679 300.2355258 +22.9052628     445.7686     69.60309      1.064     1.93    -12.25174     19.64215     75.51338         7     0.674     0.618  73.38   0
        61    592.5748    801.8196 300.1168566 +22.7892115     441.9739     69.63856      1.185     2.50    -11.66198     19.64215     90.42588        11     0.859     0.832 -37.96   0
        62    603.3741    800.1732 300.1207544 +22.7919789     301.4169     69.58535      1.025     2.23    -11.66118     19.64215     56.81129         6     0.700     0.586 -10.39   0
        63    708.6821    796.2360 300.1548285 +22.8224386     211.6152      69.5676      0.845     1.73    -11.88458     19.64215     59.44092         5     0.700     0.409 -66.99   0
        64    355.5788    784.1073 300.0488774 +22.7130118     15327.71     69.54986      1.092     1.83    -11.87482     19.64215     2781.027        40     1.005     0.940 -89.60   0
        65    746.7417    786.6364 300.1698076 +22.8310980     388.0505     69.62083      1.036     2.45    -11.90197     19.64215     69.04426         5     0.695     0.465  13.94   0
        66    369.9184    784.7320 300.0531338 +22.7174949     1012.207     69.72714      1.159     2.15    -11.87229     19.64215     172.9602        12     0.852     0.761   3.50   0
        67    878.5168    779.6444 300.2131458 +22.8686057      1248.16     69.58535      0.956     1.68    -11.85587     19.64215     240.2764        12     0.736     0.725 -68.24   0
        68    908.1280    777.4763 300.2230818 +22.8768610     66.48933     69.70943      0.919     4.22    -11.91167     19.64215     29.74525         5     0.929     0.546 -46.81   0
        69    636.4044    775.9772 300.1389109 +22.7949435     499.0167     69.58535      1.075     2.70    -11.63942     19.64215     90.42275         9     0.874     0.652  75.83   0
        70    238.1607    775.7860 300.0150780 +22.6753788     275.5689     69.63856      1.140     2.75     -11.6946     19.64215     76.96932         7     0.802     0.757  43.65   0
        71     42.1259    771.6073 299.9555299 +22.6153178      258.864      69.5676      1.283     4.15    -12.12019     19.64215     54.58183         7     1.015     0.625  19.75   0
        72    483.6530    770.9197 300.0930091 +22.7476641     346.4338     69.63856      1.045     2.33    -11.61883     19.64215     68.64405         7     0.776     0.567  69.44   0
        73    366.4076    778.1785 300.0541740 +22.7145613     299.1466     69.60309      1.217     2.30    -11.84898     19.64215     45.24362         5     0.683     0.475  75.00   0
        74    429.5451    765.7182 300.0778667 +22.7299352     231.6253     69.65629      0.904     2.79    -11.75478     19.64215     43.95234         5     0.731     0.449 -68.10   0
        75     70.7979    765.5507 299.9664051 +22.6221923     258.8932     69.60309      1.022     2.94    -11.95721     19.64215     45.33978         5     0.724     0.482  13.02   0
        76    235.6516    760.1203 300.0193943 +22.6701330     243.9628     69.62083      1.259     2.95    -11.52194     19.64215     46.20512         6     0.740     0.604  38.16   0
        77    559.0098    750.1442 300.1232203 +22.7643120     283.3087     69.62083      1.281     2.47    -11.55582     19.64215     45.19191         5     0.652     0.534 -89.42   0
        78    528.5448    748.3418 300.1143244 +22.7546549     363.6884       69.674      1.149     3.14    -11.54758     19.64215     61.97184         7     0.955     0.550 -43.92   0
        79    550.5916    746.2792 300.1218573 +22.7606773     666.3087      69.5676      1.064     2.15    -11.54507     19.64215     116.1362         9     0.807     0.663  85.22   0
        80    944.9371    745.0451 300.2451093 +22.8785813     2259.369     69.63856      1.051     1.69    -11.74287     19.64215     528.6767        17     0.831     0.779  52.16   0
        81    933.4013    736.3527 300.2443403 +22.8726266     693.6238     69.62083      0.990     1.88    -11.59893     19.64215     142.5669        10     0.866     0.592 -86.91   0
        82    296.5225    730.7964 300.0478559 +22.6799948      466.872      69.5321      1.253     2.70    -11.80494     19.64215     63.73556         7     0.835     0.589 -38.61   0
        83    759.6558    727.7303 300.1929947 +22.8180588     1214.223     69.63856      1.040     1.81    -11.51746     19.64215     221.0013        14     0.850     0.711  62.07   0
        84    964.5161    726.5891 300.2572182 +22.8791489     763.8787     69.58535      0.943     2.07    -11.66881     19.64215     137.3624        10     0.725     0.662  67.16   0
        85    145.2075    714.6272 300.0060845 +22.6299346     131.3583     69.62083      1.015     3.37    -11.55155     19.64215     50.97245         7     0.921     0.576  21.37   0
        86    878.1469    704.6960 300.2374124 +22.8469704     72073.25     69.69173      1.084     1.70    -11.34461     19.64215     15266.44        91     1.104     1.029  62.43   0
        87    730.5718    705.0436 300.1913136 +22.8028235     365.8553     69.63856      1.159     2.83    -11.34797     19.64215     59.24548         6     0.772     0.483 -79.74   0
        88    910.8174    697.6057 300.2499031 +22.8547274     352.7681     69.58535      1.280     2.66    -11.27554     19.64215     60.55043         5     0.793     0.455  51.14   0
        89    564.4813    693.5935 300.1433177 +22.7497230     742.2167     69.54986      1.091     2.19    -11.04565     19.64215     133.9385        12     0.867     0.785  53.00   0
        90    745.6601    690.8450 300.2006319 +22.8032710     4505.878     69.63856      1.108     1.84    -11.24501     19.64215     876.1176        27     1.047     0.885  56.08   0
        91    247.2847    686.1619 300.0470653 +22.6524135     2430.508     69.60309      1.152     1.99    -11.21054     19.64215     407.4994        17     0.917     0.830 -88.10   0
        92    329.3838    684.4205 300.0731568 +22.6765539     437.4286     69.60309      1.026     2.27    -11.26472     19.64215     92.49884         7     0.753     0.620  58.65   0
        93    537.6944    679.6130 300.1395267 +22.7376750      401.054     69.54986      1.218     2.23    -10.86629     19.64215     72.05904         7     0.767     0.615 -74.34   0
        94    529.1334    671.8311 300.1393928 +22.7328734      1596.42     69.62083      1.167     2.11    -10.80015     19.64215      271.081        15     0.947     0.754  67.74   0
        95    519.3326    665.4773 300.1384088 +22.7281098     738.8148     69.70943      1.134     2.09    -10.78316     19.64215     103.3689        10     0.839     0.633 -89.19   0
        96    913.0028    663.3982 300.2617099 +22.8455563      238.562      69.4077      1.222     2.96    -10.99576     19.64215     60.54021         7     0.976     0.657 -87.18   0
        97    182.7539    661.8962 300.0348995 +22.6260840     301.6099     69.63856      1.171     1.98    -11.22652     19.64215     69.52505         7     0.716     0.584  88.36   0
        98    196.9017    660.2974 300.0398161 +22.6298722     347.0869     69.81562      1.098     2.25    -11.19369     19.64215     68.98521         5     0.767     0.441 -59.45   0
        99    444.3519    655.3990 300.1183541 +22.7027237     824.0911     69.62083      1.135     2.16    -10.94434     19.64215     145.0315        13     0.927     0.744 -83.33   0
       100    223.0396    656.9135 300.0490401 +22.6367470     310.9069     69.60309      1.155     3.69    -11.13518     19.64215     48.61605         5     0.639     0.614  83.78   0
       101    543.1146    655.7307 300.1489801 +22.7324460     307.9684     69.72714      1.296     2.82    -10.69155     19.64215      45.9867         7     0.836     0.582  35.81   0
       102     98.2266    650.4286 300.0123651 +22.5974207     9682.031     69.60309      1.184     2.07    -11.28011     19.64215     1520.023        39     1.050     1.005  76.88   0
       103   1019.8680    652.2606 300.2986560 +22.8743835     445.6017      69.2296      0.964     1.85    -10.79842     19.64215       98.367         8     0.730     0.616  32.64  16
       104     19.1889    651.8648 299.9873494 +22.5741024     369.3461     69.54986      1.208     2.46    -11.07642     19.64215     82.95561        11     0.920     0.801  24.57   0
       105    529.1660    650.5635 300.1463189 +22.7267789     466.8489     69.69173      1.061     2.26    -10.68888     19.64215     89.94296         8     0.816     0.594  10.47   0
       106    282.6241    642.2851 300.0723190 +22.6504333     189.4068     69.58535      1.094     2.84    -11.10515     19.64215     39.05363         5     0.737     0.435 -68.94   0
       107    947.2163    636.6705 300.2810688 +22.8481321     560.0057     69.63856      1.121     1.85    -10.77065     19.64215     124.4448         9     0.856     0.753  -1.36   0
       108     44.1362    634.4212 300.0007684 +22.5765913     714.3291     69.58535      1.520     4.29    -10.96488     19.64215     79.30789        16     1.347     0.771 -81.39   0
       109    110.3908    634.5333 300.0213121 +22.5965142     188.5102     69.62083      1.089     3.81    -11.22905     19.64215     33.23344         5     1.064     0.391 -72.82   0
       110    887.2656    629.4106 300.2647388 +22.8280786      368.336     69.58535      1.110     2.52    -10.72618     19.64215     59.93666         7     0.796     0.599  81.95   0
       111    449.0096    623.3235 300.1302326 +22.6949157     413.2404     69.60309      1.281     3.06    -10.74555     19.64215     57.34808         8     0.933     0.602  -7.60   0
       112    597.2082    621.6999 300.1768845 +22.7389011      372.178      69.5321      1.194     2.48    -10.46806     19.64215     54.23878         6     0.704     0.609  72.79   0
       113    644.5577    620.2719 300.1920918 +22.7526905     340.7495     69.60309      1.303     3.48      -10.648     19.64215     37.11896         5     0.773     0.452 -70.80   0
       114    614.6677    619.9794 300.1828798 +22.7436431       270.53     69.60309      1.170     2.87    -10.47267     19.64215     50.17645         5     0.762     0.406  68.21   0
       115    493.5226    619.1458 300.1454416 +22.7070694     482.6512     69.65629      1.281     3.20    -10.53446     19.64215     64.37459         7     0.781     0.718 -36.49   0
       116    927.1169    614.6492 300.2819623 +22.8357817     1632.861     69.62083      1.060     1.80    -10.61303     19.64215     335.7263        15     0.844     0.765  37.60   0
       117    458.9014    614.7083 300.1361113 +22.6954105     915.3647     69.79794      1.231     2.19    -10.64207     19.64215     153.4033        13     0.910     0.773  74.44   0
       118     21.0038    608.6530 300.0019616 +22.5622574     2501.446     69.60309      1.206     2.05    -10.52707     19.64215     383.3356        19     0.945     0.875  57.55   0
       119    322.3699    601.6920 300.0978747 +22.6507136     4476.165     69.58535      1.152     2.10    -10.98081     19.64215      658.749        26     0.964     0.952 -78.48   0
       120    444.8179    598.6806 300.1369402 +22.6865856     4345.182     69.62083      1.187     2.03    -10.65917     19.64215     736.9665        24     1.012     0.900  83.65   0
       121    856.4554    592.4420 300.2671549 +22.8082239     947.5622     69.58535      1.079     2.06    -10.50032     19.64215     141.9292        12     0.813     0.771  26.11   0
       122    941.0208    589.7819 300.2943825 +22.8328036     5973.414     69.62083      1.092     1.72    -10.50109     19.64215     1297.317        23     0.891     0.849  65.92   0
       123    505.4138    588.2348 300.1591915 +22.7017633     5648.361     69.62083      1.170     2.08    -10.45249     19.64215     811.3418        28     1.036     0.922  70.94   0
       124    233.0182    583.7472 300.0759289 +22.6187530     713.1884     69.60309      1.184     2.03    -10.81722     19.64215     119.0587        11     0.979     0.627  64.40   0
       125    675.2267    583.9663 300.2134461 +22.7514616     266.4523     69.63856      1.302     2.57    -10.48759     19.64215      36.0375         5     0.767     0.485  32.28   0
       126    780.2534    576.2552 300.2486699 +22.7807333     306.2319     69.65629      1.284     3.56    -10.49326     19.64215      68.3392         9     0.967     0.812   7.60   0
       127    437.0467    576.4783 300.1417399 +22.6778820     1930.161     69.62083      1.134     2.07    -10.60854     19.64215     316.3499        17     0.913     0.816  30.39   0
       128    415.3644    574.8840 300.1355128 +22.6709203     652.3965     69.60309      1.178     1.89    -10.66922     19.64215     105.2985         8     0.716     0.627  56.49   0
       129    169.4400    574.6216 300.0591354 +22.5970547     426.9224     69.65629      1.128     2.74    -10.89821     19.64215     70.18781         8     0.872     0.627 -27.37   0
       130    856.7997    571.6857 300.2740100 +22.8023642      823.037     69.49658      1.228     2.53    -10.43857     19.64215     116.2182        11     0.856     0.757 -51.38   0
       131    737.2339    568.6070 300.2377533 +22.7656405     349.6417     69.62083      1.023     3.38    -10.48775     19.64215     60.41628         6     0.723     0.627  33.46   0
       132    553.6850    563.9495 300.1821099 +22.7092686     100695.8     69.60309      1.211     2.02    -10.32101     19.64215      17599.2       130     1.255     1.220 -83.01   0
       133    239.7157    563.9295 300.0844525 +22.6150772       1572.4     69.72714      1.200     2.05    -10.63567     19.64215     285.1332        18     0.955     0.870 -60.68   0
       134    805.3912    559.4785 300.2619566 +22.7834491     327.6112     69.58535      1.108     2.99    -10.41396     19.64215     53.15248         5     0.716     0.457  21.51   0
       135    288.3179    546.6005 300.1051944 +22.6246884     232.6655     69.49658      0.934     3.45    -10.50879     19.64215     36.28505         5     0.728     0.473 -13.34   0
       136    444.2262    544.2203 300.1544588 +22.6707763     1383.293     69.60309      1.249     2.38    -10.47354     19.64215     173.0773        18     0.971     0.890 -18.65   0
       137    855.3915    540.6022 300.2836751 +22.7930119     208.5263     69.44327      1.168     2.61    -10.35343     19.64215     50.95634         5     0.848     0.568 -44.09   0
       138    841.1385    530.2941 300.2825832 +22.7857787     688.6242     69.70943      1.104     2.12    -10.33732     19.64215     138.4199        11     0.880     0.658  76.22   0
       139    712.3866    527.9521 300.2432277 +22.7465149     1260.047     69.63856      1.189     2.20    -10.10196     19.64215     195.6513        13     0.872     0.778  58.75   0
       140    499.5521    523.9651 300.1782575 +22.6815549     380.3435     69.65629      1.190     2.32    -10.16593     19.64215     70.22997         8     0.783     0.652 -12.02   0
       141    969.8166    521.9124 300.3254237 +22.8219288     614.6588     69.54986      1.100     1.99     -10.3119     19.64215     135.3383         9     0.739     0.677  33.45   0
       142    955.5249    520.9689 300.3212738 +22.8173757     509.4583     69.62083      1.864     3.13    -10.32054     19.64215     60.19902         6     0.813     0.608  51.91   0
       143    841.6169    520.6738 300.2858591 +22.7831581     1043.405     69.62083      1.168     1.93    -10.32408     19.64215      173.088        16     1.030     0.780  41.83   2
       144    594.9658    518.5922 300.2097031 +22.7086236     305.3589     69.62083      1.122     2.34    -9.851295     19.64215     58.76199         5     0.714     0.583  83.08   0
       145    433.1192    517.3911 300.1597228 +22.6597434     175.4537      69.5676      0.930     3.37    -10.34477     19.64215     31.15443         5     0.752     0.438  20.54   0
       146    879.6027    515.3982 300.2994137 +22.7930256     1939.929      69.4077      1.079     2.04     -10.3483     19.64215      297.993        14     0.850     0.779  76.69   0
       147    540.7493    511.1829 300.1952336 +22.6902392     244.5487     69.62083      1.910     3.65    -10.02227     19.64215     34.70604         5     0.888     0.433 -43.17   0
       148    971.2664    505.8275 300.3311036 +22.8177404     327.2094     69.60309      1.147     2.32     -10.2993     19.64215     69.57317         6     0.699     0.599 -84.86   0
       149    111.9168    506.0115 300.0635602 +22.5601093      436.864     69.58535      1.188     2.11    -10.59592     19.64215     77.04247         7     0.794     0.529  46.85   0
       150    711.6709    490.2040 300.2552725 +22.7354576     283.9558      69.5676      1.093     3.55    -9.959383     19.64215     38.64474         6     0.728     0.642   7.82   0
       151    653.7664    486.2026 300.2385380 +22.7169505     369.2852     69.58535      1.269     2.55    -9.835591     19.64215     56.62616         6     0.857     0.556  20.17   0
       152    967.8238    478.0019 300.3390728 +22.8087116     306.5695      69.5676      1.387     2.59    -10.27372     19.64215     70.65388         7     0.888     0.541 -74.36   0
       153    713.8839    478.1465 300.2598799 +22.7326573     403.1214     69.65628      1.254     2.38    -9.925259     19.64215     60.56288         8     0.795     0.626  35.25   0
       154    871.1519    474.2916 300.3101382 +22.7786813     493.7874     69.65629      1.245     2.41     -10.3217     19.64215     88.17761        11     0.892     0.753  61.81   0
       155    854.8256    470.6491 300.3062329 +22.7727425     327.2315     69.63856      1.297     3.18     -10.2772     19.64215      61.0941         7     0.908     0.718  56.57   0
       156    599.6021    468.7819 300.2273331 +22.6957092     1552.994      69.5321      1.203     2.24    -9.741401     19.64215     261.2788        15     0.931     0.811  47.65   0
       157    960.2145    467.1841 300.3402152 +22.8033227     272.4855      69.5676      1.351     3.65    -10.24426     19.64215     45.84272         5     0.922     0.415  44.23   0
       158   1010.8257    447.6398 300.3623498 +22.8128658     622.7853     69.65628      1.056     1.68    -10.16166     19.64215     155.7662         9     0.718     0.662 -69.12   0
       159    882.7088    447.5138 300.3224417 +22.7744488     355.3256     69.78024      1.183     3.16    -10.21538     19.64215      45.4752         5     0.725     0.474  16.76   0
       160    969.0709    446.3894 300.3497337 +22.7999987     426.9459     69.62083      1.020     1.80    -10.17242     19.64215     81.87227         7     0.669     0.604  17.53   0
       161    710.1273    442.7003 300.2702270 +22.7213486     522.8027     69.78024      1.187     2.25    -9.872678     19.64215     89.04649         9     0.865     0.609 -49.26   0
       162    214.4350    441.0547 300.1165226 +22.5722341     335.1267     69.63856      1.184     2.13    -9.776145     19.64215     63.28212         6     0.744     0.494  85.92   0
       163    276.7244    436.8786 300.1372428 +22.5897221     1771.488     69.72714      1.188     2.18     -9.66926     19.64215     302.5295        18     0.976     0.864  51.39   0
       164   1009.5399    435.0003 300.3660555 +22.8088472     2082.625      69.5676      1.076     1.76    -10.12822     19.64215     379.2167        16     0.849     0.785  73.81   0
       165    223.8303    431.6219 300.1225073 +22.5723458     3806.762     69.62083      1.257     2.25     -9.63601     19.64215     573.3918        24     1.043     0.942  76.92   0
       166    364.5682    425.7666 300.1681692 +22.6128808     2250.899     69.63856      1.207     2.27    -9.643178     19.64215     372.3264        19     0.970     0.883  62.41   0
       167    989.5423    425.9780 300.3627497 +22.8002636     812.8947     69.62083      0.985     1.81    -10.10714     19.64215     163.6333         8     0.698     0.642  20.06   0
       168    608.7474    422.3826 300.2452554 +22.6851243     8947.618     69.60309      1.252     2.22     -9.74299     19.64215     1281.358        35     1.072     1.019 -86.31   0
       169    626.4358    422.3862 300.2507619 +22.6904277     475.5109     69.62083      1.755     5.02    -9.764532     19.64215      51.3537         9     1.393     0.513 -44.17   0
       170    942.2341    404.6289 300.3549327 +22.7799556     363.4003     69.63856      1.432     2.32    -10.09055     19.64215     68.70779         7     0.862     0.502 -60.90   0
       171    163.3837    402.6914 300.1131184 +22.5459088     900.4731     69.54986      1.114     2.19    -9.896896     19.64215     154.7118        10     0.834     0.663  85.69   0
       172    549.3863    391.9618 300.2366571 +22.6585917     3173.455     69.63856      1.261     2.30    -9.254463     19.64215      420.159        27     1.121     0.947 -76.60   0
       173    963.0334    392.0269 300.3655122 +22.7825633     480.9064     69.63856      1.147     1.87    -10.10051     19.64215      131.739        11     0.834     0.780 -26.45   0
       174    264.2181    391.8228 300.1479903 +22.5730385     363.3725     69.62083      1.261     3.64    -9.532969     19.64215     42.67487         6     0.785     0.526 -51.14   0
       175    121.5352    384.2569 300.1061024 +22.5280632     191.9228       69.674      1.101     3.69    -9.908648     19.64215     37.37986         5     0.949     0.413   9.55   0
       176    753.8807    380.9750 300.3039093 +22.7167262     691.3558     69.60309      1.401     2.52    -9.886134     19.64215     93.26894        11     0.961     0.675  86.82   0
       177    456.0688    378.1928 300.2120873 +22.6266601     3064.716     69.58535      1.272     2.27    -9.314274     19.64215      428.406        23     1.095     0.925  83.63   0
       178    847.9125    372.5083 300.3359618 +22.7424670     746.3004     69.78024      1.162     2.35    -10.08906     19.64215     114.5811        11     0.888     0.681  70.79   0
       179    945.3540    372.1549 300.3664542 +22.7715551     291.2447     69.65628      1.113     2.88    -10.11585     19.64215      44.0281         7     0.729     0.652  68.39   0
       180    440.4555    366.4923 300.2110296 +22.6186187     234.7863       69.674      1.169     5.02    -9.333506     19.64215     30.10189         6     0.940     0.758 -14.85   0
       181    343.6263    357.5218 300.1838224 +22.5870078     1261.961     69.62083      1.346     2.30    -9.374308     19.64215     159.0324        16     0.979     0.904  88.40   0
       182     62.0691    354.7597 300.0972083 +22.5017569     407.0494     69.60309      1.240     2.37    -9.845885     19.64215     79.03746         9     0.847     0.666  59.87   0
       183    312.9612    346.9351 300.1777242 +22.5747721     14351.75     69.60309      1.315     2.19    -9.423833     19.64215     2177.718        47     1.169     1.077  68.09   0
       184    847.4823    344.0372 300.3450748 +22.7341549     664.4381     69.58535      1.156     2.29    -10.05783     19.64215     98.11729         8     0.767     0.655   5.68   0
       185      9.3356    334.8740 300.0872875 +22.4802282     2438.827     69.65628      1.200     2.23    -9.710999     19.64215     359.6738        18     0.966     0.869  62.17   0
       186    762.7369    333.4990 300.3220880 +22.7057368     290.3756     69.72714      1.335     4.18    -9.753382     19.64215     43.39743         5     0.855     0.595 -48.83   0
       187    411.5676    332.1702 300.2131884 +22.6001011     252.4422     69.62083      1.173     2.75    -9.350813     19.64215     56.73272         6     0.900     0.525 -25.66   0
       188    723.3374    326.5318 300.3120758 +22.6919293     934.8826       69.674      1.211     2.43    -9.603779     19.64215     114.9539        13     0.875     0.833 -53.88   0
       189    938.4666    318.9201 300.3815960 +22.7541876     268.9566     69.72714      0.974     2.69    -10.06044     19.64215     66.95753         7     0.926     0.484 -81.19   0
       190    385.2853    311.0959 300.2118556 +22.5861691     1006.988     69.79794      1.340     3.09    -9.352157     19.64215      121.848        18     1.177     0.863 -84.64   0
       191    824.0903    303.3278 300.3510042 +22.7154459     241.4317     69.78024      1.171     3.64    -9.713325     19.64215     37.85748         5     0.814     0.475  53.80   0
       192    460.9997    290.5386 300.2420861 +22.6029645     667.9271      69.5676      1.404     2.60    -9.348656     19.64215      75.9016        10     0.926     0.657 -58.96   0
       193    705.8027    282.4529 300.3209264 +22.6740083     1101.842     69.60309      1.276     2.38    -9.369653     19.64215     145.9031        16     0.925     0.907 -80.29   0
       194    966.8984    276.5783 300.4042108 +22.7505278     1577.744     69.54986      1.113     2.08    -9.949881     19.64215     263.7591        16     0.935     0.797  57.37   0
       195    414.3970    266.2841 300.2354609 +22.5820276     318.0894     69.54986      1.254     3.78    -9.327826     19.64215      41.4571         7     0.960     0.478 -82.89   0
       196     89.2078    260.5924 300.1362127 +22.4828756     731.1595     69.47881      1.513     3.48    -9.486647     19.64215     89.35126        15     1.101     0.948 -30.40   0
       197    119.8652    260.3384 300.1458199 +22.4919989     417.6932     69.65628      1.888     4.14    -9.529583     19.64215     48.86816         6     1.084     0.617 -68.71   0
       198    967.7671    249.2967 300.4133391 +22.7429429     117.0904     69.60309      0.952     4.01    -9.731992     19.64215     40.39719         5     0.906     0.520  54.28   0
       199    875.4776    232.6873 300.3899559 +22.7105296     920.2903     69.76255      1.167     2.32    -9.756535     19.64215     151.0794        16     1.067     0.802  67.20   0
       200    294.2218    230.3681 300.2097424 +22.5356834     1102.397     69.62083      1.286     2.38     -8.97034     19.64215      151.721        15     0.991     0.817  77.32   0
       201    372.3374    225.2848 300.2356860 +22.5576433     455.2987     69.72714      1.269     3.83    -9.041079     19.64215     66.25674        10     1.123     0.646  10.97   0
       202    773.9586    224.1236 300.3610962 +22.6776612     316.9983     69.58535      1.308     3.68    -9.480365     19.64215     52.28721         5     0.698     0.559  88.33   0
       203    188.9342    217.7361 300.1811115 +22.5004846     306.4995       69.674      1.231     3.08     -9.33812     19.64215     65.21739         6     0.854     0.512  39.47   0
       204    726.6039    214.1226 300.3495886 +22.6606012     872.1998      69.5321      1.298     2.61    -9.373977     19.64215     108.0738        11     0.911     0.717  61.55   0
       205    210.5482    210.7825 300.1900863 +22.5049698     198.2864     69.60309      1.243     3.43    -9.157775     19.64215     37.32031         5     0.743     0.457  70.28   0
       206    998.1224    206.4641 300.4367103 +22.7397134     457.8727     69.70943      1.058     2.25    -9.307211     19.64215     77.81379         6     0.717     0.546 -40.09   0
       207    730.5013    205.3421 300.3536527 +22.6592448     272.9821     69.70943      1.125     4.89    -9.366108     19.64215     36.50275         8     0.850     0.796   8.35   0
       208    651.2045    204.7935 300.3291312 +22.6353312     580.8752     69.47881      1.394     3.16     -9.22632     19.64215     77.00566        11     0.919     0.858  28.79   0
       209    846.5350    196.2970 300.3927462 +22.6913987     689.3845     69.72714      1.224     2.71    -9.577697     19.64215     94.49657        11     0.893     0.776  16.44   0
       210    577.2410    196.4206 300.3088181 +22.6107637     611.6326     69.65629      1.332     2.87     -9.21069     19.64215     79.87328        10     0.904     0.758  -0.22   0
       211    858.7173    195.4246 300.3968266 +22.6947962     457.1168     69.58535      1.248     2.21    -9.613776     19.64215     72.21503         8     0.867     0.541  68.74   0
       212    905.2690    195.0929 300.4114463 +22.7086411      220.668     69.74485      1.175     3.42    -9.603911     19.64215     30.17685         5     0.997     0.340 -45.79   0
       213   1019.5411    186.1617 300.4499807 +22.7402861     825.7579     69.63856      1.113     2.09     -9.09252     19.64215     133.7938        13     0.914     0.723 -51.40  16
       214    975.3737    185.5993 300.4363876 +22.7269015     518.3424      69.5676      1.160     2.30    -9.316235     19.64215     94.83963        10     0.855     0.694 -56.54   0
       215    209.2496    179.3255 300.1998915 +22.4955482     239.3053     69.62083      1.003     2.55    -9.133772     19.64215     52.03377         5     0.727     0.440  16.16   0
       216     71.4380    174.0672 300.1587747 +22.4527101      1049.16     69.60309      1.260     2.60    -9.140715     19.64215     140.9076        15     1.064     0.839  54.72   0
       217    228.8047    167.3144 300.2098677 +22.4979627      2782.65     69.54986      1.285     2.32    -9.047043     19.64215      388.556        20     1.045     0.900  69.76   0
       218     12.9216    161.6526 300.1446276 +22.4315950     763.3279     69.65629      1.385     2.89    -8.766211     19.64215     105.5995        13     1.039     0.834  48.67   0
       219    212.1965    158.1683 300.2076729 +22.4903566     294.5912     69.60309      1.161     2.79    -9.093127     19.64215     47.70993         6     0.753     0.544  44.36   0
       220    872.7399    148.5119 300.4164225 +22.6855053     1837.798     69.69173      1.228     2.12    -9.435451     19.64215     271.3177        17     0.945     0.862 -87.85   0
       221    976.3528    147.1301 300.4491774 +22.7161297     1317.933     69.60309      1.132     2.08    -9.093296     19.64215     234.9855        14     0.879     0.775  70.78   0
       222    422.1167    143.6400 300.2776677 +22.5491117     290.8513     69.58535      1.103     2.24    -8.938849     19.64215     47.05486         5     0.711     0.441 -19.97   0
       223    346.5393    135.5730 300.2567753 +22.5241419     392.4304     69.62083      1.369     4.36    -8.968019     19.64215     37.96847         7     0.885     0.656  76.80   0
       224    112.4378    132.7005 300.1849344 +22.4531306     458.1111     69.63856      1.560     3.56    -9.159911     19.64215     48.85052         8     0.994     0.618  38.12   0
       225    473.6657    131.0609 300.2977890 +22.5609460     789.0613     69.65629      1.329     2.51    -8.933423     19.64215     121.9484        15     1.051     0.825  64.22   0
       226    401.7318    131.6151 300.2752275 +22.5395476     213.1812     69.63856      1.087     3.29    -8.910235     19.64215     46.07169         6     0.906     0.440  86.51   0
       227    247.7208    110.9825 300.2340256 +22.4874565     2981.991     69.62083      1.343     2.40    -8.899093     19.64215     410.0393        26     1.164     0.982  83.70   0
       228     98.8351    110.9122 300.1877769 +22.4427958     317.8064     69.60309      1.351     2.29    -9.094178     19.64215     57.67062         6     0.841     0.452  55.95   0
       229      9.2063    101.2925 300.1630567 +22.4131548     248.7101      69.5321      1.445     4.30    -8.792758     19.64215     32.17442         5     0.864     0.609  39.96   0
       230    493.7155     96.3769 300.3152814 +22.5569873     2980.772     69.58535      1.273     2.40     -8.72143     19.64215     430.0214        22     1.015     0.964  65.70   0
       231    379.1287     96.1876 300.2796899 +22.5225952     338.4559     69.63856      1.193     2.78    -8.872172     19.64215     52.80707         8     0.807     0.658 -46.12   0
       232    746.2398     85.4662 300.3974548 +22.6294952     328.0981     69.58535      1.149     2.37    -8.869029     19.64215      55.3806         6     0.689     0.615 -87.38   0
       233    838.5173     84.4293 300.4265471 +22.6568290     247.2999     69.63856      1.199     3.33    -8.877224     19.64215     43.64543         6     0.878     0.716  24.02   0
       234    622.0509     76.3189 300.3617400 +22.5896699      3092.35     69.63856      1.298     2.32    -8.588511     19.64215     406.0438        21     1.050     0.905  89.51   0
       235    396.9939     75.4050 300.2919891 +22.5219781     717.3854     69.47881      1.258     2.92    -8.680013     19.64215     98.67288        13     1.033     0.760  89.58   0
       236    663.2053     73.8092 300.3753706 +22.6012753      441.816     69.47881      1.196     2.48    -8.617074     19.64215     56.48262         8     0.769     0.664  32.51   0
       237    679.3282     69.2962 300.3818562 +22.6048068     264.0346     69.72714      1.347     3.13    -8.637552     19.64215     40.74253         5     0.738     0.450  76.87   0
       238    145.9379     67.8319 300.2163871 +22.4445494     271.4354     69.63856      1.166     2.18    -8.855203     19.64215      68.6912         6     0.743     0.512  36.97   0
       239    948.6074     66.9832 300.4665285 +22.6847692     144.8546      69.5676      1.159     2.12    -8.582187     19.64215     54.77369         6     0.769     0.484  83.97   0
       240    166.9308     62.9337 300.2244997 +22.4494366     5736.221       69.674      0.426     2.33    -8.821011     19.64215     4859.008         7     0.422     0.389  33.39   0
       241    666.1710     61.3129 300.3803478 +22.5985710     1390.919     69.62083      1.307     2.46    -8.596392     19.64215     170.8662        17     0.965     0.945 -10.45   0
       242    681.3605     59.9326 300.3855266 +22.6027234     461.9673     69.58535      1.622     6.32    -8.627146     19.64215     50.60255        11     1.397     0.802  50.20   0
       243    752.6738     52.7016 300.4100879 +22.6220005     817.5642     69.76255      1.249     2.38    -8.732762     19.64215     107.7546        14     0.935     0.858  30.94   0
       244    690.8081     46.1144 300.3929515 +22.6015798     283.0468     69.54986      1.168     2.31    -8.622049     19.64215     56.41878         6     0.728     0.531 -59.52   0
       245    496.1222     45.2242 300.3326233 +22.5430078      554.871     69.62083      1.275     3.05    -8.482668     19.64215     67.63029         9     0.794     0.735  34.12   0
       246     69.1796     45.1744 300.1998870 +22.4150285     370.0265     69.60309      1.343     2.62    -8.829157     19.64215     42.77232         6     0.743     0.545  38.59   0
       247    400.4846     43.2502 300.3035048 +22.5137850     482.9651     69.60309      1.384     3.48    -8.466551     19.64215     59.30507         8     0.936     0.700 -60.38   0
       248    739.2090     33.9411 300.4119778 +22.6125737     321.9205     69.58535      1.848     6.36    -8.664452     19.64215     35.00766         8     1.475     0.771  86.36   0
       249    171.6304     33.7150 300.2354368 +22.4424540     1831.357     69.62083      1.288     2.34     -8.72862     19.64215     262.5707        20     1.090     0.861  82.78   0
       250    287.4757     25.8063 300.2740141 +22.4749065       626.46     69.54986      1.389     3.66    -8.685214     19.64215     97.01839        13     1.280     0.777  42.81   0
       251    732.7889     25.7360 300.4126388 +22.6082917     626.5765      69.5676      1.639     3.80    -8.623845     19.64215     77.22578        10     1.060     0.787  76.51   0
       252    770.4976     20.9590 300.4259371 +22.6182091     413.1323     69.60309      1.614     3.71     -8.62759     19.64215     39.95731         6     0.794     0.499  87.67   0
       253    694.3984     20.4899 300.4023808 +22.5952870     409.4514     69.54986      1.696     4.93    -8.563893     19.64215     34.85417         8     0.911     0.754 -54.79   0
       254    547.9091   1021.0068 300.0316016 +22.8386887     1085.835     66.18443      1.086     1.85     -12.9891     19.64215     244.7581        10     0.759     0.704   0.23  16
       255    173.9396     12.6579 300.2429833 +22.4370984     448.7844     69.69173      1.441     3.19    -8.661295     19.64215     61.09695         7     0.898     0.646  31.38   0
       256     77.2194    951.9106 299.9077542 +22.6775333     2001.791      69.5676     19.961    35.91    -5.521987     19.64215     52.96487       251     9.673     3.700 -21.87   3
