#   1 NUMBER                 Running object number                                     
#   2 X_IMAGE                Object position along x                                    [pixel]
#   3 Y_IMAGE                Object position along y                                    [pixel]
#   4 ALPHA_J2000            Right ascension of barycenter (J2000)                      [deg]
#   5 DELTA_J2000            Declination of barycenter (J2000)                          [deg]
#   6 FLUX_APER              Flux vector within fixed circular aperture(s)              [count]
#   7 FLUXERR_APER           RMS error vector for aperture flux(es)                     [count]
#   8 FLUX_RADIUS            Fraction-of-light radii                                    [pixel]
#   9 FWHM_IMAGE             FWHM assuming a gaussian core                              [pixel]
#  10 BACKGROUND             Background at centroid position                            [count]
#  11 THRESHOLD              Detection threshold above background                       [count]
#  12 FLUX_MAX               Peak flux above background                                 [count]
#  13 ISOAREA_IMAGE          Isophotal area above Analysis threshold                    [pixel**2]
#  14 A_IMAGE                Profile RMS along major axis                               [pixel]
#  15 B_IMAGE                Profile RMS along minor axis                               [pixel]
#  16 THETA_IMAGE            Position angle (CCW/x)                                     [deg]
#  17 FLAGS                  Extraction flags                                          
         1    740.5397     15.6131 300.4100891 +22.6219711     815.7706     69.53336      1.255     2.60    -7.784986     19.62747     117.2235        12     0.990     0.697  84.02   0
         2    678.6237      8.7621 300.3930205 +22.6014688     450.0579     69.58652      1.149     2.40    -7.607033     19.62747     65.62431         6     0.809     0.484  89.63   0
         3    484.1954      8.2332 300.3326493 +22.5431059     430.8791     69.55108      1.189     2.45    -7.502017     19.62747     81.06416         9     0.857     0.668 -22.78   0
         4    387.9247      6.3198 300.3033112 +22.5137249     401.3641     69.67504      1.406     3.38    -8.607815     19.62747     59.79658         8     0.915     0.700  22.86  16
         5    187.9132    996.3550 299.9193756 +22.7378037      1192.79     69.55108      6.955    11.80     22.64305     19.62747     35.83809        28     2.162     1.793 -74.23   0
         6     72.6220   1006.7855 299.8801567 +22.7061713     3278.565      69.5688     17.089    77.80     19.02483     19.62747     121.7567      1561    13.744    12.569  78.13  27
         7     65.6111    946.9002 299.8974779 +22.6869108     2563.899     69.48014     27.402    86.05   -0.7061886     19.62747     64.08597      1665    15.324    13.408 -65.30  19
         8    208.0595    977.8989 299.9316470 +22.7385640     2750.146     69.65734     14.818    35.86     13.11571     19.62747     65.41271       295     7.386     4.831 -48.45   3
         9    228.8844    968.0415 299.9413298 +22.7419913     4239.048     69.53335      8.515    32.08     6.056614     19.62747     103.4967       336     8.463     3.440  66.83   2
        10    622.2177    979.2821 300.0600432 +22.8632512     4067.742     69.53336      1.236     2.24    -12.43275     19.62747     591.5228        27     1.097     0.972  11.94   3
        11     53.2282    986.1984 299.8808364 +22.6944497     925.7474     69.51562      3.708     4.00     5.415139     19.62747     40.78896         5     1.039     0.441  44.45   1
        12    915.1252    962.9307 300.1566351 +22.9463985     485.0097     69.63965      1.284     2.64    -13.34312     19.62747     55.33904         8     0.804     0.639  52.19   0
        13    535.6789    984.0322 300.0315542 +22.8386512     1108.835     69.55108      1.208     2.28    -12.44734     19.62747     189.2013        13     0.919     0.763  68.02   0
        14    103.0174    955.1443 299.9064142 +22.7005051     711.7347     69.55108      4.472     4.37     7.883864     19.62747     32.31919         5     1.097     0.495  38.61   1
        15    218.4546    959.5528 299.9408517 +22.7364275     1659.676     69.60423      7.114    11.38      4.62497     19.62747     59.69613        35     2.426     1.487  17.75   3
        16    213.5190    949.1603 299.9427012 +22.7319676     1029.693     69.53336      5.671     8.08    0.3998385     19.62747     38.45156        13     1.981     0.922  23.55   3
        17    135.6052    949.1426 299.9184932 +22.7085705      1066.48     69.53336      4.940     6.84     5.332548     19.62747     34.50328         9     1.428     0.918  41.64   0
        18    640.4950    946.3328 300.0764640 +22.8592830     3424.425     69.71042      1.251     2.26    -12.44192     19.62747     433.1797        24     1.039     0.964  47.78   0
        19    117.3745    946.5655 299.9136678 +22.7023582      949.212     69.58652      6.065     6.75      4.48211     19.62747     38.35467        12     1.198     1.068  -0.01   1
        20     43.7501    987.2140 299.8775618 +22.6918940     657.9407     69.60423      4.641     2.74      2.38318     19.62747     31.08785         5     0.806     0.643 -45.95   0
        21    182.9693    982.8982 299.9222210 +22.7324635     1293.731     69.51562      4.857     4.78     17.64703     19.62747     39.97509         5     1.033     0.627  64.63   2
        22    188.6014    977.4233 299.9257541 +22.7325857     2295.066     69.51562     11.266    19.00      14.5327     19.62747     55.74109        77     3.800     2.640  31.25   3
        23    520.1849    940.9614 300.0407563 +22.8216515     356.7381     69.58652      1.631     3.92    -12.43543     19.62747     31.44481         5     0.839     0.525  37.87   0
        24     96.7764    932.2229 299.9119376 +22.6920640     1535.295     69.53336     14.440    15.82    -1.896182     19.62747     39.61563        47     3.550     1.961 -27.15   3
        25    442.8383    933.5084 300.0191127 +22.7963073     475.6406      69.5688      1.061     2.88    -12.50247     19.62747     94.11047        10     0.999     0.632 -78.05   0
        26    373.4623    931.7094 299.9981156 +22.7749732     3298.575     69.65735      1.236     2.23    -12.46639     19.62747     419.6889        25     1.079     0.988  54.51   0
        27    722.1880    979.6551 300.0910582 +22.8933443     283.1202      69.5688      1.280     2.20    -12.90663     19.62747     52.60311         5     0.699     0.451 -16.35   0
        28    549.0749    937.0257 300.0510304 +22.8291900     773.1438      69.5688      1.243     2.05    -12.33959     19.62747     127.0247        12     0.895     0.780 -74.57   0
        29    157.5040    971.6401 299.9179730 +22.7215918     1137.423     69.55108     11.584    13.04     15.11259     19.62747     43.07324        22     2.799     1.691  75.92   2
        30    627.8337    976.9467 300.0625525 +22.8642661     4710.976     69.58652      1.296     2.12    -12.47139     19.62747     724.5626        31     1.083     1.060 -44.09   3
        31     64.1081    912.9047 299.9080780 +22.6767199     2038.993     69.74577     21.598    43.50    -7.087591     19.62747     52.31049       359     8.129     6.460 -55.91   3
        32    163.2275    981.7849 299.9164484 +22.7262170     1301.816     69.58652      7.356     7.23     19.17023     19.62747     38.96311         9     1.761     0.830  80.02   3
        33    159.4475    989.4550 299.9127761 +22.7272796     1645.361     69.60423      7.903    11.19     22.34132     19.62747     40.34968        24     1.976     1.765 -70.42   2
        34    919.6747    910.2428 300.1752093 +22.9326396     1108.807     69.55108      1.230     2.23    -12.78999     19.62747     161.0854        14     0.938     0.795   4.93   0
        35    218.1668    992.7043 299.9299676 +22.7458410     714.3423     69.55108      1.916     3.60      18.4172     19.62747     56.39586         9     0.937     0.640  66.23   0
        36    743.4374    893.3279 300.1257863 +22.8749487     521.7571     69.53336      1.237     2.59    -12.63428     19.62747     69.76718         7     0.876     0.472 -78.18   0
        37    765.5670    887.0620 300.1347212 +22.8797861     5674.722      69.5688      1.171     1.95    -12.58866     19.62747     936.3316        30     1.005     0.971 -55.96   0
        38    811.4667    886.7745 300.1491182 +22.8934652     221.5955     69.55108      1.215     3.19     -12.5892     19.62747     36.75713         5     0.731     0.469 -72.45   0
        39    817.2012    874.5119 300.1548972 +22.8916651     358.3065     69.48015      1.530     3.39    -12.49859     19.62747     38.70417         5     0.772     0.431 -23.35   0
        40    774.0377    869.1724 300.1431841 +22.8771920     711.0196     69.58652      1.270     2.91    -12.45454     19.62747     126.3717        14     1.008     0.811 -73.51   0
        41    957.1488    868.0496 300.2006306 +22.9317593     157.0702     69.60423      1.193     3.86    -12.58084     19.62747     33.86752         5     0.824     0.519 -23.88   0
        42    812.2557    862.5420 300.1572522 +22.8867470     330.6133     69.63965      1.059     2.50    -12.40528     19.62747     65.34869         7     0.811     0.591 -78.15   0
        43    711.8496    852.6159 300.1291977 +22.8537949     368.8819     69.60423      1.036     1.54    -12.15063     19.62747     78.39518         5     0.642     0.444  25.49   0
        44    723.4830    849.9951 300.1336749 +22.8565310     151.5887     69.49789      0.970     3.64    -12.17215     19.62747     53.52549         6     0.954     0.499  88.18   0
        45    424.6745    849.3316 300.0408623 +22.7667196     2124.741     69.63965      1.138     2.01    -12.19584     19.62747     343.2837        21     1.056     0.893  34.70   0
        46    149.8053    834.8173 299.9601183 +22.6800714     418.2786     69.53336      1.699     3.92     -10.7428     19.62747     42.36562         6     0.758     0.622  -6.63   0
        47    127.0436    832.0896 299.9539330 +22.6724571      781.946     69.58652      1.364     2.81     -10.8332     19.62747     105.0739        15     1.026     0.878 -53.24   0
        48    998.7217    820.9612 300.2289233 +22.9306976      1095.25     69.55108      1.283     2.37    -12.50368     19.62747      150.293        15     0.913     0.888  -2.69   0
        49    952.9125    819.4347 300.2151330 +22.9165319     1084.921     69.55108      1.174     2.03    -12.40779     19.62747     189.4946        15     0.908     0.791  29.80   0
        50    159.1111    813.8553 299.9698313 +22.6768565     225.9346     69.60423      1.527     4.57    -11.37556     19.62747     31.66901         5     0.833     0.713  55.37   0
        51    736.5272    813.6343 300.1495726 +22.8500071      269.757      69.5688      1.015     2.92    -11.78853     19.62747     53.73669         6     0.852     0.476   6.03   0
        52    604.6392    807.3672 300.1105334 +22.8086629     2386.401     69.60423      1.089     1.91    -11.68251     19.62747      379.086        20     0.982     0.821  14.25   0
        53    406.6523    804.2615 300.0499224 +22.7483874     320.6785     69.62194      1.233     3.45    -11.74899     19.62747     51.18668         6     0.886     0.553  24.71   0
        54    154.7797    801.4890 299.9725091 +22.6720119     661.0981     69.51562      1.307     3.33    -11.76727     19.62747     105.9647        11     1.009     0.783 -88.05   0
        55    625.2075    799.8835 300.1193734 +22.8126835     436.5409     69.49789      1.466     2.41     -11.6348     19.62747     70.05135         8     0.836     0.707 -11.90   0
        56    173.7962    798.5776 299.9793662 +22.6768850     242.0174     69.53336      1.236     2.76    -11.73278     19.62747     34.81363         5     0.710     0.468  17.09   0
        57    997.8727    787.4070 300.2395781 +22.9208076     642.4092     69.51562      1.375     4.13    -12.35959     19.62747     84.70831        11     1.271     0.574  50.19   0
        58    780.5901    787.1011 300.1719363 +22.8556011     1941.256      69.4624      1.084     1.78    -11.66591     19.62747     378.3106        18     0.907     0.799 -74.70   0
        59    143.8545    777.5333 299.9769083 +22.6618660     328.9236     69.62194      1.048     2.64    -11.74991     19.62747      77.2105         8     0.794     0.697  37.55   0
        60    559.2982    772.7613 300.1076771 +22.7851369     315.7794     69.55108      1.399     2.08    -11.38504     19.62747     44.50965         5     0.705     0.435 -75.22   0
        61    293.6595    769.7565 300.0260053 +22.7045919     26130.26      69.5688      1.202     2.04    -11.47185     19.62747     4151.364        57     1.139     1.085  28.70   0
        62    551.6264    768.8857 300.1065497 +22.7817242      761.282     69.55108      1.103     2.03    -11.31843     19.62747     120.1505        11     0.863     0.725  -8.03   0
        63    964.4040    767.9998 300.2354545 +22.9052061     400.1056     69.35583      1.060     2.07    -12.18312     19.62747     76.53034         7     0.708     0.593  65.48   0
        64    580.1063    764.8558 300.1167274 +22.7891086      443.017     69.62194      1.165     2.59     -11.3577     19.62747     81.97747         9     0.849     0.734  33.48   0
        65    734.3075    749.6773 300.1696919 +22.8309852     363.2337     69.71042      1.111     1.93    -11.44036     19.62747     54.62737         5     0.659     0.461  -9.26   0
        66    343.4099    746.9999 300.0488805 +22.7129923     15500.03     69.39137      1.198     2.01    -11.21629     19.62747     2449.577        45     1.065     1.058 -71.64   0
        67    357.5419    747.5101 300.0531100 +22.7173782      1020.83     69.63965      1.139     2.18    -11.19298     19.62747     138.2218        14     0.925     0.802  38.24   0
        68    866.4993    742.8596 300.2131072 +22.8686492     1550.659     69.65735      1.176     1.94    -11.69533     19.62747     249.9328        15     0.890     0.783  80.22   0
        69    354.5172    741.0132 300.0542827 +22.7146075     249.5727     69.55108      1.103     3.69    -11.13739     19.62747     41.16604         6     0.789     0.499 -88.07   0
        70    624.4632    738.9830 300.1389566 +22.7949847     521.8892     69.55108      1.176     2.00    -11.32696     19.62747     94.32724         8     0.765     0.629   6.73   0
        71    226.0853    738.7582 300.0150803 +22.6754275     315.4109     69.53336      1.095     2.92    -11.35653     19.62747     69.90079         8     0.875     0.648 -19.65   0
        72    460.7856    738.4101 300.0881908 +22.7457371     241.8157     69.48015      1.113     3.46    -10.99369     19.62747     37.97663         5     0.855     0.544  53.42   0
        73    471.3380    733.7772 300.0929817 +22.7475729     240.5827     69.55108      1.048     1.98    -10.94922     19.62747     75.00735         6     0.675     0.548 -48.76   0
        74    538.8588    732.9849 300.1142550 +22.7675949     1767.975     69.55108      0.460     2.10    -10.86023     19.62747     1277.665         7     0.430     0.315   5.01   0
        75     58.8084    728.5203 299.9664295 +22.6222906     268.1713     69.51562      1.130     3.22    -11.54078     19.62747     55.78304         6     0.968     0.699   7.28   0
        76    223.2753    723.1911 300.0192705 +22.6701208     400.1846     69.55108      1.255     4.02    -11.29556     19.62747      43.6496         9     1.033     0.730   4.87   0
        77    932.9623    708.1759 300.2451126 +22.8786053     2167.871     69.58652      1.197     1.96    -11.44883     19.62747     416.3904        23     1.034     0.913  36.01   0
        78    538.4568    709.2064 300.1218648 +22.7606516     561.5938     69.55108      1.010     1.89    -10.83182     19.62747     119.1251         9     0.787     0.651  71.39   0
        79    921.3730    699.4677 300.2443315 +22.8726320     957.5937     69.55108      1.139     2.07    -11.34003     19.62747     142.7436        12     0.825     0.746  16.11   0
        80    284.1562    693.3168 300.0479154 +22.6798202     538.9308     69.53336      1.236     3.81    -11.08048     19.62747     67.60925        10     1.137     0.629  37.35   0
        81    747.5974    691.0134 300.1929162 +22.8181287     1297.064     69.40914      1.170     2.05     -11.2167     19.62747     215.2691        16     0.902     0.828  72.32   0
        82    952.3394    689.5599 300.2572107 +22.8790643     819.7506      69.5688      1.199     3.79    -11.27899     19.62747     118.5459        15     1.154     0.790  29.50   0
        83    132.6043    677.3010 300.0060154 +22.6297555      337.402      69.4624      1.525     3.15    -11.20771     19.62747     40.63437         6     0.848     0.499  42.85   0
        84    829.7673    676.5629 300.2232234 +22.8386056     263.9865     69.60423      1.191     3.18    -11.16834     19.62747     33.18895         5     0.726     0.457  20.06   0
        85    866.0916    667.7550 300.2374109 +22.8469609     72279.82     69.55108      1.147     1.78    -11.17607     19.62747     14626.17        99     1.174     1.100  65.57   0
        86    628.7488    671.6935 300.1621789 +22.7769577     184.8847     69.63965      1.187     3.88    -10.91475     19.62747     34.54291         5     0.899     0.479  46.21   0
        87   1013.0555    669.4451 300.2826907 +22.8914753     592.5073     69.60423      1.124     2.30    -11.02157     19.62747     93.67384        10     0.850     0.709  37.79   0
        88    718.5009    668.1296 300.1912938 +22.8028383     358.3481     69.69273      1.101     1.98    -11.08232     19.62747     60.09442         6     0.712     0.495  82.47   0
        89    552.3622    656.7324 300.1432603 +22.7497630     811.2248     69.55108      1.064     2.08    -10.57159     19.62747     123.6948        12     0.869     0.730  45.15   0
        90    733.5678    653.9011 300.2006154 +22.8032693     4523.351     69.55108      1.087     1.89     -10.9706     19.62747     764.6117        25     0.986     0.883  41.73   0
        91    235.1379    649.0705 300.0470642 +22.6524251     2396.239     69.60423      1.264     2.11    -10.90877     19.62747     384.8401        20     0.969     0.926  11.21   0
        92    317.0049    647.1480 300.0731448 +22.6764322     650.2224      69.5688      1.330     2.24    -10.76964     19.62747     89.65992         8     0.761     0.644  45.14   0
        93    525.5707    642.6017 300.1395155 +22.7376750     342.3274     69.53336      1.303     3.68    -10.30131     19.62747     51.32761         7     0.939     0.536  61.74   0
        94    516.9542    634.6937 300.1394049 +22.7328221     1425.793     69.58652      1.112     1.98    -10.14917     19.62747     302.3887        13     0.925     0.728  61.82   0
        95    507.3375    628.6298 300.1383834 +22.7281986     696.1118     69.58652      1.075     1.96    -10.01946     19.62747     116.2788        10     0.810     0.650  41.25   0
        96    170.2243    624.2913 300.0349437 +22.6258438     455.5936     69.51562      1.413     3.43    -10.95817     19.62747     49.93743         7     0.787     0.747   9.16   0
        97    184.7922    623.2355 300.0398148 +22.6299118     346.2542      69.5688      1.361     3.25    -10.91052     19.62747     56.67375         7     0.850     0.564  45.39   0
        98    531.2570    618.7842 300.1490303 +22.7325446     222.7275     69.55108      0.957     3.29     -9.93003     19.62747      44.0442         5     0.762     0.420 -79.19   0
        99    432.0419    618.3683 300.1182878 +22.7026767     774.3472     69.60423      1.134     2.15    -9.882735     19.62747     148.5147        12     0.913     0.714  81.64   0
       100   1007.7516    615.4946 300.2985816 +22.8743878     400.5092     69.58652      1.093     2.80    -10.69036     19.62747     71.40636         8     0.877     0.633 -39.04   0
       101     86.0117    613.3177 300.0123436 +22.5974294     9456.509     69.53336      1.250     2.17     -10.9122     19.62747     1425.907        37     1.111     1.026  19.77   0
       102      6.7947    614.9019 299.9872217 +22.5741110     361.5486      69.4624      1.312     1.99    -10.72448     19.62747     62.80103         6     0.696     0.543  48.16   0
       103    516.9245    613.6013 300.1462541 +22.7267601     508.5975      69.4624      1.105     2.41    -9.796362     19.62747     98.45818         9     0.830     0.715 -32.69   0
       104    934.7328    599.5538 300.2809913 +22.8479368     548.3918     69.55108      1.162     2.44    -10.61327     19.62747     80.48608         9     0.890     0.643 -28.36   0
       105     31.8774    597.6190 300.0006308 +22.5766838     737.1227      69.5688      1.819     6.57    -10.71845     19.62747     71.66557        16     1.680     0.721 -80.53   0
       106    801.8669    597.6205 300.2401992 +22.8075761     268.4795     69.55108      1.072     1.72    -10.42671     19.62747     50.24533         5     0.662     0.446  22.99   0
       107    437.0837    586.5359 300.1302061 +22.6950544     280.1359     69.65735      1.145     1.90    -9.681216     19.62747     64.58858         6     0.709     0.499  -0.51   0
       108    632.5117    583.7258 300.1919554 +22.7528344      271.033     69.71042      1.169     3.46    -10.29781     19.62747     37.78183         5     0.766     0.452  69.79   0
       109    481.2625    582.2433 300.1453497 +22.7070687     419.6528      69.5688      1.348     2.80    -9.552917     19.62747     53.29079         8     0.837     0.656  -7.79   0
       110    915.0929    577.6669 300.2819832 +22.8357665     1603.979     69.71042      1.102     1.75    -10.50426     19.62747     335.2689        15     0.848     0.800   1.21   0
       111    446.8378    577.6487 300.1361305 +22.6954287     725.4633     69.58652      1.069     2.16    -9.640932     19.62747     156.8886        11     0.855     0.678  69.43   0
       112   1013.5215    575.7505 300.3133042 +22.8646970     369.5818      69.5688      1.323     3.08    -10.56107     19.62747     66.95442         8     1.041     0.655 -40.75   0
       113      8.8067    571.4886 300.0019595 +22.5622690     2444.648     69.48015      1.290     2.45    -10.62581     19.62747     295.0019        21     1.055     0.915  24.98   0
       114    954.2037    567.5600 300.2974654 +22.8445779     158.8651     69.58652      1.216     3.15    -10.51339     19.62747     32.57674         5     0.725     0.472 -16.13   0
       115    310.2421    564.5533 300.0978950 +22.6507102      4392.34     69.60423      1.143     2.06     -10.1634     19.62747     683.9637        27     0.985     0.928  75.20   0
       116    432.6151    561.5356 300.1369429 +22.6865403     4264.207     69.55108      1.107     1.95    -9.650863     19.62747     686.9649        29     1.041     0.939  63.53   0
       117    844.2400    555.4871 300.2671045 +22.8081704     862.0466     69.55108      1.060     1.94    -10.23422     19.62747     163.4774        13     0.916     0.729  87.19   0
       118    928.9780    552.7998 300.2943973 +22.8327818     6153.343     69.49789      1.173     1.86    -10.45178     19.62747     1211.045        28     0.959     0.933  -8.09   0
       119    493.2732    551.1901 300.1591825 +22.7017572     5654.967      69.5688      1.154     1.86    -9.548594     19.62747     1049.706        26     1.010     0.874  74.35   0
       120    662.9186    546.6213 300.2134878 +22.7512947     292.1481     69.53336      1.181     2.24    -10.22045     19.62747     58.63354         7     0.813     0.574  72.38   0
       121    220.7497    546.5925 300.0759074 +22.6187164     747.1725      69.5688      1.220     2.29    -10.51904     19.62747     100.5114        13     0.900     0.791 -89.57   0
       122    424.9024    539.3384 300.1417584 +22.6778578      2126.24     69.65735      1.119     1.80    -9.631299     19.62747     383.9131        18     0.892     0.807  13.19   0
       123    767.7941    539.1548 300.2485880 +22.7805765      349.656      69.5688      1.064     2.34    -10.25225     19.62747     73.59195         6     0.818     0.470 -56.21   0
       124    402.9552    537.8250 300.1354219 +22.6708430     588.7483     69.58652      1.217     2.86    -9.673203     19.62747     86.57291        13     0.980     0.853  60.88   0
       125    157.4456    537.1947 300.0592855 +22.5970319     412.6003      69.5688      1.315     2.69    -10.58504     19.62747     50.69815         5     0.716     0.456  68.91   0
       126    844.7590    534.7142 300.2740189 +22.8023591     857.5778     69.55108      1.289     2.49    -10.13965     19.62747     117.5228        13     0.942     0.827 -20.66   0
       127    725.1403    531.7564 300.2377026 +22.7656716     331.8922      69.5688      0.967     1.75     -10.2113     19.62747     85.43935         7     0.646     0.623  -6.95   0
       128    541.5679    526.8892 300.1821143 +22.7092591     101393.3     69.53336      1.151     1.91     -9.43456     19.62747     17053.94       111     1.210     1.102  64.33   0
       129    227.7053    526.8348 300.0844915 +22.6151351     1689.568      69.5688      1.198     2.13    -10.35493     19.62747     269.9827        17     0.969     0.847  58.45   0
       130    793.2780    522.7169 300.2618728 +22.7834904     278.6057     69.67504      1.249     3.07     -10.1794     19.62747     47.71303         5     1.032     0.441 -85.19   0
       131    432.1199    507.1777 300.1544569 +22.6707918     1320.733     69.53336      1.197     1.90    -9.570537     19.62747     244.7466        13     0.838     0.762  44.35   0
       132    749.1261    495.4150 300.2569877 +22.7624212     256.7894      69.5688      1.212     3.15    -10.01717     19.62747     37.61445         6     0.748     0.626 -61.93   0
       133    829.1393    493.3352 300.2825995 +22.7857937     810.3629     69.60423      1.073     2.00    -10.03097     19.62747     156.9665         9     0.778     0.660  71.98   0
       134    700.2452    491.0873 300.2431650 +22.7465329     1369.138     69.55108      1.202     1.90    -9.986811     19.62747      256.008        15     0.937     0.775  46.30   0
       135    487.5011    486.5956 300.1783803 +22.6814860     464.4319      69.4624      1.452     3.22    -9.193293     19.62747     52.05866         6     0.869     0.443 -71.91   0
       136    957.5392    484.9950 300.3253435 +22.8218541      738.311     69.53336      1.181     2.10    -10.28256     19.62747     106.7826         9     0.830     0.633  74.89   0
       137    943.4422    483.8243 300.3213276 +22.8172962     360.2269     69.62194      0.984     2.67    -10.20216     19.62747     63.71837         5     0.796     0.544  37.56   0
       138    829.3470    483.2340 300.2859470 +22.7829542     1106.029     69.58652      1.373     4.09    -9.996685     19.62747     161.3472        17     1.502     0.756  80.01   0
       139    582.6810    481.7358 300.2095892 +22.7086184     321.4674     69.67504      1.156     2.73    -9.336755     19.62747     45.05035         5     0.713     0.457  80.28   0
       140    867.5073    478.3729 300.2994224 +22.7929878     2027.482     69.51562      1.058     1.98    -9.995458     19.62747     313.5563        18     0.892     0.856 -18.80   0
       141    959.2934    469.0029 300.3310877 +22.8177840     455.1027     69.48015      1.288     3.20    -10.22627     19.62747      78.7021        10     1.092     0.718  65.98   0
       142     99.4365    468.8659 300.0634643 +22.5600326      554.241      69.5688      1.218     2.55    -10.19574     19.62747     83.05098        10     0.865     0.759  67.29   0
       143    641.0398    449.0244 300.2383920 +22.7167135     429.8167     69.60423      1.252     2.00    -9.459152     19.62747      75.3177         6     0.707     0.535  40.62   0
       144    955.4702    441.1697 300.3389399 +22.8086408     400.4985      69.5688      1.254     2.79    -10.09887     19.62747     51.05167         7     0.823     0.596   7.55   0
       145    701.9185    441.0532 300.2599451 +22.7326644     522.6767     69.60423      1.342     2.03    -9.688829     19.62747     74.10498         9     0.737     0.704 -11.08   0
       146    858.9835    437.4990 300.3100472 +22.7786914     526.8392     69.48015      1.194     1.98    -9.984698     19.62747     82.24384         8     0.724     0.652  74.30   0
       147    843.2183    433.5406 300.3064188 +22.7728324     324.5291     69.55108      1.185     2.27    -9.969738     19.62747     56.54836         5     0.685     0.479 -16.51   0
       148    587.5333    431.7171 300.2273529 +22.6957104     1522.808     69.67504      1.139     2.19    -9.192924     19.62747     229.5937        13     0.855     0.768  58.97   0
       149    948.3506    430.2993 300.3402516 +22.8033850     114.5443     69.63965      0.999     3.22    -10.04803     19.62747     47.92413         6     0.901     0.454   4.54   0
       150    998.9085    410.6515 300.3624043 +22.8128759     758.9717     69.62194      1.188     2.06     -10.0346     19.62747     128.9106         8     0.732     0.647  64.66   0
       151    957.3051    409.4008 300.3498342 +22.8000602     418.4594     69.44465      1.101     2.28    -10.02067     19.62747     89.28992         9     0.840     0.708  44.20   0
       152    870.8417    410.3659 300.3225597 +22.7744465     199.9463     69.62194      0.947     2.19    -9.953322     19.62747      56.4558         6     0.686     0.610  82.30   0
       153    698.1774    405.6363 300.2702864 +22.7213708       482.33     69.58652      1.175     1.98    -9.515481     19.62747     105.9625         9     0.776     0.694  26.37   0
       154    202.0107    404.2961 300.1163199 +22.5722733     306.6051     69.49789      1.093     3.45    -9.653939     19.62747     45.35501         7     0.851     0.685  72.30   0
       155    264.4537    399.8167 300.1371882 +22.5897116     1780.336     69.55108      1.166     2.17    -9.372795     19.62747     250.9131        18     1.027     0.826  67.28   0
       156    997.4738    397.9953 300.3660685 +22.8088086     2208.374     69.49789      1.102     1.83    -10.09661     19.62747     376.0692        18     0.935     0.815  74.46   0
       157    211.7341    394.6233 300.1224845 +22.5724136     3588.784     69.55108      1.182     2.12     -9.53169     19.62747     539.1442        21     0.972     0.880  39.37   0
       158    977.4658    389.1779 300.3626921 +22.8002841     957.1581     69.55108      1.169     2.32     -10.1003     19.62747     148.3248        14     0.914     0.813 -73.79   0
       159    352.3889    388.7558 300.1681288 +22.6129002     2329.584      69.5688      1.204     2.18    -9.272253     19.62747     335.3658        19     0.963     0.886  61.75   0
       160    596.6086    385.3528 300.2452412 +22.6851152     9098.918     69.58652      1.156     2.06    -9.157529     19.62747      1294.87        40     1.135     0.966  74.11   0
       161    930.0469    367.7798 300.3548545 +22.7799366     272.5052     69.62194      1.081     2.66    -10.00822     19.62747     70.11346         9     0.928     0.611  51.82   0
       162    151.4726    365.5643 300.1131923 +22.5460052     1034.574     69.53336      1.215     2.21    -9.691839     19.62747     131.2997        14     0.971     0.820  41.69   0
       163    537.3184    354.8120 300.2367013 +22.6585793     3186.923     69.55108      1.188     1.95    -9.116259     19.62747     543.2138        22     0.964     0.901  43.33   0
       164    950.9687    355.0616 300.3655103 +22.7825451     366.0322     69.58652      1.042     1.84    -10.10173     19.62747     105.2264         8     0.786     0.627  86.83   0
       165    252.1400    354.2804 300.1481500 +22.5729516     274.3722     69.62194      1.097     2.66    -9.218267     19.62747     52.94591         7     0.803     0.605 -25.64   0
       166    650.9111    345.1243 300.2752193 +22.6898295     278.8952     69.69273      0.980     2.88    -9.376202     19.62747     44.41495         6     0.738     0.553 -64.22   0
       167    741.3674    343.8687 300.3038067 +22.7165639     483.4156      69.5688      1.098     2.50    -9.522431     19.62747     78.03274         7     0.806     0.566  60.07   0
       168    443.9275    341.0701 300.2120967 +22.6266475     3028.069     69.63965      1.236     2.11    -9.125756     19.62747      515.539        24     1.007     0.923  82.37   0
       169    835.8209    335.2973 300.3360273 +22.7423876     781.8763     69.49789      1.259     2.20    -9.518662     19.62747     117.5761        10     0.965     0.658  56.56   0
       170    808.4369    322.8185 300.3315445 +22.7306015     226.4957      69.5688      1.131     2.06    -9.461733     19.62747     57.80135         6     0.722     0.575  29.59   0
       171    331.5041    320.3562 300.1838476 +22.5870058     1341.159     69.58652      1.173     2.18     -9.06127     19.62747     181.7513        17     0.972     0.844  69.11   0
       172     49.8703    317.8537 300.0971167 +22.5018473     469.3784     69.58652      1.263     2.84    -9.563485     19.62747     66.03055         9     0.861     0.692 -24.72   0
       173    300.8177    309.8368 300.1777197 +22.5747879     14741.44      69.5688      1.253     2.15    -9.031382     19.62747     2281.832        47     1.163     1.043  69.14   0
       174    835.2575    307.1432 300.3449951 +22.7341280     648.0042     69.63965      1.125     2.34    -9.380706     19.62747     110.6933        10     0.839     0.694  86.91   0
       175    750.9278    295.8499 300.3223801 +22.7056300      270.477      69.5688      1.255     3.78    -9.302353     19.62747      43.0733         5     0.799     0.513 -50.96   0
       176    175.3281    295.9476 300.1432140 +22.5331816     214.6693      69.5688      1.056     2.47    -9.126258     19.62747     36.68232         5     0.841     0.467  86.16   0
       177    399.0342    294.8059 300.2131516 +22.5999101     362.7418      69.5688      1.155     2.38     -8.98601     19.62747     50.35377         6     0.837     0.464 -34.93   0
       178    711.1858    289.5606 300.3120397 +22.6919209       927.19     69.58652      1.198     2.29    -9.262363     19.62747      140.464        11     0.950     0.692 -79.01   0
       179    926.3951    282.1736 300.3815183 +22.7542370     232.2643     69.53336      1.012     2.16    -9.670167     19.62747     56.74784         5     0.709     0.434  66.36   0
       180    373.0226    274.2271 300.2117409 +22.5862061      1177.53     69.55108      1.495     2.27    -8.931034     19.62747     152.8324        16     1.089     0.786  73.28   0
       181    448.9567    253.2786 300.2421686 +22.6029451     493.5093     69.55108      1.126     2.46     -8.85185     19.62747     87.62042        10     0.846     0.724 -76.00   0
       182    693.6309    245.1300 300.3209965 +22.6738971     1125.352      69.5688      1.202     2.15    -8.994212     19.62747     167.2755        16     0.970     0.830 -88.82   0
       183    954.9243    239.5801 300.4042450 +22.7505317     1505.275      69.5688      1.119     2.02    -9.545893     19.62747     266.5938        15     0.872     0.807  67.07   0
       184    402.0217    229.2678 300.2353587 +22.5819864     358.8191     69.55108      1.401     3.24    -8.832554     19.62747      41.1463         7     0.727     0.680  28.44   0
       185   1023.8748    227.4757 300.4296824 +22.7676873     543.7374     53.01598      0.893     2.26    -9.987478     19.62747     132.6865         6     0.849     0.331 -89.59  24
       186     76.8810    223.3864 300.1361771 +22.4828417      670.642     69.55108      1.576     3.62    -8.976442     19.62747     79.11807        13     1.158     0.870 -20.28   0
       187    970.7750    219.8415 300.4155968 +22.7496006     348.3096     69.62194      1.238     3.94    -9.530252     19.62747     37.60735         6     0.787     0.563  42.46   0
       188    765.1808    206.5782 300.3558049 +22.6842433     217.9952      69.5688      1.017     1.75    -8.962635     19.62747     57.16824         5     0.653     0.459 -23.18   0
       189    863.4178    195.7121 300.3899519 +22.7105296     985.8398     69.51562      1.123     2.19    -8.907083     19.62747     159.0003        14     0.871     0.817 -87.90   0
       190    282.0633    193.2017 300.2097518 +22.5356829       926.42     69.55108      1.185     1.94    -8.751755     19.62747     180.0347        13     0.885     0.791  12.10   0
       191    360.0369    188.0851 300.2356643 +22.5575797     533.4907     69.55108      1.350     3.22    -8.664513     19.62747      70.2513        11     0.964     0.793 -86.26   0
       192    176.5972    180.3322 300.1811389 +22.5003782     381.3474     69.55108      1.168     3.14    -8.821268     19.62747     47.29807         9     0.848     0.769 -70.79   0
       193    714.4081    177.2087 300.3495172 +22.6606003     806.0556      69.4269      1.175     2.24    -8.854382     19.62747     117.1085        12     0.859     0.726  85.30   0
       194    779.3732    176.5114 300.3699869 +22.6798505     339.1357     69.55108      1.101     3.87    -8.907726     19.62747     48.30382         6     0.889     0.483 -87.69   0
       195    986.0584    169.7115 300.4366359 +22.7397594      489.588     69.63965      1.289     2.89    -9.133857     19.62747     65.95415         9     0.947     0.610  54.34   0
       196    718.4221    168.5917 300.3535645 +22.6593256     416.0141      69.5688      1.232     2.91    -8.853366     19.62747     48.69439         7     0.787     0.672 -18.20   0
       197    638.9933    168.0544 300.3289959 +22.6353873     518.0007      69.5688      1.220     2.11    -8.801927     19.62747      103.088         9     0.772     0.681  39.84   0
       198    834.5345    159.2991 300.3927662 +22.6914156     693.4149     69.65735      1.121     2.19    -8.843948     19.62747     96.08934         9     0.802     0.652 -82.67   0
       199    565.4156    159.8307 300.3087520 +22.6109892     426.9325      69.5688      1.005     1.81    -8.792153     19.62747     77.54674         6     0.688     0.489  83.21   0
       200    846.6415    158.5378 300.3967874 +22.6948207     320.0286     69.55108      1.065     2.93    -8.846047     19.62747     48.99812         7     0.876     0.533  61.51   0
       201   1007.3758    149.2991 300.4499105 +22.7402681     772.6352     69.51562      1.113     2.27    -9.050183     19.62747      125.356        11     0.803     0.772 -41.19   0
       202    963.2939    148.5188 300.4364134 +22.7268527     546.1312     69.71042      0.980     2.07    -8.916399     19.62747     102.0385         9     0.868     0.594 -86.87   0
       203    197.4313    142.1670 300.2000002 +22.4956665     300.9937     69.58652      1.244     3.39    -8.744655     19.62747     42.06851         5     0.763     0.437  68.06   0
       204     59.3733    136.7219 300.1588630 +22.4527211     1027.539      69.5688      1.282     2.80    -8.792504     19.62747     127.7039        16     1.006     0.911 -81.68   0
       205    882.4078    133.3871 300.4161001 +22.6982948     415.0656      69.4624      1.219     2.76    -8.715634     19.62747     60.38644         5     0.701     0.470  73.94   0
       206    216.7031    130.1169 300.2099013 +22.4979825     2739.596      69.7281      1.270     2.25    -8.713478     19.62747      366.631        24     1.119     0.884  65.55   0
       207      1.3294    124.8532 300.1446834 +22.4319134     457.3845     54.14337      0.978     2.31     -8.88553     19.62747     89.96776         6     0.734     0.468  85.28  24
       208    200.0942    120.8911 300.2077314 +22.4903562     387.3598      69.7281      1.324     3.66     -8.71826     19.62747     42.73225         8     0.785     0.717  34.09   0
       209   1015.4377    117.3994 300.4627774 +22.7335055     8971.216      69.5688      1.144     2.04    -8.911998     19.62747     1290.109        34     1.061     0.966  82.68   0
       210    860.7316    111.4939 300.4164462 +22.6855123     1718.722     69.71042      1.171     2.14    -8.574862     19.62747     242.0947        17     0.973     0.863  56.69   0
       211    964.3806    110.2837 300.4491598 +22.7161820     1354.519     69.51562      1.118     2.07    -8.747479     19.62747      225.392        13     0.884     0.759  79.07   0
       212    410.3275    106.7589 300.2777012 +22.5492891     345.9899     69.55108      1.283     3.42    -8.614997     19.62747     47.78553         5     0.735     0.460 -80.47   0
       213    100.1559     96.2637 300.1846607 +22.4533331     374.6898      69.5688      1.476     3.19    -8.651068     19.62747     52.50262         7     0.978     0.549  72.79   0
       214    461.4361     94.1205 300.2977059 +22.5609675     804.0118     69.51562      1.184     2.25    -8.667949     19.62747     112.8139        11     0.869     0.745  80.66   0
       215    235.6127     74.0241 300.2339787 +22.4875427     2816.572      69.5688      1.263     2.31    -8.450832     19.62747     402.3298        21     1.071     0.869  58.57   0
       216     86.4663     73.1065 300.1879192 +22.4425823      347.749     69.71042      1.509     3.54    -8.713453     19.62747     36.69092         7     0.869     0.602  10.63   0
       217    481.5595     59.3154 300.3152602 +22.5569947     3114.208     69.53336      1.218     2.18    -8.214064     19.62747     420.6458        22     1.049     0.897  79.99   0
       218    366.9038     59.3636 300.2795668 +22.5226668     225.3119      69.5688      0.991     2.75    -8.568051     19.62747     47.71819         7     0.827     0.577  34.03   0
       219    734.1785     48.9997 300.3972775 +22.6296659     255.0055     69.49789      1.112     2.44    -8.041403     19.62747     49.43502         6     0.766     0.640 -88.98   0
       220    826.2737     47.5794 300.4264402 +22.6568216     133.1802      69.5688      1.023     3.48    -8.046774     19.62747     35.90274         5     0.752     0.465 -16.24   0
       221    610.0110     39.2968 300.3617457 +22.5897057     2982.043      69.4624      1.222     2.10    -7.995532     19.62747     460.9101        23     1.041     0.922  59.72   0
       222    384.8827     38.3629 300.2919721 +22.5220194     695.9023     69.53336      1.262     2.38    -8.589813     19.62747       104.23        12     0.920     0.756  59.06   0
       223    650.9895     36.6267 300.3753746 +22.6012065     427.5804      69.5688      1.267     2.23    -7.968767     19.62747     81.31845         8     0.790     0.648 -82.22   0
       224    937.1224     30.3409 300.4665938 +22.6850334     149.7539     69.60423      1.046     3.44    -8.453155     19.62747     36.04307         5     0.787     0.436  16.53   0
       225    133.6983     30.1687 300.2165237 +22.4444105     163.0063     69.55108      1.256     2.81    -8.776635     19.62747     44.55714         6     0.713     0.652  19.73   0
       226    705.6316     27.8287 300.3952503 +22.6150346     248.0538      69.5688      1.137     3.42    -7.863193     19.62747     33.14405         5     0.743     0.456  74.50   0
       227    654.1341     24.2110 300.3803812 +22.5985790     1275.023     69.51562      1.226     2.25    -7.794794     19.62747     206.2013        14     0.989     0.786 -75.16   0
       228    294.8408     24.8008 300.2683624 +22.4911513     223.8103     69.58652      1.363     4.46    -8.593784     19.62747     33.11602         5     0.838     0.676 -37.17   0
       229    669.2515     22.6407 300.3855996 +22.6026530     464.5102     69.58652      1.874     5.70    -7.781411     19.62747     40.82306         9     1.250     0.733  60.56   0
       230    956.9083   1017.4985 300.1518919 +22.9745857      212.045     69.74577      1.420     4.66    -13.85151     19.62747     32.67859         6     1.262     0.488  -5.29  16
       231    284.1796   1004.9163 299.9465127 +22.7691586     561.0078     69.51562      1.327     2.17    -10.06949     19.62747     86.66628         9     0.753     0.712  14.47   0
       232    120.4749   1000.1182 299.8971940 +22.7186320      867.439     69.67504      2.544     8.70     27.01874     19.62747     41.10097        13     1.785     1.184  29.19   0
