#   1 NUMBER                 Running object number                                     
#   2 X_IMAGE                Object position along x                                    [pixel]
#   3 Y_IMAGE                Object position along y                                    [pixel]
#   4 ALPHA_J2000            Right ascension of barycenter (J2000)                      [deg]
#   5 DELTA_J2000            Declination of barycenter (J2000)                          [deg]
#   6 FLUX_APER              Flux vector within fixed circular aperture(s)              [count]
#   7 FLUXERR_APER           RMS error vector for aperture flux(es)                     [count]
#   8 FLUX_RADIUS            Fraction-of-light radii                                    [pixel]
#   9 FWHM_IMAGE             FWHM assuming a gaussian core                              [pixel]
#  10 BACKGROUND             Background at centroid position                            [count]
#  11 THRESHOLD              Detection threshold above background                       [count]
#  12 FLUX_MAX               Peak flux above background                                 [count]
#  13 ISOAREA_IMAGE          Isophotal area above Analysis threshold                    [pixel**2]
#  14 A_IMAGE                Profile RMS along major axis                               [pixel]
#  15 B_IMAGE                Profile RMS along minor axis                               [pixel]
#  16 THETA_IMAGE            Position angle (CCW/x)                                     [deg]
#  17 FLAGS                  Extraction flags                                          
         1    121.5037     14.7582 300.2567221 +22.4138485     591.4152     69.24833      1.392     3.32    -8.434285     19.53706     79.43864        12     1.079     0.822  81.10   0
         2     82.4627      6.6349 300.2472259 +22.3998207      121.627     69.24833      0.829     3.41    -8.761456     19.53706     40.80141         5     0.768     0.439 -67.91   0
         3     41.9952   1003.9225 299.9107892 +22.6738213     2104.571     69.16008     12.177    27.29     -10.0379     19.53706     50.51356       144     7.081     2.920 -41.10  19
         4     61.8780   1020.3373 299.9116216 +22.6844941     1684.553     67.93055     15.018    18.69    -8.841568     19.53706     52.90595        73     3.984     2.435  20.42  19
         5     51.9049   1022.8314 299.9077129 +22.6822149     1226.207     58.27155      9.236    12.75    -9.085541     19.53706     52.49065        42     3.845     1.176  -3.54  27
         6     44.8797   1015.3627 299.9079620 +22.6779656     2446.732     69.21304     16.115    30.38    -9.594658     19.53706     56.63239       250     9.157     2.797 -19.04  19
         7    722.6130    993.6219 300.1258048 +22.8750491     542.5452     69.23068      1.368     3.67      -12.934     19.53706     69.07602        12     1.084     0.889  18.22   0
         8    744.7321    987.2854 300.1347564 +22.8798613     5590.813     69.33646      1.404     2.63    -12.84266     19.53706     628.4909        31     1.157     1.060  76.40   0
         9     56.3523    978.8295 299.9234129 +22.6709398     408.4544     69.26596      1.869     5.24    -10.52826     19.53706     45.65911         8     1.294     0.794 -84.35   0
        10    753.3240    969.4052 300.1432516 +22.8773046     679.3176     69.16008      1.362     2.88     -12.6688     19.53706     86.39032        11     0.883     0.802 -55.02   0
        11    936.2032    968.2859 300.2006051 +22.9317914     203.9111     69.17773      1.332     3.84    -12.95957     19.53706     33.92577         5     0.755     0.681 -64.78   0
        12    791.2774    962.8129 300.1572203 +22.8867884     393.1951     69.26596      1.570     4.47     -12.6015     19.53706     40.95779         8     0.836     0.707  39.99   0
        13    839.6117    954.4604 300.1749984 +22.8988766     266.5749     69.21304      1.398     3.05    -12.58787     19.53706     56.62714         7     0.959     0.499  56.77   0
        14    691.1697    953.0850 300.1292041 +22.8539885      277.348     69.24833      1.164     2.54    -12.54454     19.53706     48.37665         6     0.722     0.554  26.33   0
        15    403.7862    949.5737 300.0409080 +22.7668042     2019.301     69.24833      1.347     2.64    -12.36273     19.53706     250.9434        21     1.072     0.972 -32.58   0
        16    687.5925    999.6334 300.1129419 +22.8662753     501.7406     69.24833      1.667     3.66    -13.04627     19.53706     42.51109         8     0.896     0.712  43.77   0
        17    129.0355    935.0473 299.9602328 +22.6802054     427.6517     69.26596      1.444     4.17    -11.83154     19.53706     35.81734         7     0.909     0.547  45.84   0
        18    106.2116    932.5312 299.9539616 +22.6726344     803.6541     69.26596      1.406     3.74    -11.96349     19.53706     97.51157        16     1.300     0.846 -84.16   0
        19   1014.4437    998.2278 300.2152557 +22.9638325     400.5858     69.26596      2.025     5.82    -14.15426     19.53706     36.57707         9     1.295     0.738   7.94   0
        20    977.8135    921.0596 300.2289458 +22.9306957      1172.79     69.21304      1.466     2.82    -12.60013     19.53706     120.2676        19     1.156     0.923 -30.84   0
        21    932.1483    919.6110 300.2151798 +22.9165984     969.3666     69.24833      1.262     2.64    -12.58225     19.53706     118.8312        15     1.006     0.837  31.49   0
        22    138.8636    913.9080 299.9701629 +22.6770945     297.3634     69.35407      1.399     4.94    -12.13095     19.53706     36.35145         7     1.115     0.619   7.14   0
        23    715.7444    913.5721 300.1497138 +22.8500135     190.4074     69.24833      0.971     2.55    -12.24762     19.53706     51.76173         5     0.690     0.477  15.27   0
        24    583.6794    907.6495 300.1105209 +22.8087233     2327.073     69.24833      1.157     2.11    -12.20257     19.53706     375.5191        19     0.963     0.872  66.33   0
        25    385.7729    905.1987 300.0497428 +22.7486725     406.5079     69.19539      1.917     5.03    -12.40088     19.53706     40.66258         7     1.036     0.707  34.43   0
        26    134.1378    901.6299 299.9726889 +22.6721563     603.9921     69.26596      1.359     2.66    -12.16209     19.53706     72.02813        12     0.895     0.835  87.74   0
        27    603.9279    900.1469 300.1192647 +22.8126408     332.2464     69.24833      1.174     3.94    -12.09373     19.53706     57.42622         8     1.124     0.489 -44.20   0
        28    759.6904    887.2147 300.1719769 +22.8556183     2021.226     69.17773      1.202     2.23    -12.29083     19.53706     291.8751        18     0.929     0.864 -88.85   0
        29    976.7931    887.2769 300.2396187 +22.9206868     676.6701     69.19539      1.336     2.91    -12.50423     19.53706     75.13639         8     0.810     0.660  35.43   0
        30    476.7068    879.6107 300.0863526 +22.7686026     210.3188     69.19539      1.025     2.99    -12.28074     19.53706     64.44254         7     0.973     0.435 -81.06   0
        31    122.9976    878.1611 299.9768619 +22.6620848     415.7091     69.26596      1.370     3.70    -12.25002     19.53706     62.80552        10     0.922     0.794 -66.42   0
        32    538.0757    872.9426 300.1076175 +22.7850904     306.6343     69.28359      1.372     2.54    -12.27177     19.53706     44.98769         5     0.610     0.592  78.55   0
        33    272.7755    870.0789 300.0260332 +22.7047046     26669.02     69.23068      1.311     2.26    -12.07119     19.53706     4130.844        61     1.175     1.132  84.23   0
        34    943.3761    868.2455 300.2353910 +22.9052097      449.036     69.26596      1.306     2.58    -12.42803     19.53706     61.66092        10     0.895     0.719 -39.62   0
        35    530.6138    868.8629 300.1066224 +22.7816823     760.6329     69.21304      1.196     1.97      -12.272     19.53706     150.9081        13     0.905     0.752  51.16   0
        36    201.3867    868.2800 300.0044309 +22.6827720     242.5056     69.23068      1.045     2.87    -12.00904     19.53706     37.78905         5     0.707     0.468  75.35   0
        37    559.6666    865.0703 300.1168978 +22.7893044     477.9914     69.28359      1.342     3.35    -12.14538     19.53706     69.42565        11     1.087     0.752  66.86   0
        38    570.7070    863.3374 300.1208977 +22.7921170      324.977     69.35407      1.435     3.40    -12.04263     19.53706     54.21713         6     0.733     0.641  33.30   0
        39    675.9203    859.4811 300.1549078 +22.8225494     399.2883     69.37169      1.384     2.27    -11.74422     19.53706     56.67558         6     0.737     0.499   1.89   0
        40    713.6236    849.7327 300.1698203 +22.8310511     423.2841     69.23068      1.264     2.07     -11.9654     19.53706     70.02198         6     0.700     0.520  35.33   0
        41    336.7765    847.8970 300.0531451 +22.7175395     1060.233     69.17773      1.300     2.33    -12.13533     19.53706     157.8864        14     0.971     0.811  82.02   0
        42    322.4713    847.3051 300.0488898 +22.7130791     15518.58     69.35407      1.190     2.13    -12.08685     19.53706     2287.408        38     1.064     1.021  81.41   0
        43    845.5378    842.8587 300.2131528 +22.8686066     1323.453     69.30122      1.167     2.08    -12.10679     19.53706       230.35        14     0.853     0.838  30.06   0
        44    333.8164    841.6328 300.0542620 +22.7148547     433.6986     69.23068      1.647     3.61    -12.08381     19.53706     41.30419         5     1.025     0.367  82.65   0
        45    603.3683    839.0752 300.1389558 +22.7949445      556.445     69.24833      1.251     2.73    -11.75323     19.53706     83.13302        10     0.847     0.806 -85.84   0
        46    205.0582    839.1714 300.0150388 +22.6755259     407.3514     69.24833      1.441     3.46    -11.94444     19.53706     44.96764         6     0.804     0.645  -8.19   0
        47    450.5596    833.9660 300.0930640 +22.7476651      314.221     69.30122      1.057     2.15    -12.01134     19.53706     75.26167         8     0.791     0.624  13.79   0
        48    851.8016    830.5034 300.2191234 +22.8669350     269.9804     69.16008      0.915     1.83    -12.01372     19.53706     54.02374         5     0.663     0.444  27.72   0
        49     38.2667    828.9283 299.9665573 +22.6225435     184.0742     69.28359      1.221     3.73     -12.4864     19.53706     32.26899         5     0.825     0.484 -35.02   0
        50    525.9927    813.8878 300.1230642 +22.7645198     279.8692     69.16008      1.364     3.75    -11.81662     19.53706     37.10424         5     0.646     0.625  -1.77   0
        51    495.3946    811.6706 300.1142638 +22.7547100     283.1519     69.21304      1.224     2.99    -11.79109     19.53706     53.07375         7     0.861     0.615  68.17   0
        52    517.4994    809.5039 300.1218467 +22.7607153     650.0433     69.44208      1.122     2.56    -11.77856     19.53706     116.1608        12     0.901     0.779  73.76   0
        53    911.9855    808.2156 300.2451302 +22.8785634     2338.969     69.19539      1.265     2.20    -11.97403     19.53706     365.9883        24     1.007     0.969 -51.94   0
        54    900.4266    799.5460 300.2443465 +22.8726106     737.1925     69.26596      1.122     2.13    -11.88853     19.53706     126.3703        12     0.835     0.751 -59.19   0
        55    263.1526    793.5178 300.0479401 +22.6798581     357.6474     69.26596      1.199     2.53    -11.75858     19.53706     60.65411         8     0.764     0.678  85.47   0
        56    931.5925    789.9443 300.2571843 +22.8791879     882.7975     69.24833      1.232     2.79    -11.93023     19.53706     127.6174        14     1.207     0.708  47.48   0
        57    726.5616    790.9671 300.1929617 +22.8180555     1201.928     69.28359      1.148     2.02    -11.55376     19.53706     206.3156        13     0.926     0.744  23.73   0
        58    112.3356    778.2496 300.0060401 +22.6302372     470.9532     69.30122      1.730     3.47     -11.8353     19.53706     55.62764         8     1.070     0.536 -68.54   0
        59    845.1550    767.8746 300.2374188 +22.8469559     73241.03     69.23068      1.198     1.96    -11.69248     19.53706     13564.11        93     1.165     1.105  86.95   0
        60    992.0079    769.4590 300.2826827 +22.8913973     602.4922     69.19539      1.281     2.57    -12.03842     19.53706      82.8468        10     0.932     0.631  57.28   0
        61    697.3223    768.4506 300.1911766 +22.8028283     342.9079     69.24833      1.019     2.42    -11.55768     19.53706     65.60167         6     0.753     0.497   2.01   0
        62    878.0172    760.4882 300.2500622 +22.8546784     188.1974     69.17773      0.957     1.97    -11.72753     19.53706     46.30306         6     0.719     0.500  -0.06   0
        63    531.4633    756.9634 300.1432761 +22.7498210     888.8504     69.24833      1.128     2.27    -11.55751     19.53706      146.691        12     0.875     0.759  76.42   0
        64    712.6340    754.0538 300.2006263 +22.8032824     4628.237     69.26596      1.109     1.85    -11.55302     19.53706     887.4776        22     0.914     0.856  89.16   0
        65    214.2316    749.3762 300.0470864 +22.6525227     2334.417     69.23068      1.198     2.29    -11.49794     19.53706     325.6201        19     0.951     0.904  -7.77   0
        66    296.1498    747.5513 300.0731424 +22.6765677     557.9268     69.28359      1.151     2.75     -11.3333     19.53706     74.89701        10     0.933     0.662 -60.03   0
        67    171.8563    744.7766 300.0354138 +22.6384928     188.1261     69.26596      1.080     3.28    -11.67873     19.53706     51.66012         6     0.986     0.583  79.65   0
        68    504.4239    742.8117 300.1394626 +22.7376536     437.0798     69.24833      1.306     2.43    -11.18997     19.53706     58.10484         6     0.699     0.594  48.29   0
        69    496.1093    734.9125 300.1394434 +22.7328939     1583.689     69.40689      1.142     1.82    -11.01487     19.53706     321.2413        17     0.895     0.819  72.01   0
        70    486.2549    728.8450 300.1383496 +22.7281983     675.1105     69.28359      1.010     1.75    -10.84354     19.53706      154.198        10     0.775     0.667  11.74   0
        71    149.7979    725.2120 300.0349200 +22.6262645     340.1479     69.07172      1.433     2.54    -11.61695     19.53706     49.34827         6     0.725     0.556 -40.03   0
        72    189.6133    720.7151 300.0487529 +22.6369172     209.5363     69.19539      1.107     3.44    -11.43532     19.53706     42.58646         5     0.721     0.477  79.46   0
        73    410.9575    718.3970 300.1183212 +22.7026266     923.8678     69.26596      1.171     1.80     -10.7168     19.53706     176.0952        13     0.880     0.795  74.76   0
        74    986.6472    715.8621 300.2984370 +22.8743914     440.4323     69.26596      1.119     2.76    -11.57281     19.53706     75.87774         9     0.903     0.647 -38.85   0
        75     65.0858    713.6572 300.0123615 +22.5975384     9893.383     69.35407      1.328     2.50    -10.98332     19.53706     1252.061        40     1.130     1.105 -66.39   0
        76    495.9662    713.7822 300.1462678 +22.7267856     430.8267     69.23068      1.020     1.96    -10.82453     19.53706     93.78871         8     0.729     0.645 -48.31   0
        77    914.1800    700.0089 300.2809966 +22.8481345     421.0999     69.23068      1.053     2.33    -11.36214     19.53706     92.56759         9     0.859     0.644  79.99   0
        78     11.3149    697.6956 300.0008515 +22.5768290      661.253     69.42448      1.659     4.55    -10.31482     19.53706     72.34092        16     1.212     0.936  89.92   0
        79    781.1178    697.9531 300.2401971 +22.8076884     301.8718     69.26596      1.254     2.79    -11.24943     19.53706     49.66678         6     0.887     0.451  55.22   0
        80    459.6971    694.5891 300.1412217 +22.7104045     165.4934     69.14242      0.973     2.97    -10.56701     19.53706     43.73832         5     0.702     0.480  12.37   0
        81    854.2524    692.4196 300.2647846 +22.8280057     306.8947     69.23068      0.963     1.80    -11.27991     19.53706     58.81935         5     0.629     0.486  12.66   0
        82    416.1072    686.5419 300.1302771 +22.6950278     336.8808     69.30122      0.909     1.55    -10.51582     19.53706     81.18972         5     0.644     0.462  24.68   0
        83    460.2497    682.5580 300.1453040 +22.7071167     435.4258     69.26596      1.121     2.49    -10.49005     19.53706     68.47165         7     0.739     0.642  59.61   0
        84    894.1744    677.8776 300.2819542 +22.8357843     1871.379     69.24833      1.207     1.84    -11.17986     19.53706     360.4377        19     0.994     0.870 -50.84   0
        85    425.8413    678.0520 300.1360644 +22.6955090     873.1193     69.24833      1.110     1.76    -10.45798     19.53706     200.4349        11     0.835     0.672 -16.96   0
        86    991.8853    675.9825 300.3130338 +22.8644996     381.6894     69.21304      1.481     2.93    -11.06037     19.53706     56.54285         5     0.798     0.484  30.54   0
        87    289.3127    664.8844 300.0978866 +22.6507980     4455.146     69.37169      1.134     1.89    -10.57393     19.53706     753.9212        25     0.970     0.884  77.81   0
        88    411.7587    661.8553 300.1369477 +22.6866385     4516.361     69.21304      1.128     1.81    -10.41723     19.53706     910.3016        23     0.921     0.860 -89.04   0
        89   1016.3690    656.6494 300.3269529 +22.8662739     423.1566     69.28359      1.207     2.58    -10.87998     19.53706      89.9453        11     0.934     0.786 -47.89   0
        90    823.3806    655.6436 300.2671171 +22.8081936      939.725     69.26596      1.023     1.95    -10.94902     19.53706     177.5035        12     0.808     0.739  56.75   0
        91    908.0648    652.9293 300.2943927 +22.8327756     6101.659     69.28359      1.153     1.82    -10.97704     19.53706     1284.858        29     0.961     0.940  66.09   0
        92    472.3042    651.4221 300.1591735 +22.7017919     5700.703     69.16008      1.058     1.85    -10.41178     19.53706     984.3707        24     0.936     0.848  81.78   0
        93    199.7536    646.8354 300.0759150 +22.6187637     619.2479     69.28359      1.122     2.08    -10.86895     19.53706     134.9548        10     0.830     0.741 -67.83   0
        94    403.9305    639.5919 300.1417477 +22.6779015     2221.146     69.23068      1.098     1.83     -10.3921     19.53706     425.4404        20     0.993     0.812  71.76   0
        95    746.8696    639.3510 300.2485742 +22.7805957       461.79     69.24833      1.002     1.80    -10.76598     19.53706     71.45305         7     0.660     0.604  11.61   0
        96    382.2616    638.0334 300.1355145 +22.6709586     601.8516     69.26596      1.017     1.90    -10.36742     19.53706     133.0681        10     0.843     0.705  -4.29   0
        97    136.7222    637.4660 300.0593744 +22.5971726     346.4305     69.33646      1.049     2.34    -11.00108     19.53706     65.06342         5     0.678     0.483 -15.22   0
        98    823.7347    634.8108 300.2739978 +22.8023144      716.644     69.19539      1.150     2.49    -10.78283     19.53706     125.2321        10     0.851     0.704 -62.26   0
        99    520.6141    627.1393 300.1820968 +22.7092989     101907.5     69.21304      1.083     1.78     -10.4166     19.53706     19879.62       127     1.188     1.130 -74.94   0
       100    704.2844    632.2827 300.2376068 +22.7658084     440.5747     69.37169      1.289     4.16    -10.72302     19.53706       83.478         8     1.139     0.529 -76.41   0
       101    344.5661    633.2155 300.1253573 +22.6582754     196.5117     69.23068      0.988     2.20    -10.34101     19.53706      39.3914         5     0.679     0.471 -71.71   0
       102    206.7381    627.2393 300.0844530 +22.6152357     1645.151     69.24833      1.175     2.29    -10.69653     19.53706     260.3591        15     0.925     0.805  71.77   0
       103    772.3116    622.6017 300.2619430 +22.7834049       167.85     69.17773      0.981     3.03     -10.6437     19.53706     42.44798         5     0.709     0.484  -8.05   0
       104    411.2026    607.7729 300.1543487 +22.6709475     1482.098     69.19539      1.262     2.45    -10.37181     19.53706     221.5009        19     1.352     0.788 -83.38   0
       105    808.2339    593.2906 300.2826594 +22.7857426     758.5649     69.23068      0.976     1.82    -10.54367     19.53706      161.764         9     0.759     0.645 -34.75   0
       106    679.3726    591.1586 300.2432110 +22.7465332     1261.071     69.26596      1.034     1.74    -10.32409     19.53706      266.851        13     0.873     0.694  28.25   0
       107    466.5949    587.0280 300.1783207 +22.6815934     350.6125     69.21304      0.965     2.05    -10.19632     19.53706     80.84952         5     0.677     0.439  64.79   0
       108    936.7118    584.9869 300.3254016 +22.8218280     680.4556     69.19539      1.157     2.30    -10.58298     19.53706     108.2975        10     0.827     0.695  83.77   0
       109    922.4114    583.7620 300.3213413 +22.8171944       443.65     69.24833      1.359     4.24    -10.58303     19.53706     53.97146         7     1.176     0.492  89.02   0
       110    808.4301    583.8517 300.2857873 +22.7830893     1020.458     69.26596      1.033     1.94    -10.53595     19.53706     176.5854        10     0.795     0.640  57.05   0
       111    846.5733    578.6035 300.2993787 +22.7930037     2148.107     69.21304      1.030     2.04    -10.55513     19.53706     386.8333        18     0.940     0.764  82.22   0
       112    561.8275    581.6417 300.2097066 +22.7085839     342.6677     69.26596      0.863     1.60       -9.966     19.53706     70.70476         5     0.671     0.421  26.09   0
       113    938.4921    568.9919 300.3311534 +22.8177638     321.1778     69.16008      1.048     2.46    -10.55871     19.53706     72.30888         6     0.735     0.571  43.19   0
       114     78.6348    569.0799 300.0635478 +22.5601329     612.8598     69.19539      1.411     2.90    -10.78276     19.53706     74.32864        12     0.911     0.866 -34.04   0
       115    620.0422    549.1679 300.2383784 +22.7166983     321.3247     69.30122      1.019     2.06    -9.618414     19.53706     90.87528         8     0.778     0.605  43.84   0
       116    680.7188    541.2433 300.2598462 +22.7325975     449.8133     69.23068      0.975     1.81    -9.783968     19.53706     99.68408         7     0.726     0.553  53.22   0
       117    838.0695    537.3149 300.3101419 +22.7785922     568.6482     69.35407      1.288     1.91    -10.45631     19.53706     104.4873         8     0.723     0.654  20.92   0
       118    822.4620    533.6417 300.3064713 +22.7728632     388.6822     69.23068      1.152     2.43    -10.43485     19.53706     72.58363         6     0.831     0.444  71.20   0
       119    566.6511    532.0785 300.2273086 +22.6957947     1505.005     69.24833      1.068     1.81      -9.5824     19.53706     314.7567        13     0.841     0.688  84.46   0
       120    927.2166    530.5098 300.3401394 +22.8033271     201.6996     69.17773      0.919     2.68    -10.44739     19.53706     50.76754         5     0.724     0.442  24.05   0
       121    977.7661    510.8156 300.3622975 +22.8127977      688.646     69.23068      1.172     1.74    -10.33303     19.53706     146.9126        10     0.755     0.730 -50.56   0
       122    936.3636    509.4174 300.3498424 +22.8000023     527.6209     69.24833      1.093     2.10    -10.32661     19.53706     104.4438         8     0.720     0.717 -34.03   0
       123    677.2250    505.7399 300.2702901 +22.7213513     455.5635     69.23068      1.143     2.06    -9.668281     19.53706     116.8893         9     0.797     0.673  83.04   0
       124    181.2446    504.4575 300.1164151 +22.5723585      398.107     69.28359      1.169     2.15    -10.37529     19.53706     53.73153         5     0.693     0.447 -24.49   0
       125    243.5267    500.0224 300.1372120 +22.5897568     1859.091     69.28359      1.159     1.92    -10.11296     19.53706     312.2713        18     0.940     0.817  77.40   0
       126    976.5800    498.0429 300.3660762 +22.8087706     2229.596     69.28359      1.071     1.88    -10.26381     19.53706     400.8805        21     0.940     0.881  68.79   0
       127    190.6986    494.7984 300.1224898 +22.5724206     3713.023     69.16008      1.176     1.95    -10.30026     19.53706      636.891        20     0.954     0.845  70.47   0
       128    956.5093    489.3331 300.3626468 +22.8002590       982.54     69.37169      1.026     1.87    -10.21659     19.53706     171.6707        11     0.822     0.680 -52.74   0
       129    331.4977    488.8828 300.1681790 +22.6129271     2422.306     69.40689      1.118     1.95    -9.824387     19.53706     415.4756        19     0.962     0.818  73.68   0
       130    575.6937    485.5473 300.2452360 +22.6851383     9204.562     69.31885      1.032     1.77     -9.32179     19.53706     1738.606        29     0.931     0.859  84.41   0
       131    772.4285    475.7941 300.3096702 +22.7412573     149.7127     69.24833      0.920     2.17    -9.990616     19.53706     43.15444         5     0.671     0.482 -75.88   0
       132    195.8131    472.5798 300.1312942 +22.5675768     212.9697     69.21304      1.234     2.76     -10.1876     19.53706     38.73368         5     0.736     0.429  24.13   0
       133    909.1669    468.1099 300.3547794 +22.7799865     299.3902     69.21304      1.088     2.86    -10.12283     19.53706     73.46473         7     0.912     0.542 -76.40   0
       134    130.3688    465.8843 300.1131332 +22.5460354     957.0787     69.26596      1.222     2.30    -10.46166     19.53706     151.3137        15     0.953     0.827  46.32   0
       135    516.3064    455.0049 300.2366701 +22.6585748     3371.524     69.14242      1.103     1.80    -9.137108     19.53706     690.5844        18     0.909     0.782  67.63   0
       136    929.8732    455.1024 300.3654587 +22.7824451     499.1996     69.37169      1.130     1.77     -10.0839     19.53706     131.3432        10     0.796     0.697  35.28   0
       137    231.1885    454.7904 300.1480649 +22.5730748     251.2286     69.14242      0.882     1.88    -9.942878     19.53706     68.36295         6     0.658     0.556 -37.74   0
       138    720.3180    443.9114 300.3037901 +22.7164911     597.4339     69.35407      1.194     2.81    -9.620715     19.53706     93.73929        12     0.952     0.859 -88.00   0
       139    630.0221    445.1042 300.2752827 +22.6897927     336.1663     69.16008      1.491     2.56    -9.319043     19.53706     49.31844         5     0.787     0.474  58.62   0
       140    423.0250    441.2747 300.2121045 +22.6266844     3019.763     69.26596      1.083     1.80    -9.294681     19.53706     618.5245        21     0.945     0.838  62.99   0
       141    815.0247    435.5468 300.3360117 +22.7424435     732.2907     69.26596      1.122     1.88    -9.735727     19.53706      134.597        11     0.794     0.756 -70.01   0
       142    407.3687    430.1249 300.2108544 +22.6187913     236.9522     69.24833      1.153     2.53    -9.233821     19.53706     45.86554         5     0.715     0.451  71.95   0
       143    490.3447    427.9085 300.2373891 +22.6430143     128.8392     69.30122      1.095     2.36    -9.104689     19.53706     46.26926         5     0.832     0.475  88.09   0
       144    787.8326    423.0495 300.3315966 +22.7307105     275.2214     69.28359      0.916     1.81    -9.557309     19.53706     65.77385         6     0.688     0.527 -42.20   0
       145    310.4374    420.4565 300.1838484 +22.5869695     1214.684     69.24833      1.103     2.18    -9.476134     19.53706     190.1022        15     0.933     0.781  56.52   0
       146     28.8845    418.0736 300.0971334 +22.5018878     495.2109     69.35407      1.156     2.22    -10.38497     19.53706     94.06195        10     0.824     0.708  -1.37   0
       147    279.8631    410.0123 300.1777333 +22.5748082      14759.5     69.23068      1.186     1.93    -9.566667     19.53706     2867.814        40     1.045     0.930  72.29   0
       148    814.5389    407.2668 300.3450423 +22.7341692     637.5004     69.28359      0.945     1.88    -9.544219     19.53706     121.0119         7     0.777     0.492  82.47   0
       149    729.5450    396.0993 300.3221875 +22.7055133      255.027     69.33646      0.975     2.00    -9.417933     19.53706     64.15809         6     0.735     0.490 -80.53   0
       150    153.8664    396.1727 300.1430660 +22.5330714     161.4776     69.23068      1.110     2.49    -9.959455     19.53706     46.14723         5     0.742     0.498  51.64   0
       151    690.2342    389.5473 300.3120703 +22.6918599     987.8823     69.26596      1.001     1.89    -9.296134     19.53706     171.2867        10     0.805     0.692 -75.37   0
       152    905.3221    382.1651 300.3814862 +22.7541267     307.6295     69.21304      1.041     1.97    -9.647168     19.53706     66.93072         5     0.691     0.443  73.84   0
       153    352.0150    374.4222 300.2117209 +22.5862092     996.0493     69.24833      1.174     2.23    -9.145844     19.53706     166.4637        15     1.049     0.754  80.02   0
       154    783.1793    367.2534 300.3482604 +22.7132793     192.9837     69.24833      1.039     3.77    -9.352419     19.53706     31.54431         5     0.892     0.457  47.06   0
       155    427.8187    353.5573 300.2420711 +22.6029268     572.8707     69.26596      1.148     2.19    -9.103018     19.53706     100.3654        10     0.881     0.669 -85.33   0
       156    939.7063    349.2908 300.4028771 +22.7549640     166.4706     69.40689      1.017     4.26    -9.503057     19.53706     41.49943         5     0.865     0.599 -49.82   0
       157    672.5985    345.5254 300.3208674 +22.6739277     1009.193     69.14242      1.054     2.04    -9.267667     19.53706     168.7357        15     1.056     0.784 -45.62   0
       158    933.9636    339.6006 300.4042318 +22.7504589     1560.202     69.24833      1.094     1.82    -9.440829     19.53706     335.2175        15     0.866     0.781  73.79   0
       159   1003.2051    327.6612 300.4296981 +22.7677438     715.9169     69.24833      1.112     2.08     -9.68327     19.53706     138.4392        11     0.914     0.652 -83.92   0
       160    380.9332    329.4460 300.2353123 +22.5819556     252.7133     69.24833      0.952     1.81    -9.046059     19.53706     57.36391         6     0.698     0.495   5.35   0
       161     55.6885    323.6922 300.1360909 +22.4828371     697.2595     69.40689      1.444     3.12    -9.739725     19.53706        85.98        12     0.986     0.876   8.55   0
       162    949.5161    320.0048 300.4154409 +22.7494774     223.1929     69.17773      0.986     1.61    -9.442062     19.53706     55.27268         6     0.669     0.500 -88.47   0
       163    792.9707    317.1741 300.3675655 +22.7018135     203.5103     69.24833      1.132     2.78    -9.386747     19.53706     39.45158         5     0.796     0.477 -54.84   0
       164    139.6935    315.7998 300.1647477 +22.5057510     217.6511     69.12475      1.155     1.87     -9.57456     19.53706     52.65687         5     0.704     0.423  71.01   0
       165    744.4028    306.7168 300.3558276 +22.6842693     309.5091     69.17773      0.910     1.91    -9.342667     19.53706     63.23253         5     0.628     0.488 -83.20   0
       166    335.2752    306.3758 300.2285993 +22.5616509      173.815     69.26596      1.046     3.27    -8.972403     19.53706     39.92744         6     0.858     0.498 -48.20   0
       167    842.3712    295.7996 300.3898962 +22.7104534     973.8262     69.21304      1.031     1.77    -9.394561     19.53706     206.8699        11     0.794     0.676  70.59   0
       168    261.0748    293.4147 300.2097348 +22.5356976     989.4246     69.24833      1.110     1.95    -8.949603     19.53706     182.4751        11     0.819     0.695  76.91   0
       169    338.8569    288.6090 300.2354782 +22.5576209     495.7741     69.23068      1.345     3.13    -8.912468     19.53706     66.60672        11     1.007     0.727 -38.19   0
       170    155.7895    280.1962 300.1813014 +22.5003529     242.1411      69.0894      1.050     3.53    -9.333261     19.53706     49.28349         6     1.031     0.404  61.72   0
       171    693.4507    277.2089 300.3495319 +22.6605342     766.8465     69.24833      0.974     1.97     -9.37237     19.53706     166.5229        10     0.869     0.589  71.97   0
       172    758.0073    276.8611 300.3697540 +22.6797583     419.0024     69.23068      1.335     3.37    -9.378718     19.53706     54.75296         7     0.857     0.681  11.60   0
       173    177.2157    274.3084 300.1898696 +22.5050832     229.9384     69.17773      1.196     2.67     -9.19181     19.53706     40.83417         5     0.744     0.429  16.33   0
       174    965.1529    269.4374 300.4367264 +22.7396120     357.0733     69.28359      0.958     1.76    -9.135058     19.53706      110.636         8     0.781     0.577 -89.89   0
       175    697.6109    268.8404 300.3535429 +22.6593739     358.3899     69.24833      1.128     3.01    -9.377912     19.53706     67.82539         8     0.961     0.611 -84.60   0
       176    617.9520    268.1257 300.3289685 +22.6353208     698.6736     69.24833      1.246     2.08    -9.383275     19.53706      122.186         8     0.756     0.641  34.90   0
       177    813.5537    259.4153 300.3927218 +22.6913670     704.6599     69.26596      1.045     2.25    -9.392482     19.53706     120.6618        11     0.896     0.658  76.24   0
       178    544.3650    259.6660 300.3088054 +22.6108564     543.9108     69.24833      1.299     3.25    -9.384004     19.53706     84.78606        10     1.103     0.634  74.85   0
       179    825.5579    258.7618 300.3966746 +22.6947715     406.5073     69.33646      1.128     2.70    -9.379672     19.53706     64.86924         8     0.825     0.656  37.55   0
       180    986.3588    249.2403 300.4498924 +22.7401466     820.8847     69.33646      1.074     1.80     -8.99572     19.53706     152.3626         8     0.747     0.585  73.78   0
       181    942.2172    248.8309 300.4362610 +22.7268228     583.0787     69.23068      1.194     1.83    -9.046064     19.53706     129.8955         8     0.703     0.648  38.10   0
       182    176.3155    241.8547 300.2001186 +22.4954944     241.0441     69.31885      1.099     3.61    -9.074373     19.53706     63.53708         7     0.924     0.549 -63.14   0
       183     38.1809    237.0267 300.1587716 +22.4527119     1059.419     69.26596      1.331     2.39      -9.6121     19.53706     150.9142        16     0.966     0.915 -83.17   0
       184    195.6354    230.3109 300.2098674 +22.4979683     2842.568     69.23068      1.181     2.19    -8.984723     19.53706     405.5589        19     1.029     0.815  69.78   0
       185    179.0042    221.0670 300.2076974 +22.4903305     379.8119     69.23068      1.210     2.46    -9.003647     19.53706     61.87317         5     0.629     0.566  -0.21   0
       186    994.4725    217.3719 300.4627618 +22.7334060     9062.359     69.26596      1.072     2.00    -8.868972     19.53706     1470.838        34     1.015     0.943  89.21   0
       187    839.6934    211.5540 300.4163953 +22.6854257     1697.334     69.26596      1.027     1.95    -9.229721     19.53706     326.0941        16     0.900     0.753  57.81   0
       188    943.3329    210.2614 300.4491216 +22.7160622     1308.496     69.28359      1.123     1.79    -8.858118     19.53706       247.31        15     0.864     0.788 -42.06   0
       189    389.3979    207.0452 300.2776578 +22.5493287     288.7723     69.23068      1.006     3.20    -8.871284     19.53706     71.07097         8     0.954     0.598  53.44   0
       190    313.0186    198.7593 300.2565918 +22.5240715     308.9239     69.26596      1.170     1.92    -8.885186     19.53706     64.00025         7     0.665     0.640  62.15   0
       191     79.4487    196.1771 300.1848392 +22.4533517     246.4059     69.24833      0.914     2.00    -9.269729     19.53706     64.67467         5     0.699     0.445 -65.64   0
       192    440.5363    194.1548 300.2977471 +22.5609396     845.0178     69.26596      1.061     2.13    -8.863661     19.53706      146.812        11     0.804     0.792 -10.99   0
       193    368.6536    194.9881 300.2751164 +22.5396517     260.7562     69.24833      1.278     3.03    -8.868947     19.53706       42.442         5     0.993     0.504  51.55   0
       194   1004.9919    174.6362 300.4799050 +22.7242572     1782.224     69.24833      1.142     1.92    -8.803851     19.53706     395.5753        16     0.959     0.753  78.70   0
       195    214.5566    174.1647 300.2339589 +22.4875118     2896.244     69.30122      1.177     2.04    -8.939473     19.53706     434.8424        23     0.990     0.917  65.70   0
       196     65.7978    173.7762 300.1878640 +22.4428291     332.9515     69.19539      1.427     2.91     -9.20194     19.53706      57.2337         6     1.001     0.534  22.89   0
       197    460.6336    159.4104 300.3152686 +22.5569729     3129.013     69.23068      1.101     2.01    -8.859023     19.53706     472.2807        23     0.995     0.860  64.01   0
       198    712.9058    148.8987 300.3972140 +22.6294671     380.8517     69.42448      1.152     1.67    -9.214587     19.53706     93.88236         8     0.725     0.611 -42.07   0
       199    805.5168    147.3772 300.4265603 +22.6567419     186.2633     69.21304      1.118     2.89    -8.781931     19.53706     45.72625         6     0.819     0.529  45.56   0
       200    153.4323    143.1333 300.2250264 +22.4602872     169.7104     69.24833      1.210     3.46    -8.974245     19.53706     33.73221         5     0.762     0.455  71.24   0
       201    589.0160    139.3839 300.3617198 +22.5896514     3166.409     69.21304      1.127     1.94    -9.079897     19.53706     537.3037        22     1.005     0.805  72.60   0
       202    511.9711    141.5307 300.3370421 +22.5672046      222.761     69.24833      1.263     2.50    -8.866117     19.53706     36.96034         6     0.759     0.497  -4.02   0
       203    363.9817    138.4193 300.2920092 +22.5219989     631.9263     69.24833      1.117     2.22    -8.813532     19.53706     127.0603        11     0.903     0.676  72.97   0
       204    629.8978    136.7829 300.3752917 +22.6011403     421.0234     69.17773      1.211     2.29    -9.134904     19.53706     74.62004         8     0.761     0.670 -52.94   0
       205    646.1116    132.2288 300.3818173 +22.6046837     336.0466     69.23068      1.427     2.77    -9.070858     19.53706     45.24472         6     0.735     0.564  46.08   0
       206    112.9264    131.0739 300.2163514 +22.4446881      422.554     69.30122      1.342     3.10    -8.989664     19.53706      46.7308         5     0.619     0.604  71.73   0
       207    916.2270    130.2356 300.4666262 +22.6849320     136.6158     69.26596      0.868     1.65    -8.689172     19.53706     75.01907         5     0.674     0.406  78.85   0
       208    684.5132    128.0026 300.3951469 +22.6149614     209.0335     69.17773      1.022     2.18    -8.985932     19.53706     53.77924         6     0.738     0.496  83.24   0
       209    648.4335    123.0883 300.3855043 +22.6027505     426.3544     69.21304      1.630     6.02    -8.977724     19.53706     45.24504        10     1.470     0.693  46.87   0
       210    633.1718    124.2660 300.3803701 +22.5985214     1327.376     69.23068      1.121     1.87    -9.007822     19.53706     241.7052        17     0.996     0.814  75.21   0
       211    273.9668    125.1074 300.2683350 +22.4912156     305.9624     69.19539      1.166     2.11    -8.647398     19.53706     49.24394         5     0.611     0.558  86.72   0
       212    719.6376    115.5678 300.4101194 +22.6218966     743.5448     69.26596      1.103     2.40    -8.798738     19.53706     133.1932        11     1.009     0.681  71.96   0
       213    657.5883    109.2385 300.3928461 +22.6015080     420.9388     69.24833      1.231     2.51    -8.817376     19.53706     60.58054         7     0.883     0.465  77.67   0
       214    463.1345    108.3877 300.3325918 +22.5430574     541.2302     69.19539      1.073     2.54    -8.759047     19.53706     84.86436         9     0.879     0.621 -75.42   0
       215     35.9431    108.5951 300.1997268 +22.4151668     254.1092     69.21304      1.355     3.43    -8.914644     19.53706     34.93324         5     0.774     0.440  19.92   0
       216    366.8698    106.8094 300.3031569 +22.5137805     349.9465     69.23068      1.211     1.62    -8.758756     19.53706     87.57358         6     0.675     0.497  61.51   0
       217   1009.9243    103.0810 300.5046487 +22.7051426      1153.83     69.35407      1.209     2.06    -8.497437     19.53706     206.4108        13     0.872     0.771 -22.09   0
       218    138.4982     96.6964 300.2354424 +22.4424757     1948.542     69.42448      1.301     2.22    -8.803414     19.53706     267.0409        21     1.056     0.938  86.83   0
       219    706.4760     97.1340 300.4119967 +22.6126570     321.2748     69.33646      0.960     1.77    -8.589524     19.53706     61.60415         5     0.660     0.450  63.42   0
       220    699.7827     88.8968 300.4125826 +22.6082852     458.0878     69.16008      1.094     2.05    -8.550564     19.53706     90.18253         8     0.730     0.658 -54.49   0
       221    254.4253     88.8162 300.2740263 +22.4749364     564.0565     69.26596      1.136     2.26    -8.444528     19.53706     92.40063         7     0.837     0.480  80.14   0
       222    737.4924     83.6958 300.4260154 +22.6180729     305.0402     69.42448      1.477     4.22    -8.521629     19.53706     41.08637         9     0.923     0.784 -85.51   0
       223    660.4394     83.7195 300.4020079 +22.5950231     115.2365     69.21304      1.069     3.41    -8.540145     19.53706     36.02101         5     0.744     0.453 -69.95   0
       224    757.6227     80.2242 300.4334122 +22.6230974     1032.212     69.21304      1.033     2.03    -8.522165     19.53706     171.4347        10     0.799     0.653  55.78   0
       225    140.9111     75.6745 300.2430072 +22.4371603      567.367     69.40689      1.228     2.38    -8.645679     19.53706     73.14819        11     0.904     0.704  70.69   0
       226    932.4496     73.0837 300.4902152 +22.6733405     333.8284     69.23068      1.138     3.41    -8.497271     19.53706     54.59372         6     0.912     0.497  89.18   0
       227    705.8514     72.8643 300.4196708 +22.6054903     439.9288     69.30122      1.121     2.28    -8.459393     19.53706     72.04301         8     0.789     0.626  57.33   0
       228    290.1659     62.0238 300.2938235 +22.4779419     208.9862     69.26596      1.127     4.03    -8.455689     19.53706     25.93443         6     0.969     0.479 -52.73   0
       229    558.7416     57.5508 300.3788278 +22.5570627     447.0588     69.30122      0.988     2.09    -8.193362     19.53706     80.76693         8     0.725     0.659  78.33   0
       230    168.0275     55.3835 300.2580108 +22.4394542      126.037     69.26596      1.026     3.98    -8.340534     19.53706     41.44805         6     0.949     0.478 -79.22   0
       231    721.3565     52.3180 300.4311612 +22.6042202     394.7365     69.21304      1.166     2.62    -8.425478     19.53706     57.02259         6     0.686     0.618  70.32   0
       232    530.2562     50.6185 300.3722085 +22.5465438     965.6157     69.23068      1.141     2.08    -8.207556     19.53706     164.1744        12     0.853     0.723  72.09   0
       233    252.9243     48.0317 300.2867808 +22.4627688     342.8625     69.24833      1.270     4.23    -8.313497     19.53706     47.46189         7     0.896     0.636 -70.57   0
       234    487.6010     44.5155 300.3609119 +22.5320215     725.2334     69.14242      1.112     2.48    -8.580363     19.53706     105.6896        11     0.802     0.783  17.22   0
       235    592.9757     41.3593 300.3947337 +22.5626528     678.0446     69.28359      1.171     1.99    -8.033885     19.53706     125.1292        11     0.961     0.659  87.77   0
       236    188.3352     40.8039 300.2690475 +22.4413483      73.4096     69.24833      1.195     3.00    -8.196989     19.53706     41.06055         5     0.861     0.555  39.55   0
       237    413.3485     34.8934 300.3409280 +22.5070278      1132.26     69.31885      1.281     2.50    -8.741564     19.53706     179.0155        15     1.006     0.872  84.60   0
       238     60.5999     33.1527 300.2318405 +22.4008882     692.3412     69.23068      1.332     2.94     -8.82296     19.53706     106.9535        12     1.061     0.745  50.37   0
       239    898.8998   1010.2061 300.1753335 +22.9326495     1055.018     69.16008      1.451     3.19    -13.13743     19.53706     113.8565        16     1.164     0.890 -69.45   0
