#   1 NUMBER                 Running object number                                     
#   2 X_IMAGE                Object position along x                                    [pixel]
#   3 Y_IMAGE                Object position along y                                    [pixel]
#   4 ALPHA_J2000            Right ascension of barycenter (J2000)                      [deg]
#   5 DELTA_J2000            Declination of barycenter (J2000)                          [deg]
#   6 FLUX_APER              Flux vector within fixed circular aperture(s)              [count]
#   7 FLUXERR_APER           RMS error vector for aperture flux(es)                     [count]
#   8 FLUX_RADIUS            Fraction-of-light radii                                    [pixel]
#   9 FWHM_IMAGE             FWHM assuming a gaussian core                              [pixel]
#  10 BACKGROUND             Background at centroid position                            [count]
#  11 THRESHOLD              Detection threshold above background                       [count]
#  12 FLUX_MAX               Peak flux above background                                 [count]
#  13 ISOAREA_IMAGE          Isophotal area above Analysis threshold                    [pixel**2]
#  14 A_IMAGE                Profile RMS along major axis                               [pixel]
#  15 B_IMAGE                Profile RMS along minor axis                               [pixel]
#  16 THETA_IMAGE            Position angle (CCW/x)                                     [deg]
#  17 FLAGS                  Extraction flags                                          
         1    788.9680     12.6989 300.4334837 +22.6231664     943.2851     69.39985      1.162     2.19    -8.287856     19.58479     165.1299        12     0.855     0.754  69.30   0
         2    494.6850     10.8655 300.3424262 +22.5345083     195.5134     69.52354      1.227     4.16    -7.920339     19.58479     31.56438         6     0.763     0.647 -35.11   0
         3    172.1923      8.0558 300.2430339 +22.4370630     499.4143     69.39985      1.543     3.18    -8.555019     19.58479     52.28976         8     0.837     0.620  55.43   0
         4    963.7962      5.6067 300.4902877 +22.6734585     370.4038     69.25822      1.196     3.04    -9.195795     19.58479     63.62209         7     0.892     0.558 -82.30  16
         5    737.2474      5.1867 300.4198033 +22.6055211     462.6998     69.11629      1.109     2.33    -8.221526     19.58479      68.5571         8     0.728     0.675 -61.96  16
         6     53.8045   1008.7271 299.8811117 +22.6885333     921.7678     69.36446      5.286     5.07    -1.766253     19.58479     39.11111         5     1.512     0.481   1.55   3
         7    354.3262   1023.6407 299.9696529 +22.7830743     211.6505     54.13912      0.937     2.30    -13.87693     19.58479     54.79177         5     0.670     0.477  -5.91  24
         8    245.4110   1022.3657 299.9362048 +22.7499996     1065.283     60.62056      5.494     8.57     3.725389     19.58479     35.85632        16     2.043     1.004  60.27  27
         9    198.8091   1012.8312 299.9248251 +22.7332703     2373.146     69.39985     12.266    25.75     10.99774     19.58479     50.42252       162     4.889     3.767 -35.94  19
        10    218.4147   1011.3334 299.9314060 +22.7387299     2988.895     69.39985     12.644    37.59      9.09841     19.58479     71.56564       364     7.340     5.342 -34.17  19
        11    160.9442   1023.1583 299.9096959 +22.7248550     656.8805     56.77294      3.654     7.03     16.36526     19.58479     36.28442        12     1.462     0.947  -7.43  25
        12     77.3637   1016.2034 299.8859948 +22.6977532     2517.764     69.43521     19.250    42.89     7.824015     19.58479     62.39598       404     8.040     6.349  -4.38  27
        13     63.2088    990.7936 299.8898713 +22.6862217     1890.889     69.27593     28.816    46.81    -1.337436     19.58479     58.59327       424     8.945     6.798 -55.55  27
        14    167.2002   1022.5002 299.9118541 +22.7265458     1054.835     59.88721      9.107    11.11     15.90113     19.58479     53.85767        24     2.161     1.590 -66.00  27
        15    142.9331    981.1882 299.9177647 +22.7074200     854.6592     69.41753      5.616    10.36     5.650291     19.58479     44.08413        22     2.435     1.228  40.01   2
        16     47.4586    978.4589 299.8889953 +22.6779564     770.7085     69.48822      5.418     4.99    -6.989347     19.58479     28.88282         5     1.434     0.492  89.18   3
        17    984.6262    981.4352 300.1796868 +22.9601099     116.4071     69.41753      1.059     3.95    -13.32814     19.58479     28.99254         5     1.039     0.430 -15.09   0
        18    650.9336    979.0026 300.0764906 +22.8593118     3389.363     69.41753      1.148     1.93    -13.47834     19.58479     676.1953        21     0.929     0.827  43.30   0
        19    164.8130    996.0453 299.9197260 +22.7182491     909.4979     69.41753      4.337     6.67     9.274583     19.58479     31.08103        11     1.397     0.893  40.52   2
        20    129.1379    976.9803 299.9148485 +22.7020705     537.0652     69.39985      5.648     5.72     4.470333     19.58479     27.64135         5     1.548     0.594  70.41   0
        21    173.1719   1020.5034 299.9143599 +22.7277675     1747.133     67.51728      8.578    16.76     14.93862     19.58479     52.75072        57     4.228     1.847  64.99  27
        22    559.4850    969.7584 300.0510290 +22.8292164     922.6641     69.38216      1.094     1.84    -13.48093     19.58479     156.7671        12     0.870     0.735  45.25   0
        23    925.4443    995.1210 300.1567764 +22.9462894     346.6225     69.39985      1.073     2.46    -13.36766     19.58479     77.73589         8     0.900     0.544 -42.11   0
        24    736.8683    966.9835 300.1071692 +22.8816485     207.0886     69.41753      1.224     3.94     -13.2426     19.58479     34.96247         5     0.844     0.526 -35.74   0
        25    453.2729    966.2646 300.0191130 +22.7963339     528.9368     69.45288      1.014     1.80    -13.29336     19.58479     104.6066         6     0.658     0.541  45.28   0
        26    383.9440    964.3659 299.9981641 +22.7749763      3190.05     69.43521      1.102     1.79    -13.26267     19.58479     634.9888        20     0.915     0.826 -31.74   0
        27    109.0910    964.2716 299.9127578 +22.6924074     1362.811     69.57648      9.139     8.62    0.6157807     19.58479     53.86451        22     1.892     1.350 -47.77   2
        28     80.3541    975.8488 299.9000622 +22.6870915     2666.549     69.43521     25.010    54.59    0.1271861     19.58479     67.65064       778    13.210     6.260  62.58  19
        29    238.0540    999.3097 299.9414252 +22.7411832      4217.35     69.45288      9.230    28.34      2.02974     19.58479        101.9       397     8.371     4.085  60.03  26
        30    167.5013   1004.4210 299.9178344 +22.7214564     1264.327     69.34677      6.174    10.91     11.06578     19.58479     49.64216        29     2.023     1.639  -2.79   2
        31    930.1317    942.8650 300.1752524 +22.9326971     903.4819     69.47055      1.059     1.70    -13.42413     19.58479     236.9878        10     0.727     0.695  -0.39   0
        32     75.1260    944.5045 299.9086417 +22.6765411     1895.615     69.55884     28.073    52.67    -7.208262     19.58479     59.91425       478    10.866     7.085 -47.90   3
        33    580.7360    940.1942 300.0672691 +22.8271151     87.93246     69.38216      1.015     3.40    -13.43716     19.58479     37.78112         5     0.833     0.479 -42.66   0
        34    719.0032    931.7627 300.1130706 +22.8661839     314.0116     69.45288      1.306     4.75    -12.92809     19.58479     66.30108         7     1.256     0.511  62.75   0
        35    496.6364   1000.7822 300.0213673 +22.8192480      205.104     69.41753      1.541     4.29    -13.60592     19.58479     30.72892         5     1.121     0.467  83.56   0
        36    753.7012    925.8953 300.1257897 +22.8749097     493.7835     69.59412      1.120     1.72    -12.86178     19.58479     105.1459         7     0.671     0.597 -73.95   0
        37    776.0036    919.6588 300.1347684 +22.8798103      5568.58     69.38216      0.994     1.54     -12.9211     19.58479     1332.596        24     0.866     0.824  83.57   0
        38    821.4665    919.7440 300.1489072 +22.8934714     271.8991     69.47056      0.973     2.38    -13.08966     19.58479     58.91716         5     0.711     0.466  70.62   0
        39    171.3068   1023.6166 299.9127666 +22.7280992     335.2403     54.29758      0.963     3.63     15.84139     19.58479     52.09772         5     0.839     0.453  77.22  27
        40    481.4754    907.7347 300.0469413 +22.7880161     272.4476     69.47056      1.074     2.66    -12.85092     19.58479     39.26258         5     0.717     0.439  65.11   0
        41    784.5352    901.7077 300.1432700 +22.8772182     681.5292     69.52354      0.911     1.53    -12.76937     19.58479     146.0801         5     0.608     0.471  64.89   0
        42    967.5501    900.7335 300.2006353 +22.9318232     264.7595     69.39985      1.121     2.73    -13.39102     19.58479     53.38802         6     0.806     0.515 -47.15   0
        43    636.8157    899.0571 300.0981200 +22.8321428     241.3183     69.39985      1.229     3.56    -12.93853     19.58479     55.93649         8     1.176     0.491  49.22   0
        44    822.6796    895.2410 300.1572612 +22.8868032     460.5935     69.39985      1.195     2.39    -12.76351     19.58479     75.53458         8     0.846     0.582  77.88   0
        45    871.1876    886.4998 300.1752251 +22.8988420     185.1073     69.32906      0.986     1.59    -12.73434     19.58479     68.31149         5     0.628     0.475 -22.41   0
        46    733.7568    882.6059 300.1336671 +22.8565053     240.8589     69.41753      1.214     2.54    -12.48984     19.58479     49.82092         6     0.671     0.640 -74.34   0
        47    435.0352    881.9928 300.0408700 +22.7666954     2019.555     69.41753      1.071     1.73    -12.55375     19.58479     472.1316        14     0.795     0.759  10.84   0
        48    160.0868    867.7353 299.9600221 +22.6800613     441.1611     69.50588      1.238     3.19    -11.59651     19.58479     62.59958        10     0.882     0.805 -38.86   0
        49    137.3182    864.8698 299.9538799 +22.6724024     751.9583     69.52354      1.128     2.05    -12.00387     19.58479     134.7254        10     0.766     0.700 -19.72   0
        50   1008.9750    853.4339 300.2289493 +22.9306624     1077.051     69.43521      1.059     1.65    -13.28228     19.58479     210.2229        15     0.880     0.794  40.65   0
        51    963.4080    852.0015 300.2152047 +22.9165904     953.5424     69.24049      1.007     1.67    -13.09895     19.58479     234.8302        12     0.820     0.689  67.46   0
        52    746.7056    845.8959 300.1496482 +22.8498548     258.3985     69.59412      0.897     1.75    -12.31214     19.58479      94.2811         5     0.675     0.433  73.89   0
        53    615.0020    840.0097 300.1105445 +22.8086579     2489.049     69.24049      1.062     1.62    -12.44746     19.58479     592.1714        15     0.819     0.728  87.01   0
        54    104.7475    841.0363 299.9515159 +22.6557905     215.8117     69.43521      1.329     4.21    -12.30869     19.58479     35.75191         6     0.952     0.530   0.84   0
        55    417.4643    837.0565 300.0500268 +22.7485352     256.5639     69.47055      1.149     2.25    -12.22618     19.58479      66.6585         8     0.796     0.650 -36.40   0
        56    165.0316    833.9070 299.9725660 +22.6718505     735.3646     69.34677      1.205     1.89    -12.05126     19.58479     133.4518        10     0.821     0.655  26.60   0
        57    635.6554    832.2528 300.1194996 +22.8126285     314.4974     69.45288      1.064     2.44     -12.3462     19.58479     63.03799         5     0.695     0.463 -78.07   0
        58    184.3686    831.1704 299.9794654 +22.6768725     174.4283     69.41753      1.180     2.15    -12.00639     19.58479     38.94694         5     0.703     0.445  69.88   0
        59   1007.7264    819.9846 300.2394451 +22.9206831     443.2708     69.41753      1.060     1.74    -12.65192     19.58479     124.2583         8     0.811     0.561 -74.80   0
        60    790.9565    819.6546 300.1719745 +22.8555950     2002.094     69.41753      0.998     1.57    -12.23405     19.58479     495.0826        14     0.787     0.731  67.67   0
        61    199.1096    814.0160 299.9896279 +22.6763813     238.6567     69.34677      0.970     2.11    -12.02937     19.58479     48.13668         5     0.594     0.578  -5.47   0
        62    508.2614    812.1649 300.0863777 +22.7686436     349.7878     69.43521      1.238     2.51    -12.26062     19.58479     66.25095         9     0.841     0.731  16.30   0
        63    154.3707    810.3293 299.9769242 +22.6618912     659.4534     69.41753      1.186     2.46    -12.28179     19.58479     79.87437         8     0.818     0.625  70.50   0
        64    304.0826    802.4821 300.0260127 +22.7045887     26044.24     69.54119      1.080     1.81    -11.82739     19.58479     4718.228        50     1.027     0.958 -80.71   0
        65    561.9277    801.3874 300.1065880 +22.7816540     835.0881     69.43521      1.060     1.60    -12.18982     19.58479     171.9315        12     0.897     0.700  64.75   0
        66    974.8237    800.2127 300.2356171 +22.9051424     359.0888     69.41753      0.962     1.78    -12.27935     19.58479        88.87         8     0.730     0.586  52.08   0
        67    590.9235    797.5095 300.1168764 +22.7892404     448.7859     69.55884      1.075     2.35    -12.15622     19.58479     94.35864        11     0.884     0.763 -13.99   0
        68    601.5679    795.7197 300.1207727 +22.7919202     322.5365     69.41753      1.086     2.05    -12.13492     19.58479     66.96394         5     0.685     0.452 -66.91   0
        69    707.2389    791.9999 300.1548906 +22.8225500     235.7756     69.39985      1.078     2.43    -12.09944     19.58479     49.05878         5     0.768     0.474 -33.81   0
        70    744.7566    782.2609 300.1697464 +22.8310068     406.9963     69.41753      1.196     1.75    -12.01496     19.58479     89.03209         5     0.695     0.405 -75.35   0
        71    353.7894    779.7063 300.0488796 +22.7129773     15432.41     69.36446      1.103     1.80    -11.84295     19.58479      2995.77        41     1.012     0.945  73.78   0
        72    368.1480    780.2307 300.0531747 +22.7174371      910.488     69.43521      1.072     1.81    -11.85236     19.58479     195.9713        11     0.836     0.690 -55.36   0
        73    876.7994    775.5101 300.2130914 +22.8686627     1353.105     69.31136      1.001     1.63    -12.21152     19.58479     285.2191        13     0.842     0.691  87.48   0
        74    236.3664    771.6714 300.0149833 +22.6754269     368.6529     69.41753      1.139     3.10    -11.90607     19.58479     58.73446         6     0.827     0.500  50.60   0
        75    471.0031    771.4368 300.0880334 +22.7457807      255.544     69.45288      1.251     2.13     -11.8259     19.58479     47.32375         6     0.741     0.495   2.93   0
        76    481.8165    766.1866 300.0931061 +22.7475193     454.8709     69.36446      1.060     1.94    -11.77747     19.58479     87.23379         6     0.698     0.529 -58.81   0
        77    634.8049    771.6271 300.1389596 +22.7949773     426.5889     69.38216      1.179     2.53    -11.90089     19.58479     67.70821        10     0.901     0.690  47.22   0
        78    427.6195    760.9334 300.0779517 +22.7297499     263.9518     69.38216      1.144     3.46    -11.70075     19.58479     48.24098         6     0.947     0.479  84.45   0
        79     69.4560    761.0471 299.9665747 +22.6222675     306.5355     69.45288      1.430     4.23    -12.21759     19.58479     46.10157         6     1.063     0.480  33.91   0
        80    860.6614    757.7108 300.2138515 +22.8587140     138.0074     69.50588      1.102     2.60     -12.1831     19.58479     53.67554         6     0.833     0.665 -76.44   0
        81    233.9766    755.7792 300.0194098 +22.6701530      298.849     69.41753      1.183     3.57    -11.92185     19.58479      45.7096         7     0.744     0.669 -21.53   0
        82    557.3237    746.0980 300.1231411 +22.7644094     177.9517     69.55884      1.119     2.02    -11.63453     19.58479     47.12489         5     0.714     0.422  69.51   0
        83    548.8139    741.9460 300.1218427 +22.7606652     726.7774     69.41753      1.107     1.67    -11.59417     19.58479     169.1571        10     0.753     0.676   6.79   0
        84    943.1752    740.6866 300.2451137 +22.8785616     2284.831     69.36446      1.012     1.64    -11.85927     19.58479     503.6798        15     0.786     0.754  67.39   0
        85    931.7476    732.1207 300.2443369 +22.8726763     816.7322     69.43521      1.035     1.80    -11.82051     19.58479     176.7537         8     0.679     0.645  61.43   0
        86    294.5387    726.1464 300.0478758 +22.6798342     363.6509     69.47055      0.969     1.82    -11.63299     19.58479     81.64687         6     0.696     0.497  84.97   0
        87    757.8146    723.3722 300.1929709 +22.8180188     1179.015     69.43521      1.021     1.75    -11.63627     19.58479     224.3256        11     0.784     0.640 -73.68   0
        88    962.7475    722.2689 300.2572077 +22.8791389     820.2936     69.41753      1.002     1.68    -11.70517     19.58479     184.3446         9     0.739     0.583  80.34   0
        89    143.4660    710.0406 300.0061562 +22.6298679     336.8033     69.38216      1.287     2.06    -11.90462     19.58479     55.93201         6     0.735     0.496  84.22   0
        90    876.3777    700.3318 300.2374140 +22.8469499     72867.06     69.43521      1.044     1.72     -11.7147     19.58479     13826.68        91     1.092     1.008  84.84   0
        91    639.0920    704.0002 300.1622914 +22.7768552     227.6209     69.29365      1.366     4.51    -11.53066     19.58479     31.87635         7     0.879     0.658  28.53   0
        92   1023.4376    702.0134 300.2827241 +22.8915099     570.4015     55.23884      0.853     1.54    -11.53639     19.58479     155.6486         6     0.667     0.496 -88.28  24
        93    728.8721    700.5244 300.1913850 +22.8027813     350.6219     69.48822      0.976     1.66    -11.54329     19.58479     70.59818         6     0.669     0.498  -5.58   0
        94    909.3079    692.9089 300.2500941 +22.8546892      269.998     69.57648      1.040     1.57    -11.59286     19.58479     71.94682         5     0.673     0.411 -66.69   0
        95    562.7229    689.2749 300.1433027 +22.7497236     739.3729     69.50588      1.118     2.03    -11.45473     19.58479     147.9355        11     0.832     0.716 -24.47   0
        96    743.9034    686.5427 300.2006148 +22.8032746      4546.45     69.48822      1.022     1.73    -11.53306     19.58479     879.5939        27     0.968     0.859 -71.02   0
        97    245.5577    681.9675 300.0470146 +22.6524637     2397.615     69.47056      1.172     1.90    -11.36801     19.58479     422.6528        18     0.978     0.816 -75.03   0
        98    327.6853    679.8660 300.0732332 +22.6765084     398.1183     69.50588      0.957     2.03    -11.36209     19.58479     99.81694         6     0.753     0.484  57.55   0
        99    535.9597    675.1112 300.1395777 +22.7376313     452.2274     69.41753      1.207     2.29    -11.40328     19.58479     68.48072         8     0.757     0.649 -56.63   0
       100    527.3972    667.4772 300.1393949 +22.7328722     1608.269     69.32906      1.066     2.03    -11.36118     19.58479     228.1587        13     0.821     0.759  74.60   0
       101    517.6319    661.0404 300.1384485 +22.7280959     759.1983     69.47056      1.215     2.21    -11.32017     19.58479     116.2593        10     0.818     0.710  78.03   0
       102    911.3875    658.7334 300.2618563 +22.8454974     348.9082     69.39985      1.260     2.14    -11.37221     19.58479     65.12325         5     0.711     0.646 -31.18   0
       103    180.8974    657.4296 300.0348952 +22.6260195     379.0835     69.36446      1.087     2.00    -11.26777     19.58479     63.29417         5     0.665     0.476 -16.91   0
       104    194.9675    655.5937 300.0398649 +22.6297162     237.0961     69.41753      0.987     2.07    -11.25266     19.58479     50.18151         5     0.688     0.442  24.03   0
       105    221.1461    652.7913 300.0489128 +22.6367698      126.953     69.41753      1.046     1.92    -11.22107     19.58479     50.90236         6     0.692     0.540 -49.51   0
       106    442.4053    651.0438 300.1182893 +22.7026610     834.8246     69.41753      1.124     2.03    -11.23581     19.58479     132.6966        12     0.862     0.753  83.97   0
       107   1018.0494    648.1340 300.2985652 +22.8744174      343.243     69.39985      0.919     1.57    -11.19714     19.58479     116.4809         7     0.646     0.585 -84.67   0
       108     96.4593    646.0912 300.0123448 +22.5974217     9688.804     69.48822      1.148     1.94    -11.49029     19.58479     1547.252        36     1.027     0.963  74.76   0
       109     17.5498    647.3201 299.9874352 +22.5740835     339.6074     69.41753      1.154     3.43    -11.47256     19.58479     42.93218         5     0.721     0.472 -73.12   0
       110    527.1666    646.3105 300.1462055 +22.7267288     608.0007     69.38216      1.211     2.97    -11.22831     19.58479      84.7142         7     0.825     0.622   6.14   0
       111    562.4404    645.2026 300.1575456 +22.7369907     307.8594     69.43521      1.304     2.79    -11.25022     19.58479     31.91435         5     0.725     0.444  67.18   0
       112    945.3029    632.1754 300.2810666 +22.8480336     450.3412     69.32906      1.035     2.20    -11.22357     19.58479      101.204         8     0.845     0.562  78.42   0
       113     42.4676    630.2137 300.0007352 +22.5766608     625.2767     69.43521      1.401     4.06    -11.39244     19.58479     80.26094        15     1.423     0.686 -87.77   0
       114    812.2321    630.1293 300.2402494 +22.8075617      192.256     69.41753      1.143     3.22    -11.23046     19.58479     48.24972         6     0.827     0.621  61.11   0
       115    885.5291    624.9055 300.2647939 +22.8280314     442.7493     69.52354      0.953     1.91    -11.23343     19.58479     74.76736         6     0.707     0.494  82.26   0
       116    447.4908    619.1246 300.1302490 +22.6950279     339.9677     69.55884      1.139     2.75     -11.0351     19.58479     54.78714         8     0.761     0.691   3.40   0
       117    642.7766    615.9073 300.1920832 +22.7526740     230.7229     69.34677      1.259     2.52    -11.24204     19.58479      43.0181         6     0.720     0.567  36.75   0
       118    613.0783    616.0667 300.1827836 +22.7438142     232.5816     69.52354      1.137     2.45    -11.09838     19.58479     45.77557         6     0.734     0.549  55.78   0
       119    491.5732    614.9604 300.1453201 +22.7070560     491.3192     69.45288      1.183     2.63    -10.97492     19.58479     79.35708        10     0.916     0.694  51.78   0
       120    925.3122    610.3118 300.2819417 +22.8357625     1542.607     69.57648      1.021     1.87    -11.17213     19.58479     307.0591        15     0.850     0.729  84.68   0
       121    457.2689    610.4497 300.1361116 +22.6954717     788.2083     69.41753      1.103     1.94    -10.96116     19.58479     134.8213        10     0.794     0.706  62.87   0
       122   1023.3404    608.4045 300.3131332 +22.8645885     144.7444     55.74756      0.941     2.45    -10.81571     19.58479      62.3581         5     0.696     0.453  20.96  24
       123     19.3311    604.1906 300.0020087 +22.5622543     2588.142     69.39985      1.208     2.20    -11.29764     19.58479     381.4549        21     1.065     0.890  69.23   0
       124    320.6360    597.2401 300.0979037 +22.6506915     4448.809     69.48822      1.171     2.05    -10.84003     19.58479     708.4581        26     1.029     0.916  61.14   0
       125    443.0973    594.2783 300.1369590 +22.6865802     4430.784     69.52354      1.195     2.05    -10.81579     19.58479     706.9113        25     1.001     0.898  71.15   0
       126    854.6791    587.9729 300.2671841 +22.8081775     908.3702     69.41753      1.104     1.89     -11.1235     19.58479     166.2932        10     0.724     0.702  15.71   0
       127    939.2354    585.3348 300.2944029 +22.8327598     5936.005     69.41753      1.063     1.69    -11.04876     19.58479     1183.983        25     0.940     0.820  86.00   0
       128    503.6413    583.8450 300.1591906 +22.7017458     5565.687     69.48822      1.157     1.92    -10.58604     19.58479     1013.324        29     1.038     0.908  78.27   0
       129    231.0593    579.2551 300.0758990 +22.6186540     683.6483     69.47055      1.287     2.45    -11.01521     19.58479     89.68259        10     0.852     0.697  71.70   0
       130    389.4602    578.5211 300.1253941 +22.6659689       212.61     69.45289      1.322     4.13     -10.7146     19.58479     33.46029         5     0.981     0.496 -86.73   0
       131    428.8393    573.9459 300.1391318 +22.6764687     2071.919     69.41753      0.455    -1.97    -10.64966     19.58479     1460.483         5     0.376     0.293  20.12   0
       132    435.2964    572.0417 300.1417597 +22.6778592     2122.429     69.41753      1.202     2.01    -10.60618     19.58479     318.8945        20     0.989     0.878 -34.59   0
       133    777.9353    571.8005 300.2485239 +22.7805305     445.4554     69.43521      1.325     2.43    -11.01346     19.58479     66.32925         6     0.727     0.543  34.52   0
       134    413.8586    570.4792 300.1355979 +22.6709803      637.205     69.45288      1.192     4.34    -10.65704     19.58479     84.14058        10     1.223     0.714  55.61   0
       135    167.6217    569.9969 300.0591911 +22.5969612     332.7911     69.36446      1.211     2.02     -11.0527     19.58479     69.43575         6     0.756     0.481  83.70   0
       136    854.9897    567.4002 300.2739683 +22.8023615     815.5375     69.24049      1.396     2.93     -11.0901     19.58479     112.8796        12     0.948     0.818 -88.72   0
       137    735.6686    564.5392 300.2377152 +22.7657755     386.5715     69.45288      1.057     3.09    -10.88446     19.58479      73.9026         7     0.931     0.549  49.19   0
       138    551.9037    559.5573 300.1821070 +22.7092483     99604.13     69.43521      1.195     2.01    -10.16636     19.58479     17251.63       114     1.204     1.187 -70.64   0
       139    238.1189    559.5952 300.0844833 +22.6151330     1762.762     69.34677      1.153     1.94    -10.95683     19.58479     308.1754        17     0.951     0.822  85.80   0
       140    803.7890    555.2564 300.2619578 +22.7835283     239.7685     69.39985      0.874     2.51    -11.01702     19.58479     58.21499         5     0.789     0.452 -46.66   0
       141    442.6101    540.2259 300.1543757 +22.6709223     1315.665     69.41753      1.315     2.35    -10.23617     19.58479      215.532        19     1.443     0.793 -79.80   0
       142    760.2672    528.9606 300.2569425 +22.7629314     147.7038     69.38216      1.147     3.81    -10.66588     19.58479     43.92129         5     1.407     0.296  50.73   0
       143    839.4919    525.9332 300.2826153 +22.7858059     876.4018     69.55884      1.162     2.16    -10.91723     19.58479     144.4601        13     0.927     0.804 -42.32   0
       144    710.7747    523.6334 300.2432548 +22.7465664     1288.259     69.43521      1.210     2.13    -10.33098     19.58479     209.3737        15     0.891     0.870 -50.99   0
       145    954.8821    520.6925 300.3202929 +22.8188761      189.068     69.55884      0.919     1.98    -10.77562     19.58479     52.31273         5     0.734     0.398  22.31   0
       146    615.8152    520.6105 300.2146625 +22.7172309     200.8028     69.32906      1.424     3.44    -9.844839     19.58479     30.63804         5     0.740     0.461  15.90   0
       147    497.9476    519.5464 300.1783160 +22.6815830      227.858     69.45288      1.013     1.89    -9.850827     19.58479     53.79208         6     0.711     0.496  -4.75   0
       148    839.8257    515.9786 300.2859544 +22.7830464     1162.181     69.39985      1.377     2.47     -10.8552     19.58479     183.5473        17     1.394     0.695  85.34   0
       149    967.8955    517.3958 300.3254225 +22.8218277     577.0527     69.32906      1.028     1.89    -10.74527     19.58479     116.3584         7     0.748     0.541  32.65   0
       150    953.6607    516.5104 300.3212711 +22.8173085      349.192     69.50588      1.038     2.39    -10.75811     19.58479     65.70256         6     0.799     0.473  87.70   0
       151    593.3892    514.1672 300.2097736 +22.7086572     349.3657     69.39985      1.281     2.46    -9.787994     19.58479     50.35154         6     0.783     0.483 -83.88   0
       152    877.7277    510.9412 300.2994059 +22.7929570     2044.315     69.45288      1.139     1.86    -10.84495     19.58479     414.3682        21     0.985     0.908  26.73   0
       153    969.7710    501.4840 300.3311783 +22.8178174     246.2728     69.41753      0.997     2.27    -10.67582     19.58479     77.92208         7     0.720     0.591  29.37   0
       154    109.9012    501.8466 300.0634019 +22.5600929     444.4943     69.45288      1.128     2.56    -10.60043     19.58479     71.76328         8     0.779     0.652 -64.53   0
       155    651.0924    481.5411 300.2383434 +22.7165883     421.7813     69.47055      1.143     2.36    -9.828766     19.58479     81.58039         6     0.753     0.591  34.19   0
       156    965.9999    474.0002 300.3389329 +22.8087900     253.6775     69.20502      1.194     1.86    -10.58585     19.58479      61.2289         5     0.583     0.570   0.00   0
       157    711.9659    473.9260 300.2597781 +22.7326479     476.8168     69.39985      1.373     2.45    -10.03823     19.58479     62.73618         8     0.790     0.636 -45.89   0
       158    869.2634    469.9737 300.3100795 +22.7786509     471.9207     69.41753      1.117     1.96    -10.66295     19.58479     86.78225         7     0.670     0.634  60.79   0
       159    853.3650    466.3771 300.3062922 +22.7728540     325.7063     69.43521      1.069     2.24    -10.60797     19.58479     52.32011         5     0.687     0.452  19.80   0
       160    597.9277    464.5180 300.2273191 +22.6957624      1571.69     69.54119      1.182     2.30    -9.684196     19.58479     235.7994        16     0.909     0.842  77.82   0
       161   1009.0187    443.1308 300.3623796 +22.8128045     684.0745     69.41753      1.200     2.09    -10.56173     19.58479     114.3957         9     0.868     0.616  58.37   0
       162    881.3695    443.2463 300.3225370 +22.7745988     260.0302     69.43521      1.270     2.97    -10.59046     19.58479     48.44823         7     0.868     0.610 -17.53   0
       163    967.5052    441.7957 300.3498657 +22.7999860     446.4158     69.32906      1.061     3.86    -10.56095     19.58479     83.59945         9     1.178     0.544 -65.43   0
       164    504.2641    438.8909 300.2064874 +22.6603231      270.757     69.52354      1.239     3.03    -9.570993     19.58479     39.41638         6     0.748     0.596 -44.95   0
       165    708.1750    438.1823 300.2702098 +22.7212455     492.0057     69.41753      1.209     2.53    -9.915682     19.58479     93.87455         9     0.794     0.712  19.74   0
       166    212.3791    436.4318 300.1164998 +22.5720764     424.3398     69.41753      1.098     3.15     -10.1818     19.58479     48.70369         6     0.834     0.482  85.35   0
       167    274.8882    432.4908 300.1372127 +22.5896972     1879.854     69.57648      1.273     2.24    -10.06013     19.58479     283.9892        18     0.968     0.882 -84.71   0
       168   1007.8705    430.4730 300.3661337 +22.8088225     2161.431     69.48822      1.068     1.83    -10.55161     19.58479     407.8871        16     0.865     0.786  89.83   0
       169    222.0711    427.2487 300.1224954 +22.5723492     3573.924     69.39985      1.218     2.23    -10.05875     19.58479     548.4071        21     0.996     0.886  70.36   0
       170    362.9166    421.4773 300.1681654 +22.6129390     2279.743     69.52354      1.244     2.29    -9.752548     19.58479     317.9816        20     0.998     0.916  40.51   0
       171    987.7780    421.5216 300.3627747 +22.8002316     862.6995     69.41753      1.045     1.82    -10.54539     19.58479     156.0631        10     0.888     0.632  84.49   0
       172    606.9933    417.9867 300.2452580 +22.6851181     8918.729     69.31136      1.271     2.11    -9.750953     19.58479     1482.713        35     1.114     0.977  73.73   0
       173    624.9540    418.0250 300.2508383 +22.6905128     344.2776     69.43521      1.836     3.95    -9.780182     19.58479      52.7353         5     1.405     0.317 -55.82   0
       174    803.6490    408.2400 300.3096839 +22.7412544     94.40292     69.45288      0.933     3.46    -9.980525     19.58479     27.52763         5     1.178     0.294  35.66   0
       175    940.4863    400.1848 300.3549574 +22.7799340     352.0919     69.36446      1.180     2.33    -10.48284     19.58479     61.46077         5     0.711     0.420  61.78   0
       176    161.7454    398.3333 300.1131373 +22.5459551     821.4714     69.47056      1.171     2.22    -10.32243     19.58479     141.6529        13     0.842     0.828 -66.76   0
       177    547.6792    387.5270 300.2366850 +22.6585909      3094.17     69.52354      1.224     2.17    -9.599561     19.58479     479.4623        22     1.007     0.915  68.86   0
       178    961.0957    387.5584 300.3654855 +22.7824781     538.1028     69.43521      1.046     2.33    -10.44143     19.58479     99.81741         9     0.784     0.687  -9.71   0
       179    262.7784    387.3484 300.1481098 +22.5731103     368.2001     69.41753      1.406     2.61    -9.916522     19.58479     63.14127         7     0.880     0.528 -58.86   0
       180    120.3683    379.7271 300.1063222 +22.5282033     287.0199     69.41753      1.129     3.47    -10.27874     19.58479     41.67564         5     0.738     0.470 -79.11   0
       181    751.8522    376.4128 300.3038812 +22.7165903     616.0156     69.45288      1.273     2.49    -9.998807     19.58479     72.39961        11     0.928     0.704 -80.15   0
       182    454.2049    373.7744 300.2120592 +22.6266189     2961.043     69.38216      1.244     2.37    -9.332162     19.58479     413.0878        23     1.040     0.911  70.37   0
       183    943.3159    368.1633 300.3662403 +22.7715782     330.2734     69.39985      1.136     1.91    -10.37243     19.58479     69.79671         7     0.751     0.543 -53.45   0
       184    846.0919    367.8961 300.3360158 +22.7423783     622.7111     69.59412      1.137     2.11    -10.14432     19.58479     119.8472        10     0.807     0.705  73.23   0
       185    341.8540    353.0728 300.1838303 +22.5869879     1292.625     69.39985      1.339     2.52     -9.49598     19.58479     191.9085        14     1.082     0.779  79.69   0
       186     60.4623    350.4068 300.0972321 +22.5018182      493.378     69.38216      1.167     2.75    -10.16567     19.58479     72.73358         8     0.830     0.716 -75.62   0
       187    311.2073    342.5200 300.1777260 +22.5747685     14671.39     69.34677      1.254     2.32    -9.664492     19.58479     1949.276        48     1.161     1.039  78.76   0
       188    845.6384    339.7989 300.3449992 +22.7341681     560.6141     69.43521      1.130     2.51    -10.04407     19.58479     104.6107         9     0.829     0.696  54.82   0
       189      7.5983    330.5011 300.0872757 +22.4802463     2382.488     69.31136      1.166     2.17    -10.09147     19.58479     313.8195        20     0.987     0.875  63.01   0
       190    761.1266    328.3804 300.3223693 +22.7055687     263.0342     69.41753      1.325     3.60     -9.99835     19.58479     42.59393         5     0.823     0.478  55.21   0
       191    409.3274    327.4592 300.2131359 +22.5998662      200.375     69.45288      1.094     3.47    -9.272547     19.58479     35.83162         5     0.729     0.476  15.37   0
       192    721.4681    322.0194 300.3120787 +22.6918588     901.0071     69.39985      1.190     2.02    -9.932163     19.58479     149.3248        12     0.859     0.717  47.93   0
       193    529.7839    316.4315 300.2542017 +22.6328096     190.6448     69.39985      1.164     3.14    -9.416002     19.58479     35.07656         5     0.720     0.479 -13.59   0
       194    936.6984    314.4894 300.3816069 +22.7541684     245.9677     69.57648      1.076     3.18    -10.18241     19.58479     51.12391         5     0.789     0.605  52.55   0
       195    383.3749    306.9350 300.2117261 +22.5861925     1089.761     69.39985      1.481     3.39    -9.359123     19.58479     117.5248        19     1.259     0.853  77.17   0
       196    459.4012    286.1376 300.2421320 +22.6030126     576.7777     69.38216      1.253     2.48    -9.300553     19.58479     91.97047         8     0.898     0.572  50.13   0
       197    704.0518    278.0005 300.3209450 +22.6739931     1109.595     69.38216      1.266     2.29    -9.758389     19.58479     189.9942        13     0.942     0.750  73.22   0
       198    965.2993    272.1594 300.4042696 +22.7505646     1611.048     69.39985      1.150     1.94    -10.02703     19.58479     298.8159        18     0.925     0.855  78.24   0
       199    412.4600    261.7967 300.2354279 +22.5819514     364.5372     69.39985      1.429     2.96    -9.417635     19.58479     60.08826         8     0.918     0.778  79.55   0
       200     87.4631    256.6874 300.1360453 +22.4830288     815.8369     69.52354      1.780     3.53    -9.994977     19.58479     69.59086        16     1.077     0.998 -43.40   0
       201    118.3788    255.8502 300.1459225 +22.4920617     263.3029     69.41753      1.115     2.32    -9.973104     19.58479     45.52241         5     0.707     0.450 -70.54   0
       202    980.8545    252.4690 300.4155131 +22.7495611      257.118     69.45288      1.060     2.05     -9.81199     19.58479     57.51163         5     0.708     0.456  22.05   0
       203    171.4010    248.4108 300.1648142 +22.5058293     292.9875     69.24049      1.203     2.71    -9.780873     19.58479     62.32142         6     0.886     0.436 -73.15   0
       204    873.7978    228.4696 300.3899213 +22.7106036     973.0646     69.36446      1.181     2.29    -9.660857     19.58479     150.9456        12     0.869     0.746  75.73   0
       205    292.2578    225.7785 300.2097311 +22.5355731     1125.185     69.41753      1.361     2.74    -9.551654     19.58479     151.0327        17     1.136     0.950  48.99   0
       206    370.3803    220.8886 300.2356151 +22.5575900     538.6268     69.36446      1.502     3.45    -9.550974     19.58479     59.62114        11     1.052     0.763 -73.41   0
       207    771.9920    220.0085 300.3609370 +22.6776806     190.3854     69.27593      1.067     3.66    -9.329553     19.58479     30.54234         5     0.678     0.568  89.97   0
       208    186.9780    213.3503 300.1810345 +22.5004373     413.7802     69.41753      1.192     2.82    -9.568453     19.58479     51.89443         7     0.823     0.564  23.75   0
       209    724.9932    209.7583 300.3496201 +22.6606567     816.2918     69.43521      1.196     2.25    -9.221805     19.58479     143.4534         9     0.814     0.676  63.62   0
       210    789.5889    209.1927 300.3699310 +22.6798426     288.4678     69.29365      1.166     3.09    -9.352772     19.58479     52.26089         5     0.745     0.610  29.76   0
       211    208.3522    206.0862 300.1900356 +22.5047616     302.8206     69.39985      1.171     3.10    -9.473438     19.58479     42.58738         7     0.750     0.626  65.52   0
       212    996.3778    202.0361 300.4367247 +22.7397072     404.6993     69.43521      1.157     2.66    -9.288898     19.58479     72.14697         9     0.881     0.701 -80.15   0
       213    728.9458    200.9763 300.3537017 +22.6593168     345.4735     69.43521      1.302     4.12    -9.195093     19.58479     45.38102         6     0.787     0.617  47.01   0
       214    649.4144    200.7208 300.3290108 +22.6354183      610.614     69.43521      1.271     2.39    -9.283431     19.58479     84.56383         8     0.879     0.545  23.37   0
       215    856.9515    191.1883 300.3967696 +22.6948413     453.6515     69.43521      1.257     3.07     -9.45206     19.58479     57.11419        10     0.854     0.770 -79.45   0
       216    844.9740    192.0200 300.3927661 +22.6914935     721.9285     69.41753      1.234     1.82    -9.429763     19.58479     131.2359        11     0.893     0.649   4.04   0
       217    575.5356    192.0767 300.3088107 +22.6107997     563.3694     69.50588      1.261     2.88     -9.33796     19.58479     69.25816         9     0.913     0.671 -64.14   0
       218   1017.7588    181.7979 300.4499621 +22.7402880     852.5944     69.41753      1.209     1.99     -9.05828     19.58479     147.8497        11     0.853     0.733  -2.66   0
       219    973.3794    181.2100 300.4363104 +22.7268332     438.0241     69.39985      1.136     2.37    -9.279311     19.58479     76.75697         7     0.757     0.612 -60.67   0
       220    207.7313    174.7480 300.2000117 +22.4955790     326.8391     69.39985      1.196     3.51    -9.250041     19.58479     44.95776         6     0.751     0.561  55.36   0
       221     69.5298    169.4860 300.1587727 +22.4526251     972.5472     69.52354      1.154     2.36    -9.388231     19.58479     145.1348        16     0.975     0.864  52.61   0
       222    892.9467    166.3244 300.4160598 +22.6984713     376.9839     69.43521      1.327     3.08    -9.389181     19.58479     68.91413         7     1.008     0.451  47.99   0
       223    227.0507    162.7932 300.2098963 +22.4979394     2817.608     69.41753      1.309     2.51    -9.151417     19.58479     400.9498        25     1.096     0.939  71.58   0
       224     11.3668    157.3256 300.1446516 +22.4316904     645.1282     69.41753      1.244     2.41    -9.331279     19.58479       76.339        11     0.841     0.772 -16.51   0
       225    210.4485    153.4812 300.2077567 +22.4902882     407.7975     69.45288      1.332     3.29    -9.121808     19.58479     51.69678         6     0.881     0.441 -17.95   0
       226   1023.8268    149.9098 300.4622028 +22.7329333     775.3292     53.10911      0.980     2.43    -8.898478     19.58479     235.3614        10     1.094     0.378  89.59  24
       227    870.9625    144.0877 300.4164214 +22.6854952      1788.13     69.39985      1.223     2.19    -9.298941     19.58479     275.9795        17     1.003     0.826  89.45   0
       228    974.6741    142.6491 300.4492271 +22.7161316     1365.605     69.41753      1.170     2.42    -9.146891     19.58479     197.5793        15     1.022     0.769  57.95   0
       229    420.8839    139.8949 300.2776088 +22.5494662     287.6138     69.59412      1.289     4.19     -9.37585     19.58479     42.34477         6     1.122     0.524  77.80   0
       230    349.7575    129.2257 300.2589436 +22.5250846     181.0181     69.45288      1.203     4.34    -9.308289     19.58479     25.80854         5     0.733     0.730  32.47   0
       231    110.4765    128.7149 300.1847219 +22.4532023     308.0921     69.52354      1.073     4.16    -9.224951     19.58479     58.51478         8     1.161     0.670 -15.26   0
       232    472.0993    126.6380 300.2978466 +22.5610058     791.8477     69.43521      1.242     2.50    -9.187075     19.58479     122.8146        12     0.903     0.782 -70.48   0
       233    245.9747    106.6650 300.2339889 +22.4874968     3045.799     69.39985      1.311     2.36    -9.027844     19.58479     441.4591        24     1.084     0.927  77.71   0
       234     96.8820    106.0665 300.1878449 +22.4426244      527.745     69.52354      1.398     2.22    -9.212386     19.58479     79.18222         8     0.804     0.674  68.64   0
       235    492.0380     91.9590 300.3153018 +22.5570169     3064.838     69.50588      1.309     2.33    -8.980452     19.58479       454.24        25     1.081     0.956  79.69   0
       236    377.1905     91.9610 300.2795655 +22.5226032     372.0166     69.41753      1.263     2.65    -9.035119     19.58479     64.93029         7     0.866     0.506  40.33   0
       237    744.4833     81.3382 300.3973601 +22.6295817     442.3696     69.50588      1.364     3.39    -8.924306     19.58479     52.45444         5     0.731     0.455  68.88   0
       238    185.3430     75.7524 300.2251677 +22.4604442     159.5128     69.47056      1.055     3.11    -8.861317     19.58479     51.17931         5     0.986     0.344  69.25   0
       239    543.2305     74.6815 300.3368408 +22.5673896     166.5033     69.41753      1.153     3.17    -8.757959     19.58479     36.50645         6     0.934     0.627  27.50   0
       240    620.2707     71.9934 300.3616998 +22.5896947     3019.735     69.38216      1.293     2.38     -8.83068     19.58479     431.5913        26     1.132     0.970  62.83   0
       241    395.1694     70.9161 300.2919847 +22.5219457      893.387     69.43521      1.386     2.65    -8.829917     19.58479     116.6648        13     0.965     0.867  57.91   0
       242    661.3441     69.1156 300.3754251 +22.6011696      518.834     69.50588      1.439     2.91    -8.809753     19.58479     54.43114         9     0.870     0.679 -26.12   0
       243    677.3190     65.3002 300.3816384 +22.6048573      266.773     69.54119      1.102     3.35    -8.774466     19.58479     33.96079         8     0.892     0.633 -84.07   0
       244    143.8204     63.2741 300.2163099 +22.4444131     302.1333     69.41753      1.192     4.62    -8.832736     19.58479     49.56129         8     0.947     0.713   6.89   0
       245    986.1927     62.0818 300.4789569 +22.6964069     226.5223     69.34677      1.331     4.41    -9.128848     19.58479     28.21765         6     0.812     0.681  79.90   0
       246    947.1057     62.4068 300.4666611 +22.6848013     286.2616     69.31136      1.200     2.88    -9.165634     19.58479     39.78021         5     0.740     0.432  22.90   0
       247    715.7648     60.5070 300.3951694 +22.6149930      219.322     69.38216      1.074     3.11    -8.737603     19.58479     37.39469         5     0.737     0.442 -23.26   0
       248    679.8480     55.8796 300.3854817 +22.6029067     311.7946     69.43521      1.579     5.35    -8.691525     19.58479       41.766        10     1.242     0.651  49.37   0
       249    664.4697     56.8224 300.3803858 +22.5985721     1299.228     69.43521      1.217     2.53    -8.700468     19.58479     180.3491        13     0.939     0.778  64.58   0
       250    305.2589     57.6683 300.2683152 +22.4911955     245.3036     69.43521      1.220     3.49    -9.053457     19.58479     38.13792         5     0.778     0.452 -11.96   0
       251    750.7854     48.3973 300.4100082 +22.6219985     819.6066     69.25822      1.283     2.56    -8.619293     19.58479     104.7923        12     0.863     0.810  11.49   0
       252    688.8181     41.4255 300.3929637 +22.6014380     286.7253     69.43521      1.224     3.92     -8.55329     19.58479     44.11398         8     0.893     0.667  53.11   0
       253    494.5268     41.0204 300.3325981 +22.5431262     361.4545     69.43521      1.172     2.64    -8.312973     19.58479      78.0323         8     0.861     0.683  47.81   0
       254     67.5443     41.0829 300.1998065 +22.4151729     275.0551     69.47055      1.291     3.81    -9.070364     19.58479     42.38493         6     0.838     0.497  87.76   0
       255    398.5269     39.1705 300.3033251 +22.5138319     480.4837     69.43521      1.152     2.61    -8.502833     19.58479     65.54919         8     0.832     0.639  45.81   0
       256    737.6407     29.3600 300.4120868 +22.6125892      319.204     69.48822      1.323     3.66    -8.442674     19.58479     47.60524         9     0.964     0.705  52.35   0
       257    169.7181     29.2824 300.2353819 +22.4424167     1854.059     69.54119      1.238     2.35     -8.64639     19.58479     257.6345        18     1.009     0.859  79.77   0
       258    286.0169     21.4011 300.2740928 +22.4750118      589.921     69.31136      1.416     3.02    -9.034326     19.58479      72.9789        10     0.874     0.776  65.49   0
       259    731.3131     21.2950 300.4127308 +22.6083757     446.9135     69.59412      1.158     2.47    -8.368977     19.58479     64.58146         8     0.835     0.609 -10.43   0
       260    768.7099     16.4546 300.4259528 +22.6181812     320.9424     69.45288      1.329     3.79     -8.31903     19.58479      44.8857         6     0.910     0.454  88.81   0
       261    692.2384     16.0472 300.4022594 +22.5951664     171.8556     69.47055      1.042     3.75    -8.322898     19.58479     28.63535         5     0.822     0.492  30.77   0
       262    546.1575   1016.7012 300.0315957 +22.8386776     1150.608     69.39985      1.088     1.87    -13.54951     19.58479     224.4978        11     0.769     0.720 -75.49   0
       263    632.5850   1011.8921 300.0600677 +22.8632387      4096.68     69.34677      1.050     1.71     -13.5884     19.58479     832.2327        22     0.903     0.821  82.73   2
       264    638.2229   1009.5643 300.0625813 +22.8642630     4581.235     69.43521      1.042     1.68    -13.59106     19.58479     835.3162        28     1.060     0.875 -78.46   2
       265    732.8121   1012.6107 300.0910486 +22.8935209     184.7217     69.31136      1.044     2.15    -13.78415     19.58479     68.89822         6     0.703     0.574 -64.28   0
