#   1 NUMBER                 Running object number                                     
#   2 X_IMAGE                Object position along x                                    [pixel]
#   3 Y_IMAGE                Object position along y                                    [pixel]
#   4 ALPHA_J2000            Right ascension of barycenter (J2000)                      [deg]
#   5 DELTA_J2000            Declination of barycenter (J2000)                          [deg]
#   6 FLUX_APER              Flux vector within fixed circular aperture(s)              [count]
#   7 FLUXERR_APER           RMS error vector for aperture flux(es)                     [count]
#   8 FLUX_RADIUS            Fraction-of-light radii                                    [pixel]
#   9 FWHM_IMAGE             FWHM assuming a gaussian core                              [pixel]
#  10 BACKGROUND             Background at centroid position                            [count]
#  11 THRESHOLD              Detection threshold above background                       [count]
#  12 FLUX_MAX               Peak flux above background                                 [count]
#  13 ISOAREA_IMAGE          Isophotal area above Analysis threshold                    [pixel**2]
#  14 A_IMAGE                Profile RMS along major axis                               [pixel]
#  15 B_IMAGE                Profile RMS along minor axis                               [pixel]
#  16 THETA_IMAGE            Position angle (CCW/x)                                     [deg]
#  17 FLAGS                  Extraction flags                                          
         1    731.4186      6.5751 300.4119398 +22.6126577     234.6109     69.29273      1.080     3.31    -8.590049     19.54958     47.12844         7     0.921     0.529 -59.33   0
         2    163.7218      6.1654 300.2354173 +22.4424776     1832.543     69.23976      1.268     2.29    -8.608052     19.54958     253.4114        20     1.061     0.859  57.50  16
         3    539.8508    993.5182 300.0315885 +22.8386786     1111.602     69.31038      1.101     1.88    -12.90423     19.54958       203.14        12     0.805     0.752   1.40   0
         4     96.1403    943.1085 299.9100306 +22.6910036     1539.736      69.3633     20.946    25.49   0.03599536     19.54958     45.37215       102     6.042     2.987 -21.66   3
         5     79.3582   1011.2170 299.8826450 +22.7054780     2375.089     69.31038     18.451    70.72     19.09234     19.54958     94.44927      1183    14.924     9.298  40.71  27
         6    191.9887    988.1479 299.9251492 +22.7326990     1986.634     69.29273      7.571    17.15     17.67126     19.54958     48.64718        67     3.687     2.217 -33.53   3
         7    626.3357    988.7136 300.0600762 +22.8632548     4151.713     69.38092      1.121     1.88    -12.86066     19.54958     667.9015        25     0.946     0.920 -31.60   2
         8    631.8823    986.4241 300.0625487 +22.8642625     4635.848     69.25742      1.127     1.88    -12.85004     19.54958     808.2864        27     1.056     0.879  89.86   2
         9    726.6045    989.5341 300.0910362 +22.8935754     225.5411     69.29273      1.059     2.56    -12.78446     19.54958     54.15799         5     0.719     0.453  70.88   0
        10    223.5766    985.9893 299.9356692 +22.7415670     1203.914     69.29273      9.351    16.38     15.82789     19.54958     42.67593        31     3.055     2.441 -72.92   3
        11    232.9257    976.4606 299.9416773 +22.7416435     3939.752     69.32802      7.532    27.72     8.289563     19.54958     104.4955       299     7.636     3.297  66.91   2
        12    157.4325    971.2525 299.9199114 +22.7174783     799.7266     69.31038      6.231     8.66     11.62495     19.54958     33.59033        11     2.519     0.832  83.17   3
        13    160.1253    980.3627 299.9177823 +22.7208979     1108.179     69.23976      4.406     9.01      15.3083     19.54958     37.50084        19     1.948     1.164  18.81   2
        14     69.8705    921.4767 299.9089115 +22.6769142     1972.874     69.39854     20.811    41.27     -7.60951     19.54958      53.3065       349     7.427     6.366 -72.14   3
        15    491.3698    978.1996 300.0214882 +22.8197341     194.1707     69.25742      1.493     4.38    -12.86644     19.54958     27.89319         5     1.142     0.479  33.71   0
        16    190.4951    977.6522 299.9281020 +22.7292424     706.3291      69.3633      3.692     4.85     13.44333     19.54958     36.27896         7     1.064     0.627 -72.37   0
        17    101.8248    978.3646 299.9003197 +22.7028139     798.5723     69.31038      4.544     4.80     14.48978     19.54958     30.02018         5     1.418     0.461   5.87   0
        18     69.1163    956.5781 299.8972519 +22.6867460     2463.641     69.25742     27.297    80.97    0.1609233     19.54958     62.45631      1427    14.955    12.165 -70.44  19
        19    919.0652    972.4176 300.1565870 +22.9463917     332.0385     69.27508      1.025     1.85    -13.41504     19.54958     73.12825         6     0.695     0.493  -2.72   0
        20    171.4856   1009.1589 299.9119369 +22.7325623     463.9829     69.25742      5.997     6.46      27.0235     19.54958      28.8653         9     1.476     0.795 -73.65   0
        21    119.4884    960.5926 299.9115925 +22.7030268     729.7675     69.20442      5.394     5.21     7.532347     19.54958     33.95201         5     1.113     0.688  26.16   0
        22    135.3187    957.0132 299.9176759 +22.7067558      878.312     69.27508      6.517     6.54     5.895305     19.54958     71.11581         9     1.797     1.256 -44.22   2
        23    142.6708   1009.4781 299.9028796 +22.7239987     433.0464     69.39854      1.924     5.05     27.17685     19.54958     34.52959         5     1.187     0.608 -54.45   0
        24    644.6437    955.8757 300.0764684 +22.8593277     3418.579     69.27508      1.154     1.91     -12.8231     19.54958     633.9398        22     0.964     0.895  44.89   0
        25    221.8031    969.7427 299.9404072 +22.7363778     1622.292     69.25742      5.845    11.82     8.687902     19.54958     43.94473        38     2.767     1.405  23.54   3
        26    200.0416    995.0128 299.9254168 +22.7370850     1147.377     69.29273      7.769     9.19     20.48369     19.54958      56.1984        13     2.591     0.909 -51.55   3
        27    210.7957    986.4780 299.9315377 +22.7378687     2323.996     69.20442      8.446    21.06     16.22738     19.54958     58.78056       120     5.110     2.410 -82.17   3
        28    524.0267    950.2360 300.0407551 +22.8215153     258.6506     69.31038      1.162     2.47    -12.86502     19.54958     43.38337         5     0.763     0.480 -58.02   0
        29    235.5544    950.1413 299.9510624 +22.7348888     47.32449     69.32802      1.016     4.44    -2.543447     19.54958     34.75137         7     0.898     0.623  11.86   0
        30    687.2189    949.6740 300.0917463 +22.8703221     1436.929     69.29273      0.688     0.93    -12.78446     19.54958     705.2095         6     0.511     0.455 -29.05   0
        31    190.5564   1005.2004 299.9191520 +22.7371559     680.8782     69.29273      2.929     6.63     24.99945     19.54958     33.59702        10     2.331     0.529  75.36   0
        32    447.0403    942.9843 300.0191595 +22.7963292     554.9557     69.31038      1.112     2.02    -12.77616     19.54958      120.452         9     0.768     0.677  39.18   0
        33    377.6267    941.1114 299.9981763 +22.7749559     3246.046     69.27508      1.120     1.86    -12.59909     19.54958     578.6165        21     0.951     0.853 -35.44   0
        34    164.1914    998.8676 299.9130211 +22.7274222     1486.733     69.29273      6.625    15.08     23.01816     19.54958     50.08595        32     3.689     1.714 -54.48   2
        35    410.3809    927.8401 300.0126845 +22.7809825     302.5378     69.31038      1.101     1.63    -12.71843     19.54958     57.00418         5     0.658     0.439 -64.90   0
        36    479.1863   1002.6041 300.0097510 +22.8230758     222.2378     69.15139      1.277     3.67    -12.90604     19.54958     26.91457         5     1.014     0.381  85.19   0
        37    553.2316    946.5726 300.0510376 +22.8292290     714.7772     69.29273      1.085     2.11    -12.89108     19.54958     145.3149        10     0.790     0.750  74.86   0
        38    222.1355   1002.1093 299.9299729 +22.7457544     432.0866     69.39854      1.426     4.59      23.0908     19.54958     53.68031         8     1.057     0.611 -55.73   0
        39    923.9187    919.6801 300.1752697 +22.9327072     1056.532     69.41617      1.166     2.05    -13.00663     19.54958     196.8279        14     0.891     0.809  67.70   0
        40    322.9930    921.5350 299.9875580 +22.7529414     661.5317     69.25742      0.663     2.44    -12.40011     19.54958     309.6574         5     0.507     0.352  75.43   0
        41    347.9706   1000.7003 299.9695533 +22.7831373     279.5285     69.22209      1.241     4.24     -12.7974     19.54958     40.31488         7     0.776     0.659  -1.06   0
        42    712.9568    908.2640 300.1132429 +22.8661606     358.6434     69.29273      1.380     4.47    -12.62683     19.54958     63.36403         7     1.227     0.560  45.95   0
        43     87.3335    906.7047 299.9191436 +22.6779260     976.9335     69.41617      9.335     9.84    -7.905227     19.54958     35.38681        14     2.022     1.337 -35.44   1
        44    747.6522    902.7233 300.1258545 +22.8749778      531.337     69.29273      1.107     2.16    -12.64824     19.54958     82.26785         8     0.804     0.586 -84.53   0
        45    769.7283    896.5306 300.1347481 +22.8798219     5544.829      69.3633      1.046     1.78    -12.72855     19.54958     982.0499        27     0.938     0.874  83.48   0
        46    960.6580    895.8503 300.1944820 +22.9368808     371.7992     69.34566      1.168     1.53    -12.82852     19.54958     67.06895         5     0.637     0.449  70.31   0
        47    815.2731    896.3386 300.1490023 +22.8934264     110.6034     69.32802      1.074     3.46    -12.90026     19.54958     48.41334         6     0.844     0.622  25.95   0
        48     81.2203    888.8474 299.9230562 +22.6709723     477.3176     69.32802      1.670     4.93    -9.561073     19.54958       50.348         8     0.984     0.700  70.13   0
        49    778.3412    878.7668 300.1432133 +22.8773064     599.9525     69.31038      1.025     2.27    -12.67467     19.54958     127.6275         9     0.878     0.632 -23.06   0
        50    816.5941    872.0889 300.1573066 +22.8868615     374.2512     69.20442      1.020     1.97    -12.79307     19.54958     78.49017         7     0.686     0.611 -26.25   0
        51    864.8528    863.3659 300.1751861 +22.8988286     337.9274     69.31038      0.985     1.53    -12.74742     19.54958      76.9315         5     0.646     0.439 -24.78   0
        52    716.1776    862.3997 300.1291736 +22.8539641     480.4399     69.22209      1.056     2.29    -12.27889     19.54958     69.00491         6     0.699     0.597 -65.32   0
        53    428.8185    858.8429 300.0408761 +22.7667279     2128.599     69.31038      1.089     1.73    -12.19374     19.54958     453.0847        20     0.964     0.813  74.97   0
        54    727.3276    859.2546 300.1336704 +22.8564057      255.246     69.29273      0.917     2.84    -12.25462     19.54958     58.76011         5     0.776     0.481  42.64   0
        55    154.0448    844.6652 299.9600580 +22.6801778     448.8399     69.29273      1.150     3.40    -11.30383     19.54958       66.335         7     0.768     0.611  11.13   0
        56    131.3017    841.7789 299.9539306 +22.6725212     644.5848     69.22209      1.134     2.25    -11.34512     19.54958     106.2551        12     0.954     0.690  -9.59   0
        57   1002.8245    830.4216 300.2289261 +22.9307321     1091.939     69.25742      1.030     1.77    -12.51011     19.54958     206.9706        12     0.781     0.751  17.51   0
        58    957.0568    828.8829 300.2151538 +22.9165710     970.3361     69.38092      1.021     1.72    -12.50773     19.54958     241.4671        10     0.764     0.678  81.66   0
        59    740.2969    822.5668 300.1496492 +22.8497649     250.8981     69.27508      1.039     2.49    -11.96929     19.54958     72.52903         6     0.783     0.488   7.95   0
        60    608.7807    816.8450 300.1105512 +22.8086756      2191.13     69.32802      1.016     1.62    -11.89409     19.54958      570.321        18     0.932     0.758 -84.58   0
        61    411.1589    814.0294 300.0499639 +22.7485739     338.4663     69.31038      1.219     2.43    -11.66616     19.54958      64.9423         6     0.831     0.472 -58.27   0
        62    159.0090    810.8987 299.9725866 +22.6719882      615.224     69.18675      1.163     2.07    -11.53118     19.54958     111.3945         9     0.744     0.679 -41.53   0
        63    629.4857    809.5873 300.1193595 +22.8128037     416.2213     69.23976      1.082     2.28    -11.83506     19.54958     69.45635         7     0.838     0.495 -84.09   0
        64   1001.7809    796.8953 300.2395097 +22.9207899     502.3923     69.20442      1.056     1.82    -12.47819     19.54958     113.3721         8     0.737     0.598  50.66   0
        65    784.7714    796.5780 300.1719618 +22.8556412     1949.893     69.29273      1.029     1.75    -12.06672     19.54958     386.5511        15     0.807     0.776  27.94   0
        66    501.4781    789.1561 300.0861586 +22.7685393     327.7321     69.27508      1.054     2.04    -11.41175     19.54958     68.72098         5     0.683     0.468  69.37   0
        67    148.0594    787.2595 299.9768744 +22.6619234      435.947      69.3633      1.139     2.38    -11.62253     19.54958     76.98798        10     0.853     0.713 -83.47   0
        68    297.8251    779.3055 300.0260130 +22.7046005     26413.06     69.22209      1.112     1.78    -11.69684     19.54958     5237.008        55     1.051     0.996  75.69   0
        69    555.6415    778.3022 300.1065476 +22.7816743     670.0823     69.27508      0.941     1.46    -11.42421     19.54958     169.7875         9     0.782     0.570 -85.92   0
        70    968.5304    777.2328 300.2355371 +22.9051762     438.0106     69.27508      0.962     1.98    -12.36933     19.54958     82.78318         7     0.746     0.563 -13.14   0
        71    226.2360    777.2105 300.0044388 +22.6825114      254.082     69.27508      1.100     2.91    -11.64148     19.54958     51.81427         5     0.855     0.417  44.27   0
        72    584.6788    774.4214 300.1168495 +22.7892711     394.1589     69.29273      0.963     1.65    -11.50948     19.54958     92.17427         5     0.650     0.437 -28.64   0
        73    595.7668    772.6664 300.1208724 +22.7920935     272.8423     69.29273      1.027     2.00    -11.54693     19.54958     62.26959         6     0.677     0.551  46.90   0
        74    915.5007    769.6926 300.2214549 +22.8871151     293.6787       69.469      1.108     3.35     -12.1931     19.54958     36.12629         5     1.030     0.316 -20.04   0
        75    738.5197    759.0538 300.1697590 +22.8309992     347.9943     69.32802      1.018     1.99    -11.52401     19.54958     74.40198         6     0.717     0.493  81.04   0
        76    347.5567    756.5554 300.0488780 +22.7130007     15193.42     69.34566      1.020     1.80     -11.5413     19.54958      2536.93        38     0.953     0.927  77.14   0
        77    361.9105    757.0226 300.0531901 +22.7174422     1043.109     69.22209      1.161     1.78    -11.52197     19.54958     226.5468        14     0.915     0.755 -12.03   0
        78    870.5870    752.2636 300.2131232 +22.8686460      1427.23     69.25742      0.992     1.64    -11.95289     19.54958     286.1881        15     0.832     0.749  56.51   0
        79    628.5049    748.3389 300.1389794 +22.7949307     362.1266     69.38092      0.917     2.23    -11.45576     19.54958     95.00372         5     0.665     0.484  74.22   0
        80    229.9282    748.2319 300.0150123 +22.6753095     406.1084     69.29273      1.207     1.76     -11.6013     19.54958     106.7429         7     0.690     0.604 -30.17   0
        81    475.7117    743.5402 300.0929788 +22.7477204     325.8258      69.3633      1.101     2.47    -11.13063     19.54958     71.53882         6     0.680     0.616  83.45   0
        82     34.6087    743.8752 299.9557425 +22.6154218     374.3109     69.27508      1.479     2.84    -12.03782     19.54958     56.46949         8     0.889     0.647 -37.60   0
        83     63.4355    737.8168 299.9666663 +22.6223407     236.2203     69.29273      1.114     2.17    -11.86024     19.54958     40.42943         5     0.683     0.467 -70.35   0
        84    854.0131    734.9683 300.2135830 +22.8587107     221.8469     69.27508      1.334     4.23    -11.72713     19.54958     41.37339         6     1.093     0.544  -2.00   0
        85    550.8050    723.1503 300.1229817 +22.7643960     202.3495     69.27508      0.962     3.52    -11.01422     19.54958     54.15731         6     1.044     0.406  60.22   0
        86    520.4293    721.1835 300.1141666 +22.7547199     319.4966     69.29273      1.030     2.39    -10.98988     19.54958     51.18125         5     0.704     0.455  68.79   0
        87    936.9940    717.5736 300.2451101 +22.8785880     2213.199     69.29273      1.007     1.63    -11.73957     19.54958     477.6594        18     0.848     0.804  31.37   0
        88    542.3439    718.7557 300.1217773 +22.7605968     512.4908     69.31038      1.038     2.11    -10.97051     19.54958     113.6042         8     0.678     0.664 -77.08   0
        89    925.3747    708.9697 300.2442856 +22.8726341     904.7936     69.29273      0.989     1.77    -11.58036     19.54958     175.7076         8     0.688     0.625  61.82   0
        90    288.3843    702.9694 300.0479056 +22.6798722     430.2341     69.29273      1.155     1.60     -11.3064     19.54958     82.84879         7     0.630     0.603  -0.21   0
        91    751.7156    700.3593 300.1929611 +22.8181039     1200.004     69.25742      0.936     1.55    -11.07103     19.54958     274.2629        10     0.733     0.628  79.93   0
        92    956.4595    699.1835 300.2571611 +22.8791392       860.73     69.25742      1.001     1.56    -11.53083     19.54958     165.4053        10     0.725     0.671 -80.38   0
        93    137.3396    686.7731 300.0062246 +22.6298926     349.3554     69.31038      1.107     3.53    -11.25248     19.54958     69.34299         7     0.991     0.527 -47.56   0
        94    870.2181    677.2638 300.2374016 +22.8469953     72423.23     69.27508      1.015     1.56    -10.93621     19.54958     16892.33        97     1.099     1.015  85.21   0
        95   1017.1291    678.9947 300.2826482 +22.8915197     631.4568     69.25742      1.117     1.78    -11.27106     19.54958     152.5364         9     0.798     0.628  65.06   0
        96    722.5587    677.4467 300.1913289 +22.8027830     342.7252     69.34566      0.930     2.43     -10.8645     19.54958     69.16344         6     0.819     0.436  20.21   0
        97    556.4421    666.1534 300.1432718 +22.7497277      802.381     69.32802      0.988     1.61    -10.69011     19.54958     166.2671         9     0.732     0.677 -81.02   0
        98    737.7061    663.4100 300.2006121 +22.8032938     4521.259     69.23976      0.983     1.58    -10.79139     19.54958     905.6415        20     0.855     0.784 -73.64   0
        99    239.2194    658.6642 300.0470271 +22.6524091     2400.122     69.27508      1.094     1.86    -11.03586     19.54958      430.687        18     0.884     0.836  62.99   0
       100    321.1935    656.7329 300.0731419 +22.6764535     495.2515     69.27508      1.016     2.74    -10.96297     19.54958     101.9841         8     0.930     0.565 -47.44   0
       101    197.0521    654.1491 300.0353882 +22.6384591     189.9435     69.32802      1.094     2.72    -11.00581     19.54958     46.14875         6     0.886     0.439 -39.33   0
       102    529.5239    652.3287 300.1393880 +22.7376862     387.0693     69.38092      0.979     2.15    -10.63269     19.54958     66.04309         6     0.777     0.470  -1.36   0
       103    521.1708    644.2489 300.1394151 +22.7328617     1653.981     69.31038      1.073     1.68    -10.60002     19.54958     359.3978        15     0.874     0.743 -74.42   0
       104    511.5741    638.0157 300.1384549 +22.7281943     733.3436     69.31038      1.039     1.80    -10.57803     19.54958     140.6689         9     0.798     0.625  64.56   0
       105    905.2789    635.0614 300.2620544 +22.8453806     201.9388      69.3633      1.660     4.22    -10.88666     19.54958     54.18825         5     0.949     0.737 -33.20   0
       106    174.6442    634.1768 300.0349173 +22.6260055     331.7407     69.34566      0.914     1.42     -10.8577     19.54958     77.38063         5     0.596     0.467 -73.67   0
       107    958.4140    629.0745 300.2805687 +22.8595833     236.5007     69.31038      1.047     1.87    -11.02331     19.54958     56.84743         6     0.713     0.492 -87.12   0
       108    436.1396    627.7518 300.1183180 +22.7026223     717.3646     69.34566      1.045     1.92     -10.5611     19.54958     164.1784        10     0.790     0.679 -84.31   0
       109   1011.8840    624.9536 300.2985846 +22.8744203     216.0279     69.27508      0.851     1.55    -11.21615     19.54958      113.839         6     0.640     0.522  37.04   0
       110     90.2850    622.9140 300.0123670 +22.5974554     9841.981     69.41617      1.172     1.98    -10.87912     19.54958      1678.74        37     1.065     0.975  34.41   0
       111     11.1843    624.6508 299.9872336 +22.5742082     347.2076     69.31038      1.170     2.10    -10.97451     19.54958     73.72813         6     0.692     0.584 -36.96   0
       112    521.0525    623.2603 300.1462020 +22.7268017     517.0883     69.34566      1.178     1.87    -10.47883     19.54958     97.89041         7     0.654     0.638 -29.47   0
       113    939.0587    609.0145 300.2810550 +22.8480200     567.7668     69.27508      1.036     1.63    -10.87641     19.54958     135.1825         8     0.802     0.543 -68.61   0
       114     36.2140    607.1010 300.0007117 +22.5766899     779.5867     69.20442      1.657     5.78    -10.79434     19.54958     71.18897        14     1.415     0.680 -88.17   0
       115    102.2755    607.3019 300.0211670 +22.5965772     209.1169     69.43378      1.238     3.62    -10.78249     19.54958     39.11709         5     0.862     0.437  45.58   0
       116    484.4067    603.7347 300.1411446 +22.7102065     192.9859     69.27508      0.867     2.09    -10.40329     19.54958     46.17733         5     0.670     0.468 -71.77   0
       117    879.2510    601.8864 300.2647258 +22.8280500      352.747     69.29273      0.949     2.13    -10.70255     19.54958     67.44902         5     0.715     0.471  30.21   0
       118    441.3676    596.2292 300.1301920 +22.6951434     366.7688     69.29273      1.049     2.38     -10.3755     19.54958     72.67336         7     0.879     0.477 -84.47   0
       119    589.1827    594.6005 300.1767273 +22.7390051     327.2549     69.20442      1.301     4.27    -10.28941     19.54958     49.61274         7     1.028     0.536  26.87   0
       120    636.1291    593.2549 300.1917824 +22.7526951     225.6519     69.31038      1.068     3.02      -10.351     19.54958     42.59068         6     0.828     0.578 -84.61   0
       121    606.6493    592.5897 300.1828192 +22.7436651     386.4246     69.31038      1.245     2.76    -10.28649     19.54958     59.45682         6     0.840     0.492   0.60   0
       122    485.3437    591.9010 300.1452829 +22.7070908       532.79     69.38092      1.266     1.71    -10.30745     19.54958     85.11735         7     0.638     0.619  56.91   0
       123    919.1708    587.1750 300.2819537 +22.8357859     1481.375     69.29273      0.967     1.59    -10.67486     19.54958     411.5851        12     0.775     0.654 -66.27   0
       124    450.9015    587.2078 300.1360909 +22.6954137     850.1666     69.16908      1.117     1.69    -10.31335     19.54958     189.3711        13     0.905     0.721 -19.31   0
       125   1017.1570    585.1805 300.3131597 +22.8645707     407.7726     69.31038      0.920     1.64    -11.31872     19.54958     90.19981         6     0.641     0.538  36.51   0
       126     13.0166    581.0288 300.0019815 +22.5622502     2446.511     69.29273      1.269     2.09    -10.79655     19.54958     395.0498        22     0.994     0.955  77.66   0
       127    958.5543    576.9754 300.2975497 +22.8446556     201.2115     69.31038      1.166     1.96      -10.872     19.54958     50.01788         6     0.742     0.718  82.94   0
       128    314.4315    574.1128 300.0978970 +22.6507192      4356.41     69.27508      1.081     1.79    -10.43592     19.54958     812.2888        25     0.996     0.854  76.57   0
       129    436.8809    571.0793 300.1369708 +22.6865792     4334.039     69.41617      1.121     1.75     -10.2485     19.54958     921.9587        23     0.927     0.877  56.55   0
       130    848.4699    564.9932 300.2671236 +22.8082267      876.691     69.25742      1.010     1.71    -10.41907     19.54958     181.4254         8     0.679     0.639  13.61   0
       131    933.0776    562.3168 300.2943702 +22.8328103     6035.343     69.39854      1.020     1.60    -10.57773     19.54958     1372.385        24     0.897     0.811  77.11   0
       132    497.3749    560.6625 300.1591807 +22.7017317     5507.236     69.29273      1.049     1.84    -10.04201     19.54958     955.2045        24     0.952     0.813  75.90   0
       133    224.8375    556.2054 300.0758617 +22.6187008     723.9381     69.31038      1.141     1.91    -10.49537     19.54958     126.2894         8     0.737     0.614  51.65   0
       134    471.5553    553.7375 300.1533963 +22.6920007     216.3808     69.31038      1.180     3.46     -10.0449     19.54958     30.98526         5     0.736     0.471  73.73   0
       135    429.1126    548.8767 300.1417699 +22.6778765     2112.917     69.41617      1.095     1.81    -10.16272     19.54958     459.7694        15     0.872     0.748  83.43   0
       136    771.8677    548.7943 300.2485162 +22.7806161      326.777     69.25742      1.018     1.95    -10.31572     19.54958     78.18232         6     0.697     0.537  53.74   0
       137    407.4883    547.3008 300.1355545 +22.6709385     587.8777     69.45139      0.963     2.08     -10.2292     19.54958     116.7256         8     0.817     0.543  20.50   0
       138    161.8071    546.9617 300.0592758 +22.5971360       309.18     69.31038      1.072     2.03    -10.57734     19.54958     72.38976         8     0.779     0.604  50.10   0
       139    848.9330    544.3459 300.2739788 +22.8024337     725.0849     69.32802      1.279     3.00    -10.29593     19.54958     109.2409        11     0.891     0.801 -14.33   0
       140    729.4318    541.2405 300.2377498 +22.7657274     356.0251     69.34566      0.962     1.82     -10.2517     19.54958     91.49869         7     0.738     0.550  -9.77   0
       141    545.6713    536.3735 300.1821069 +22.7092408     100602.5     69.29273      1.059     1.79    -9.776668     19.54958     17849.68       118     1.173     1.148 -66.62   0
       142    231.8884    536.5206 300.0844506 +22.6151685     1628.267     69.41617      1.042     1.78    -10.40887     19.54958     308.2314        14     0.821     0.770  86.15   0
       143    436.2723    516.6775 300.1544614 +22.6707810     1181.988     69.39854      1.050     1.83    -10.02856     19.54958     238.3927        12     0.811     0.724 -81.98   0
       144    833.1757    502.7484 300.2825860 +22.7857605     852.0738     69.31038      1.038     1.75    -10.14317     19.54958     182.8885        10     0.749     0.656 -75.48   0
       145    704.3899    500.5326 300.2431777 +22.7465290     1164.255     69.29273      1.018     1.93    -10.01119     19.54958     196.6388        12     0.838     0.665  58.84   0
       146    609.1122    496.7695 300.2147274 +22.7168887      257.494     69.27508      1.224     3.32    -9.693511     19.54958     42.45864         7     0.970     0.607  86.55   0
       147    491.5653    496.3109 300.1782850 +22.6815149     272.6659     69.27508      0.940     2.68    -9.803316     19.54958     68.50086         6     0.785     0.588 -15.09   0
       148    961.7739    494.2563 300.3254378 +22.8218485     633.8315     69.29273      1.092     1.87    -10.55484     19.54958     135.1069         8     0.733     0.576  53.47   0
       149    947.6744    493.5541 300.3212692 +22.8174230     323.1214     69.29273      1.155     1.98    -10.39402     19.54958     62.19118         5     0.645     0.474  19.86   0
       150    833.6298    493.2040 300.2858289 +22.7831543     1116.236     69.25742      1.124     1.88    -10.10673     19.54958      173.725         9     0.708     0.649  42.78   0
       151    586.8314    491.1245 300.2096244 +22.7085881     286.5909     69.29273      0.984     1.87    -9.635825     19.54958     82.38966         5     0.759     0.397 -42.86   0
       152    425.6889    489.7873 300.1599060 +22.6598879     56.04662     69.23976      1.023     3.58    -9.966664     19.54958     33.47465         5     0.729     0.693 -12.47   0
       153    871.6580    487.9032 300.2994049 +22.7930253     2110.182      69.3633      1.034     1.72    -10.11762     19.54958     476.3657        15     0.794     0.755 -79.46   0
       154    963.4568    478.4773 300.3310899 +22.8178176     390.6258     69.31038      0.953     2.21     -10.4847     19.54958      67.1741         6     0.774     0.458 -18.71   0
       155    103.7633    478.4740 300.0634937 +22.5600714     350.7026     69.23976      0.946     1.80    -10.65314     19.54958       78.132         6     0.672     0.497   6.34   0
       156    645.1432    458.3068 300.2384443 +22.7166424     298.7434     69.34566      0.952     1.99    -9.762314     19.54958     76.92021         6     0.702     0.533  58.64   0
       157    959.7444    451.1030 300.3388263 +22.8088375     347.1214     69.38092      1.154     3.10    -10.29599     19.54958     84.13666         7     1.131     0.554  79.47   0
       158    705.6527    450.4048 300.2598581 +22.7325079     443.8217     69.27508      1.073     2.24     -9.93755     19.54958     87.55916         9     0.837     0.696 -78.20   0
       159    863.1625    446.7161 300.3101386 +22.7786444     502.4361     69.27508      1.081     2.55    -10.07022     19.54958     101.6212         9     0.894     0.634  75.16   0
       160    847.2636    442.9863 300.3063945 +22.7728093     375.1852     69.25742      1.028     1.89    -10.05204     19.54958     77.95696         7     0.681     0.620 -69.55   0
       161    591.6814    441.3202 300.2273154 +22.6957387     1551.953     69.41617      1.093     1.78    -9.499026     19.54958      294.156        15     0.824     0.765  54.90   0
       162    952.0991    439.8204 300.3401076 +22.8033045     359.4993     69.22209      1.040     2.19    -10.19787     19.54958     58.61221         6     0.720     0.536 -34.33   0
       163     67.9751    432.1826 300.0674132 +22.5360526     145.8282     69.29273      1.218     3.78    -10.53413     19.54958     29.35191         5     0.807     0.507  56.12   0
       164   1002.9951    420.2854 300.3623270 +22.8129328     543.0646     69.22209      1.031     1.80    -10.15224     19.54958     125.8893         7     0.663     0.614 -60.39   0
       165    874.9732    420.0790 300.3224737 +22.7745274     301.1353     69.29273      1.092     1.77    -10.06241     19.54958     73.29611         5     0.602     0.526  88.59   0
       166    961.1595    418.9881 300.3497006 +22.8000301     550.1119     69.27508      1.013     1.70    -10.11231     19.54958     117.8988         8     0.795     0.584 -30.97   0
       167    702.3791    415.1288 300.2702978 +22.7213926     476.9741     69.29273      1.025     1.83    -9.925594     19.54958     92.90115         7     0.678     0.587  79.64   0
       168    268.7419    409.2600 300.1372522 +22.5897034     1796.234      69.3633      1.159     2.15    -9.719221     19.54958     275.1517        19     0.954     0.848  63.10   0
       169   1001.6480    407.5280 300.3660510 +22.8088619     2214.663     69.27508      1.027     1.72    -10.13656     19.54958     391.4188        18     0.863     0.836  28.81   0
       170    215.9014    404.0953 300.1225026 +22.5723721     3720.886       69.469      1.185     1.92    -9.883999     19.54958     699.2236        24     0.980     0.880  88.31   0
       171    981.6592    398.5415 300.3627356 +22.8002921     927.5842      69.3633      0.963     1.71    -10.14306     19.54958     184.7359        11     0.759     0.683  71.37   0
       172    356.6061    398.3431 300.1681213 +22.6129198     2355.295     69.25742      1.091     2.00    -9.552326     19.54958     372.3739        20     0.925     0.862  13.63   0
       173    600.8094    394.8790 300.2452427 +22.6851356     9143.984     69.25742      1.131     1.78    -9.413027     19.54958      1890.99        36     1.027     0.926  75.76   0
       174    618.5269    394.6133 300.2508459 +22.6903694     388.2777     69.31038      1.966     4.63    -9.490644     19.54958     34.63433         7     1.460     0.417 -45.73   0
       175    934.2620    377.5575 300.3547703 +22.7800644     315.9479     69.29273      0.998     2.64    -10.10695     19.54958     62.22626         8     0.870     0.665 -31.68   0
       176    155.5904    375.2686 300.1131196 +22.5460081     994.8107     69.27508      1.169     2.01    -9.865688     19.54958     176.0533        12     0.801     0.776 -66.34   0
       177    541.4559    364.2850 300.2367004 +22.6585580     3167.984     69.38092      1.080     2.02    -9.232325     19.54958     489.4638        21     0.975     0.851 -80.93   0
       178    955.0850    364.4548 300.3655191 +22.7825341     585.4108      69.3633      0.994     1.76    -10.15686     19.54958      120.121        10     0.777     0.707  50.90   0
       179    256.3619    363.7985 300.1481673 +22.5729413     363.1634     69.31038      1.032     2.01    -9.515079     19.54958     69.76738         6     0.684     0.564  21.67   0
       180    113.9750    357.3611 300.1060034 +22.5283855     363.3542     69.31038      1.465     2.67    -10.10349     19.54958     64.26755         7     0.904     0.599  58.93   0
       181    745.7436    353.1903 300.3039240 +22.7165895     666.4814     69.27508      1.275     2.55     -9.99521     19.54958      93.5556        10     0.956     0.615  61.43   0
       182    448.1196    350.6649 300.2120748 +22.6266679     2970.636     69.39854      1.152     1.98    -9.194047     19.54958     534.9297        20     0.922     0.834  71.84   0
       183    839.8383    344.9575 300.3359203 +22.7424117     762.8992     69.38092      1.109     1.77    -10.05759     19.54958     173.1749        11     0.885     0.684 -31.28   0
       184    937.3929    344.8165 300.3663797 +22.7715899      445.146     69.22209      1.250     2.99    -10.10894     19.54958     54.43866         7     0.922     0.468  79.96   0
       185    335.6748    329.8960 300.1838386 +22.5869921     1135.162     69.43378      1.112     1.95    -9.165458     19.54958     236.6676        13     0.819     0.767 -79.61   0
       186     54.1426    327.5593 300.0970918 +22.5018845     510.2361     69.27508      1.084     2.36    -10.03027     19.54958      81.1115         9     0.838     0.650  63.50   0
       187    305.0219    319.3911 300.1777166 +22.5747849     14660.57     69.29273      1.176     1.98    -9.174343     19.54958     2400.718        43     1.084     0.974  69.09   0
       188    839.5901    316.5685 300.3450614 +22.7341773     704.4434     69.29273      1.150     2.12    -10.05642     19.54958     106.0754        12     0.812     0.776  48.42   0
       189      1.6630    307.3168 300.0873639 +22.4803319     2108.302     55.84478      1.085     2.20    -9.898177     19.54958     338.7694        15     1.021     0.663  81.85  24
       190    403.7790    304.6193 300.2132296 +22.6001521     156.0524     69.29273      0.978     3.69    -9.159796     19.54958     30.92071         5     0.968     0.404 -83.71   0
       191    715.3189    298.8239 300.3120985 +22.6918510     961.2923     69.25742      1.116     2.17    -9.744393     19.54958     162.1357        10     0.842     0.690  49.72   0
       192    377.0833    283.8894 300.2116548 +22.5861960     1075.143     69.39854      1.288     2.82    -9.068624     19.54958       166.21        13     1.094     0.689  62.80   0
       193    816.2222    276.3541 300.3508345 +22.7156185      265.566     69.32802      1.072     2.42    -9.949042     19.54958     51.14594         6     0.693     0.609 -85.94   0
       194    698.5882    274.1784 300.3148878 +22.6797561     249.8233     69.27508      1.204     2.72    -9.463657     19.54958     33.05172         5     0.714     0.460 -71.44   0
       195    453.1266    263.0505 300.2420782 +22.6030053     590.0049     69.31038      1.067     1.95    -9.215174     19.54958     111.5794         7     0.685     0.624  61.61   0
       196    697.8782    254.8424 300.3209435 +22.6739864      1110.89     69.27508      1.134     1.97    -9.363187     19.54958     205.0112        11     0.835     0.673  77.84   0
       197    958.9814    248.9988 300.4042217 +22.7505044     1604.113     69.22209      1.094     1.99     -9.67123     19.54958     334.9799        15     0.859     0.743  53.45   0
       198   1020.1628    243.7509 300.4250078 +22.7673121     268.8087      68.3151      1.253     2.34    -9.410804     19.54958     48.75235         6     0.714     0.610  50.69  16
       199    406.2610    239.0489 300.2352869 +22.5820642     384.2323     69.34566      1.268     2.24    -9.141809     19.54958     63.88795         5     0.650     0.646 -87.70   0
       200     80.9880    233.1957 300.1360623 +22.4828565     634.0183     69.15139      1.309     2.96     -9.38954     19.54958     79.97559        13     0.972     0.870 -12.95   0
       201    974.8644    229.6611 300.4154521 +22.7496986      278.028     69.32802      1.186     3.34    -9.468138     19.54958     48.54234         6     0.878     0.475  38.59   0
       202    165.1829    224.6500 300.1649974 +22.5056533     248.2503     69.31038      1.238     1.89    -9.188862     19.54958     50.31923         5     0.675     0.453 -17.33   0
       203    841.0213    218.0926 300.3774758 +22.7062963      204.485     69.22209      1.061     3.17    -9.644123     19.54958     43.35943         5     0.790     0.483 -68.22   0
       204    769.4658    216.0720 300.3558311 +22.6842858     263.6559     69.32802      0.887     1.87    -9.351624     19.54958     61.95251         6     0.700     0.491 -79.61   0
       205    867.5728    205.1777 300.3899441 +22.7105338     1147.849     69.27508      1.051     1.91    -9.645196     19.54958     194.4055        12     0.845     0.701  56.13   0
       206    363.9882    197.9405 300.2354779 +22.5575862      571.507     69.27508      1.380     3.07    -8.890567     19.54958     76.70098         9     0.881     0.726  21.64   0
       207    765.9474    196.9750 300.3609326 +22.6777422     329.6018     69.31038      1.376     4.09     -9.25472     19.54958     40.84958         7     0.893     0.536  45.12   0
       208    286.2037    202.8172 300.2097041 +22.5356700      989.437     69.22209      1.155     1.90     -8.86784     19.54958     189.3893        13     0.876     0.728 -75.62   0
       209    181.0237    190.1335 300.1811218 +22.5004937     392.9832     69.27508      1.158     2.26    -9.129172     19.54958     73.67998         7     0.828     0.509  47.76   0
       210    718.5699    186.6530 300.3495210 +22.6605852      790.042     69.32802      1.068     1.97    -9.026603     19.54958     168.2823        11     0.831     0.725  59.83   0
       211    783.4528    186.2427 300.3698704 +22.6798994     345.5923     69.29273      1.187     2.04    -9.278375     19.54958     54.39958         5     0.669     0.464  68.15   0
       212    202.0937    183.1865 300.1899250 +22.5048165     343.6364     69.22209      1.166     2.50    -9.076647     19.54958     50.30403         7     0.692     0.671 -14.13   0
       213    990.1052    178.9081 300.4366776 +22.7396642     401.0297     69.45139      1.043     2.43     -9.05387     19.54958     98.96415         7     0.867     0.561  67.72   0
       214    722.6559    177.9741 300.3536103 +22.6593141     344.8742     69.29273      1.155     3.95    -8.998467     19.54958     58.35459         7     1.101     0.465 -84.41   0
       215    643.1645    177.5187 300.3289974 +22.6353730        559.4     69.23976      1.121     2.23    -8.941999     19.54958     90.99249        11     0.869     0.703 -82.07   0
       216    569.3892    169.2627 300.3087038 +22.6108990     402.0451     69.23976      1.145     2.60    -9.110671     19.54958     59.85238         8     0.829     0.639  73.06   0
       217    838.7933    168.9358 300.3927342 +22.6914953      687.264     69.25742      1.120     2.09    -9.388117     19.54958     125.1887        10     0.806     0.677  10.78   0
       218    850.6978    168.0546 300.3967309 +22.6948065     328.0355     69.38092      1.099     1.97    -9.422944     19.54958     79.44276         7     0.757     0.566  64.74   0
       219   1011.5740    158.7097 300.4499285 +22.7402806     723.3226     69.22209      1.058     1.91    -8.793977     19.54958     145.6064        12     0.865     0.710  59.24   0
       220    967.3550    158.0753 300.4363423 +22.7268620     525.9816     69.27508      0.991     2.15    -9.036999     19.54958     112.7858         7     0.688     0.643  74.79   0
       221    201.4517    151.7074 300.1999392 +22.4955851     431.4412     69.34566      1.241     3.09     -9.04009     19.54958     52.82425         7     0.896     0.497  88.01   0
       222     63.3752    146.4558 300.1587365 +22.4526762     1026.374     69.29273      1.152     2.13    -9.168452     19.54958      155.512        14     0.910     0.846  65.97   0
       223    886.4719    142.9944 300.4160146 +22.6983109     411.5539     69.23976      1.069     1.95    -9.160367     19.54958      70.5886         6     0.716     0.499 -88.25   0
       224     12.7639    143.0871 300.1441087 +22.4365312     320.5111     69.27508      1.284     3.62    -9.217891     19.54958     42.21963         6     0.744     0.593 -51.28   0
       225    220.8569    139.7594 300.2098477 +22.4979717     2870.272     69.27508      1.190     2.07    -8.976757     19.54958      484.843        19     0.953     0.815  62.27   0
       226      5.1316    134.1792 300.1446280 +22.4316853     721.2871     68.85007      1.353     2.66    -9.192661     19.54958     98.42465        13     0.965     0.837  12.29  16
       227    204.0253    130.4353 300.2076404 +22.4902482     302.4692     69.31038      1.241     2.26    -8.957607     19.54958     54.31893         6     0.758     0.489   8.30   0
       228   1019.5399    126.8644 300.4627462 +22.7335040     8913.303     69.32802      1.066     1.80    -8.590711     19.54958     1627.938        31     0.962     0.894  82.13  16
       229    864.8323    120.9289 300.4164275 +22.6854866     1633.888     69.29273      1.073     1.88    -8.933743     19.54958     343.7714        17     0.892     0.779  89.57   0
       230    968.4349    119.6436 300.4491486 +22.7161307     1224.591     69.34566      1.017     1.73    -8.679839     19.54958     248.8679        14     0.819     0.784 -21.14   0
       231    414.3949    116.1459 300.2776980 +22.5491962     240.6848     69.29273      1.045     2.46    -8.573321     19.54958     51.43893         6     0.750     0.486 -84.74   0
       232    338.6454    108.1940 300.2567136 +22.5242115     346.4661     69.29273      1.231     1.55    -8.783164     19.54958     62.43344         5     0.632     0.458 -71.36   0
       233    104.6754    105.5435 300.1848395 +22.4533148     416.4667     69.32802      1.184     4.12    -9.016202     19.54958     61.55293         7     1.238     0.391  58.51   0
       234    465.6010    103.5861 300.2977058 +22.5609306     898.8826      69.1337      1.166     2.16    -8.775102     19.54958     140.8639        10     0.924     0.654  87.60   0
       235    393.5673    103.9933 300.2751604 +22.5394636     215.9146     69.29273      1.277     2.55    -8.612531     19.54958     38.57446         6     0.778     0.494  86.19   0
       236    754.1548     93.1749 300.3909370 +22.6443675      240.617     69.31038      1.215     3.04    -8.600859     19.54958     46.09372         5     0.767     0.511 -49.39   0
       237    239.8128     83.6191 300.2339519 +22.4875309     2940.953     69.25742      1.177     1.99    -8.779699     19.54958     501.1718        21     0.971     0.875  70.46   0
       238     90.9663     83.2822 300.1878007 +22.4428127      371.691     69.25742      1.268     2.33    -8.976529     19.54958     51.34467         7     0.713     0.610   1.14   0
       239    485.8941     68.8787 300.3152792 +22.5570367     3129.174     69.43378      1.243     2.01    -8.664456     19.54958     549.1394        24     1.022     0.905  85.69   0
       240    371.5174     69.1970 300.2795876 +22.5228590     334.0544     69.22209      1.291     4.57     -8.59407     19.54958     52.91565         8     1.148     0.592  37.80   0
       241    738.4392     58.0891 300.3974210 +22.6295732     394.5259     69.27508      1.281     3.65    -8.589625     19.54958     66.18802         7     1.016     0.624  52.81   0
       242    178.7845     52.6350 300.2250300 +22.4603390     260.4531     69.29273      1.098     4.10    -8.724415     19.54958     37.12696         6     0.724     0.661 -49.79   0
       243    614.1316     48.9242 300.3616734 +22.5897132      3258.33      69.3633      1.238     2.19    -8.644734     19.54958     540.4626        23     1.028     0.867  76.27   0
       244    389.0845     48.1154 300.2918897 +22.5220656     669.1101     69.39854      1.264     2.69    -8.475286     19.54958     112.9873        12     1.090     0.683  79.19   0
       245    655.1972     46.1520 300.3753615 +22.6012146     436.9828     69.29273      1.206     2.01    -8.635697     19.54958     76.35048         8     0.739     0.649 -41.90   0
       246    671.1507     42.3688 300.3815575 +22.6049043     274.5884     69.32802      1.039     2.43    -8.633811     19.54958     52.49348         5     0.721     0.440  20.16   0
       247    138.0125     40.4890 300.2162975 +22.4446289     351.6786     69.23976      1.112     3.00    -8.716286     19.54958     52.11147        10     0.992     0.633  62.19   0
       248    941.2686     39.7594 300.4665892 +22.6850193     313.8268     69.27508      0.971     2.26    -8.479884     19.54958     57.66307         5     0.729     0.419 -76.10   0
       249    658.3433     33.6659 300.3803908 +22.5985669      1360.13     69.34566      1.166     2.23    -8.644321     19.54958     203.3625        17     1.035     0.814  60.30   0
       250    673.1881     32.1140 300.3855178 +22.6025660     401.5236     69.23976      1.507     3.42    -8.640225     19.54958     73.78682         7     1.189     0.395  42.52   0
       251    744.8709     25.3466 300.4100439 +22.6220835     867.6579     69.29273      1.200     2.18     -8.58486     19.54958     130.5297        11     0.954     0.680  89.34   0
       252    682.7423     18.2378 300.3929938 +22.6014370     248.7911     69.29273      0.998     2.37     -8.63984     19.54958     73.49256         6     0.773     0.504 -58.80   0
       253    488.5793     17.9656 300.3326264 +22.5432088     577.6358     69.31038      1.207     2.49    -8.390704     19.54958     72.59676         9     0.810     0.681  34.54   0
       254     60.9316     17.6346 300.1997589 +22.4149583      296.536     69.29273      1.315     4.00    -8.901073     19.54958      43.6882         7     0.927     0.647   8.80   0
       255    392.2949     15.9665 300.3033139 +22.5137897     416.2864     69.27508      1.196     2.05    -8.388577     19.54958     68.01092         7     0.671     0.636  72.43   0
       256    774.7544     14.4560 300.4228873 +22.6278982     255.6856     69.32802      1.313     3.51     -8.57896     19.54958     36.91467         5     0.766     0.464 -17.18   0
       257    288.3389   1014.5302 299.9465082 +22.7691960     620.8918     69.32802      1.199     3.28    -12.15021     19.54958     90.21815        12     1.006     0.894  19.86   0
