#   1 NUMBER                 Running object number                                     
#   2 X_IMAGE                Object position along x                                    [pixel]
#   3 Y_IMAGE                Object position along y                                    [pixel]
#   4 ALPHA_J2000            Right ascension of barycenter (J2000)                      [deg]
#   5 DELTA_J2000            Declination of barycenter (J2000)                          [deg]
#   6 FLUX_APER              Flux vector within fixed circular aperture(s)              [count]
#   7 FLUXERR_APER           RMS error vector for aperture flux(es)                     [count]
#   8 FLUX_RADIUS            Fraction-of-light radii                                    [pixel]
#   9 FWHM_IMAGE             FWHM assuming a gaussian core                              [pixel]
#  10 BACKGROUND             Background at centroid position                            [count]
#  11 THRESHOLD              Detection threshold above background                       [count]
#  12 FLUX_MAX               Peak flux above background                                 [count]
#  13 ISOAREA_IMAGE          Isophotal area above Analysis threshold                    [pixel**2]
#  14 A_IMAGE                Profile RMS along major axis                               [pixel]
#  15 B_IMAGE                Profile RMS along minor axis                               [pixel]
#  16 THETA_IMAGE            Position angle (CCW/x)                                     [deg]
#  17 FLAGS                  Extraction flags                                          
         1    681.0895     11.7524 300.3929667 +22.6015444     491.9653     69.42146      1.264     2.35    -7.865994     19.59589     59.08002         8     0.792     0.636  54.02   0
         2    486.5874     11.0411 300.3326391 +22.5430955     500.8069     69.45686      1.162     2.95    -8.386817     19.59589     74.83702         6     0.765     0.481  79.78   0
         3    390.4957      9.1193 300.3033631 +22.5137599      423.672     69.58059      1.388     2.88     -8.40723     19.59589     55.17442         8     0.869     0.636  37.14   0
         4    162.6515      1.1249 300.2351110 +22.4431936     390.2068     52.90745      1.328     3.51    -8.521626     19.59589     67.07398         6     1.172     0.323  -3.68  24
         5    139.1302   1002.3688 299.9023985 +22.7233888     360.0698     69.45686      1.954     7.10     27.60418     19.59589      44.4113         9     1.518     0.930 -78.26   0
         6     68.9581    913.3915 299.9095725 +22.6768159     1885.961     69.47455     22.333    43.26    -7.502823     19.59589     52.81009       372     8.679     5.984 -48.08   3
         7     67.6640    950.0706 299.8972288 +22.6869380     2516.032     69.49223     29.805    96.95   -0.5826788     19.59589     68.26897      1982    20.379    12.796 -77.75  19
         8     70.2956   1016.5424 299.8764000 +22.7067743     4420.602     69.52759     14.380    48.05     19.28685     19.59589     125.6476       844    11.570     7.536 -57.18  27
         9    189.4740    997.7216 299.9195547 +22.7371766     885.1867     69.56293      4.277     8.19     23.62562     19.59589     40.09922        12     2.175     0.863  67.73   3
        10    157.3594    972.1943 299.9178888 +22.7202163     1125.384     69.47455      4.957     8.59      14.7147     19.59589     40.74459        14     2.504     0.824  88.23   2
        11    594.9517    969.8020 300.0547638 +22.8508875         7756     69.43916      0.635     1.30    -12.99941     19.59589     3781.807        12     0.622     0.462 -80.15   0
        12    161.4914    987.0536 299.9143337 +22.7257157     965.2721     69.50991      7.673     7.83     21.15944     19.59589     31.63936        11     1.725     0.994  80.55   3
        13     94.9997   1012.3500 299.8854386 +22.7129938      3099.05     69.43916      6.559    28.76      30.8587     19.59589     69.05586       258     5.890     3.898 -10.67  19
        14    160.0911    969.3386 299.9196674 +22.7202183     640.2654     69.54526      4.142     4.40     13.42575     19.59589     30.30789         5     1.190     0.463  56.68   1
        15     99.6610    962.8558 299.9030044 +22.7002118     1115.429     69.52759     16.105    15.93     10.84786     19.59589     40.30876        26     3.028     2.329 -50.75   3
        16    164.6238    986.3464 299.9155373 +22.7264537     1141.154     69.47455      5.028     5.25     20.39776     19.59589     34.77271         7     1.366     0.571  75.61   3
        17    917.3845    965.7808 300.1565216 +22.9464469       258.28     69.43916      1.124     2.25    -13.45554     19.59589      55.4539         6     0.701     0.586  23.22   0
        18    220.7294    963.7419 299.9403336 +22.7368232     2137.623     69.47455      8.113    13.82     6.044756     19.59589     59.29812        62     2.991     1.776  37.73   3
        19    345.9925    993.5945 299.9695541 +22.7829901     349.8834     69.31518      1.411     4.87    -12.87301     19.59589     39.37187         7     1.011     0.664  19.70   0
        20    136.5970    950.7070 299.9184347 +22.7078231     1046.594     69.36834      6.288     8.52     5.692069     19.59589      39.8993        12     2.565     0.790  27.41   2
        21    642.9236    949.0031 300.0764728 +22.8593134     3350.946     69.36834      1.258     2.17    -12.95869     19.59589     559.4031        25     1.078     0.929  37.14   0
        22    220.5976    995.4551 299.9299652 +22.7458734     498.8712     69.40376      1.640     4.92     19.71945     19.59589     44.02776        11     1.175     0.709 -78.67   0
        23    124.1510   1002.7253 299.8976288 +22.7189920      880.861     69.45686      2.958     9.01     28.03382     19.59589     41.43392        14     1.916     1.183  19.71   0
        24    190.0333    969.4626 299.9289311 +22.7292454     585.5664     69.45686      9.090     9.59     10.92431     19.59589     29.34727        14     2.036     1.259 -81.00   3
        25    210.4860    983.0526 299.9308617 +22.7392822     2130.983     69.49223     13.145    23.85      15.3454     19.59589     55.29738       123     6.241     2.531 -28.71   3
        26    522.5822    943.7041 300.0407364 +22.8216859     257.7614     69.36834      1.313     4.50    -12.91118     19.59589     35.62503         5     0.798     0.723 -34.12   0
        27    191.4875    982.1100 299.9252645 +22.7333070     2160.301      69.6159     14.069    21.10     16.49804     19.59589     60.52985       100     4.219     2.931 -23.49   3
        28    209.9820    977.9363 299.9323712 +22.7376645     2299.364     69.43916     12.414    19.76     13.15032     19.59589     63.47046        85     3.946     3.000  63.94   3
        29    794.3110    942.3029 300.1258091 +22.9028007     257.7497     69.63354      1.148     2.72    -12.64353     19.59589     50.36364         5     0.728     0.449   9.89   0
        30    551.4375    939.6068 300.0510514 +22.8291691     819.1246     69.47455      1.102     2.06    -12.91926     19.59589     127.5504        12     0.831     0.755  85.60   0
        31    231.8508    970.8448 299.9414773 +22.7421985      4203.11     69.49223      7.743    33.48     6.476356     19.59589     97.78576       325     8.415     3.848  62.21   2
        32    445.2044    936.1785 300.0191100 +22.7963065     565.8332     69.42146      1.291     3.16    -12.68654     19.59589     59.02296         6     0.749     0.555  54.93   0
        33    375.8330    934.3563 299.9981246 +22.7749629     3278.458     69.49223      1.220     2.01    -12.50924     19.59589     558.9855        25     1.031     0.940  86.88   0
        34    538.2510    986.7332 300.0316004 +22.8387297     1149.223     69.45686      1.147     1.98    -12.95888     19.59589     195.3778        14     0.840     0.812  57.12   0
        35    624.5737    981.8696 300.0600559 +22.8632372     4099.296     69.45686      1.196     1.99     -13.0451     19.59589     673.4841        25     0.975     0.971  35.36   3
        36    630.2139    979.6498 300.0625349 +22.8642926     4575.364     69.49223      1.210     2.12    -13.03987     19.59589     634.7802        28     1.039     0.954  87.23   2
        37    164.0041    995.2252 299.9124533 +22.7288121     1549.383     69.42146      5.654    12.93     24.35277     19.59589     46.67223        37     3.349     1.390   9.33   2
        38    922.1108    912.8770 300.1752229 +22.9326759     1092.643     69.59824      1.267     2.34    -12.96475     19.59589     150.0971        13     0.898     0.795 -52.38   0
        39    163.0483    978.6798 299.9175444 +22.7237834     713.5231     69.47455      4.636     3.80     17.55355     19.59589     28.60171         5     1.422     0.291  36.82   2
        40    710.7616    901.2413 300.1131510 +22.8659578     319.8108     69.54526      1.255     3.85    -12.55614     19.59589     41.76049         6     0.768     0.554 -38.21   0
        41    193.6076    998.9858 299.9204275 +22.7387802      904.997     69.36834      6.058     7.14     23.65801     19.59589      44.0585        11     1.539     0.929 -12.76   3
        42    745.8406    895.8812 300.1258232 +22.8749405     532.8481     69.42146      1.154     2.03    -12.48846     19.59589     89.94251         8     0.753     0.610 -51.62   0
        43    767.9731    889.7198 300.1347243 +22.8798097     5678.578     69.45686      1.161     1.88     -12.5113     19.59589     1037.913        28     0.965     0.945 -12.99   0
        44    958.7088    889.3635 300.1942895 +22.9368965     349.6425     69.43916      1.680     4.38    -12.77806     19.59589     27.77256         6     1.022     0.534 -33.09   0
        45    725.0815    982.5125 300.0911467 +22.8935748     295.5153     69.58059      1.410     2.35    -12.70215     19.59589     52.40807         5     0.744     0.448  21.86   0
        46    473.0451    877.9454 300.0467310 +22.7879587      256.048     69.49223      1.162     2.42    -12.32713     19.59589     47.45023         5     0.753     0.495  29.08   0
        47    776.6963    871.8984 300.1432439 +22.8773103      685.806     69.63354      1.081     2.24    -12.47843     19.59589     121.1798         8     0.762     0.629  55.52   0
        48    814.4133    865.4413 300.1570983 +22.8867666     407.4892     69.47455      1.386     2.81    -12.51993     19.59589     74.94072         6     0.799     0.586  63.84   0
        49    714.4719    855.6498 300.1291489 +22.8539859      365.083     69.45686      1.108     2.39    -12.28614     19.59589     60.01778         5     0.667     0.492 -78.97   0
        50    427.0651    852.0591 300.0408520 +22.7667361     2010.404     69.49223      1.160     1.82     -11.7233     19.59589     431.0321        20     0.921     0.858  77.69   0
        51    725.7466    852.4566 300.1337003 +22.8564507     283.6867     69.50991      1.070     3.12    -12.28116     19.59589     48.19664         5     0.817     0.557  55.45   0
        52    152.1361    837.7424 299.9600360 +22.6801097     442.6213     69.50991      1.236     2.53    -10.86296     19.59589     59.82349         8     0.796     0.635  38.57   0
        53    129.4646    834.7526 299.9539650 +22.6724457     793.5291     69.49223      1.189     2.21    -10.93861     19.59589     110.1744        14     0.946     0.773 -82.75   0
        54   1000.9218    823.5736 300.2288703 +22.9306558     1017.275     69.45686      1.141     2.09    -12.45446     19.59589     185.9474        12     0.826     0.718  38.06   0
        55    955.3599    822.0945 300.2151434 +22.9165751     1072.677     69.47455      1.229     2.03    -12.35067     19.59589     187.2835        14     0.887     0.844  40.64   0
        56    738.8156    816.0635 300.1496170 +22.8499235     314.0301     69.43916      1.063     1.96    -12.22895     19.59589     72.47656         5     0.721     0.470  32.67   0
        57    606.9866    810.0394 300.1105223 +22.8086585      2478.12     69.47455      1.166     1.82    -11.67736     19.59589     500.9401        18     0.898     0.850  76.39   0
        58    157.2911    804.0637 299.9725979 +22.6720020      618.085     69.56293      1.152     2.27    -11.71986     19.59589     107.6779        10     0.871     0.653 -22.77   0
        59    627.5466    802.4996 300.1193775 +22.8126613     341.1146     69.54526      0.954     2.41     -11.7664     19.59589     65.46381         6     0.821     0.430 -68.94   0
        60    176.3940    801.2204 299.9794591 +22.6769215     105.8402     69.42146      1.105     3.66    -11.77782     19.59589      34.8102         5     0.960     0.402  -6.60   0
        61    782.9500    789.7930 300.1719166 +22.8556151     1893.979     69.45686      1.083     1.78    -12.01782     19.59589     433.4484        15     0.841     0.757  75.30   0
        62   1000.1693    789.9186 300.2395892 +22.9207636     609.6257     69.45686      1.257     2.46     -12.2993     19.59589      109.784         9     0.878     0.645  33.68   0
        63    191.5529    784.0168 299.9897678 +22.6765392     252.4216     69.49223      1.022     2.63    -11.77825     19.59589     44.16187         6     0.769     0.497  88.77   0
        64    146.3758    780.1005 299.9770037 +22.6618548     470.6168     69.40376      1.180     2.83     -11.8167     19.59589     73.53957         9     0.915     0.664  63.24   0
        65    296.0946    772.4925 300.0260137 +22.7046115     26612.24      69.6159      1.163     1.89    -11.40299     19.59589     4304.278        60     1.104     1.077  49.34   0
        66    554.0060    771.4483 300.1065876 +22.7816924     845.5161     69.43916      1.055     1.80    -11.45742     19.59589     161.1906         8     0.742     0.609  39.29   0
        67    966.8430    770.5827 300.2354887 +22.9052221     301.7465     69.47455      1.020     2.45    -11.91018     19.59589     61.40673         7     0.717     0.622  19.20   0
        68    582.7366    767.3969 300.1168493 +22.7891472     427.7417     69.43916      0.920     2.21    -11.49821     19.59589     80.00924         6     0.777     0.481  43.01   0
        69    593.6922    765.7262 300.1208036 +22.7919536     339.7243     69.59824      1.112     2.21    -11.51578     19.59589     63.58429         5     0.702     0.444  76.70   0
        70    736.8840    752.4749 300.1697083 +22.8310893     451.8653     69.54526      1.246     2.83    -11.82052     19.59589     59.98692         8     0.830     0.670  46.95   0
        71    345.8223    749.7241 300.0488845 +22.7130032     15509.56     69.43916      1.153     1.85    -11.31044     19.59589     2873.936        43     1.046     0.982  75.38   0
        72    359.9295    750.1674 300.0531275 +22.7173633     1058.632     69.45686      1.232     1.88    -11.30612     19.59589     184.1192        16     0.936     0.856  37.25   0
        73    868.7106    745.5989 300.2130240 +22.8686345     1310.966     69.38605      1.113     2.18     -11.6542     19.59589     247.2238        19     1.005     0.920  80.29   0
        74    356.8682    744.1880 300.0541208 +22.7147295     169.9609     69.45686      1.149     2.35     -11.2838     19.59589     48.37399         5     0.735     0.489  50.98   0
        75    626.7900    741.5780 300.1389656 +22.7949488     489.0797     69.45686      1.125     2.52    -11.54005     19.59589     77.78686         8     0.848     0.589 -12.58   0
        76    228.4375    741.2125 300.0151581 +22.6753355     401.7939     69.43916      1.166     3.16    -11.76658     19.59589     73.72422         7     1.008     0.582 -51.02   0
        77     32.7819    737.3983 299.9556106 +22.6155096     346.9589     69.36834      1.682     3.07    -11.79572     19.59589     34.98582         5     0.739     0.439 -21.32   0
        78    474.0055    736.4232 300.0930862 +22.7476445     327.1504     69.43916      0.963     2.17    -11.11352     19.59589     81.09464         6     0.720     0.599 -42.27   0
        79     66.5585    735.0182 299.9668752 +22.6249679     1163.144     69.47455      0.583     2.23    -11.81041     19.59589     476.1445         6     0.544     0.279  -4.51   0
        80    853.0996    727.8038 300.2139481 +22.8588447     273.2704     69.35062      1.069     2.33    -11.55391     19.59589     55.06152         5     0.743     0.608  35.69   0
        81    226.5329    726.1846 300.0194550 +22.6704540     202.8268     69.45686      1.193     4.23    -11.68873     19.59589     33.55616         5     0.890     0.574  42.93   0
        82    518.7661    714.7014 300.1140821 +22.7548372     270.6096     69.43916      0.921     2.35    -11.08252     19.59589     59.75219         6     0.712     0.592 -52.52   0
        83    540.5490    712.1464 300.1216929 +22.7606373     699.2433     69.49223      1.132     2.03    -11.11057     19.59589     151.7252        13     1.042     0.705 -40.96   0
        84    935.1693    710.7061 300.2450948 +22.8785309     2175.052     69.38605      1.068     1.80    -11.07363     19.59589     464.4134        15     0.807     0.776   1.26   0
        85    923.6463    702.2415 300.2442558 +22.8726462      724.529     69.50991      0.959     1.94    -11.04465     19.59589      160.887         9     0.738     0.656 -25.99   0
        86    286.5316    696.1672 300.0478709 +22.6798492     275.5014     69.45686      0.990     1.98    -11.19959     19.59589     81.24016         6     0.707     0.494  82.06   0
        87    750.1728    693.5479 300.1930193 +22.8181541     1450.799     69.47455      1.287     2.13     -11.5315     19.59589     221.8982        16     1.287     0.701   9.89   0
        88    954.5828    692.3510 300.2571193 +22.8790757     711.0006     69.49223      1.026     1.91    -11.17037     19.59589      145.543        11     0.782     0.771   4.79   0
        89    523.8553    687.1316 300.1246342 +22.7484511     1520.803     69.49223      0.545     0.89    -10.86975     19.59589     1005.442         7     0.431     0.410 -15.35   0
        90    135.3568    680.3506 300.0060296 +22.6299449     349.0304     69.49223      1.134     2.68    -11.69048     19.59589     52.02013         7     0.780     0.663 -67.91   0
        91    832.6619    679.8325 300.2231843 +22.8389416     270.8087     69.47455      1.255     3.90    -11.07331     19.59589     45.51578         6     0.959     0.454  52.21   0
        92    868.4334    670.4295 300.2373921 +22.8469619     72473.52     69.47455      1.043     1.80    -11.03233     19.59589     12007.95        94     1.106     1.070  43.86   0
        93   1015.3134    671.9891 300.2826824 +22.8914224     711.1783     69.40376      1.150     1.85    -11.27204     19.59589     141.2713        10     0.874     0.641  67.11   0
        94    720.7635    670.7055 300.1912879 +22.8027786      499.212     69.45686      1.251     1.97    -11.49483     19.59589     78.91574         6     0.707     0.507  54.42   0
        95    554.7529    659.2778 300.1433109 +22.7497224     786.3789     69.45686      1.142     2.04    -10.69631     19.59589     133.8773        11     0.870     0.712 -58.99   0
        96    735.8998    656.5518 300.2006067 +22.8032518     4624.504     69.49223      1.077     1.76    -11.39699     19.59589     880.5145        26     0.953     0.868  46.92   0
        97    237.4305    651.8961 300.0470054 +22.6524164     2525.503     69.40376      1.178     2.02    -11.23073     19.59589     401.0322        23     1.022     0.950  13.93   0
        98    319.4931    649.9916 300.0731379 +22.6764921     672.9197     69.36834      1.224     2.32    -11.10138     19.59589     110.1374        12     1.075     0.725  80.32   0
        99    527.9114    645.1982 300.1395354 +22.7376317     304.8531     69.38605      1.122     2.57    -10.57714     19.59589      59.0638         7     0.840     0.521 -46.08   0
       100    519.3705    637.4171 300.1394077 +22.7328369     1612.013     69.45686      1.067     1.93    -10.52573     19.59589     246.2273        18     0.957     0.813  19.47   0
       101    509.6594    631.3151 300.1383697 +22.7281731     702.4983     69.56293      1.104     1.92    -10.48717     19.59589     130.6009        11     0.802     0.722  81.24   0
       102    902.7651    628.6324 300.2616885 +22.8452434     280.4173     69.49223      1.135     2.42     -11.1538     19.59589     39.73897         5     0.728     0.431  21.65   0
       103    172.8396    627.3188 300.0349228 +22.6259845     333.5883     69.42146      1.064     2.29    -11.33662     19.59589     64.73947         5     0.835     0.351  47.67   0
       104    434.4048    620.9949 300.1183091 +22.7026416     888.3363     69.31518      1.170     1.96    -10.63762     19.59589     158.3696        13     0.934     0.738  41.51   0
       105    213.6099    622.4533 300.0491757 +22.6368230     290.2252     69.45686      1.156     3.45    -11.25522     19.59589     47.15339         5     0.775     0.445 -20.63   0
       106   1010.1770    618.1285 300.2985983 +22.8744071     226.3496     69.49223      0.966     1.59    -11.16028     19.59589     104.5919         8     0.709     0.597 -55.51   0
       107     88.5139    616.0751 300.0123789 +22.5974530     9611.317     69.56293      1.213     2.03    -11.21147     19.59589     1446.686        39     1.081     1.038  61.23   0
       108      9.6777    617.6017 299.9873969 +22.5742279     306.8073     69.36834      1.016     2.53    -10.51927     19.59589     47.89468         5     0.693     0.464  17.60   0
       109    519.3448    616.2497 300.1462831 +22.7267531     569.6992     69.49223      1.087     1.93    -10.39077     19.59589     100.4687         7     0.745     0.569  13.83   0
       110    937.4175    602.1715 300.2810975 +22.8480239     564.5795     69.45686      1.104     1.84    -11.20344     19.59589     105.5555         8     0.698     0.640  -3.40   0
       111     34.5662    600.4543 300.0007013 +22.5767816      734.581     69.47455      1.615     5.11    -10.65079     19.59589     67.05262        10     1.242     0.594 -89.45   0
       112    483.3497    596.8045 300.1414041 +22.7103773     220.9107     69.43916      0.863     1.86    -10.31042     19.59589     47.29207         5     0.686     0.441 -69.83   0
       113    877.5079    594.9395 300.2647717 +22.8279957     524.1443     69.52759      1.496     2.46    -11.15962     19.59589     73.86755         6     0.749     0.610 -58.55   0
       114    439.4320    589.0850 300.1302489 +22.6949909     264.5565     69.43916      1.224     2.71    -10.44661     19.59589     55.84642         6     0.780     0.492  84.78   0
       115    483.5426    584.8083 300.1453646 +22.7069917     445.7426     69.43916      1.072     2.36    -10.27506     19.59589     67.08005         5     0.714     0.426  63.15   0
       116    917.4335    580.4074 300.2819437 +22.8357831     1675.666     69.45686      1.036     1.80    -11.18384     19.59589     287.6935        17     0.894     0.820 -89.21   0
       117    449.0942    580.4378 300.1360666 +22.6954066     707.1433     69.43916      1.114     2.03    -10.36069     19.59589     129.3609        11     0.918     0.691 -88.86   0
       118     11.2857    574.2537 300.0019895 +22.5622806     2439.272     69.50991      1.232     2.26    -10.53081     19.59589     330.2442        23     1.060     0.952   4.77   0
       119    312.6715    567.3723 300.0978809 +22.6507397     4427.923     69.43916      1.138     1.97    -10.90498     19.59589     724.0207        28     1.034     0.925  63.77   0
       120    435.0872    564.2658 300.1369664 +22.6865641     4386.504     69.54526      1.171     1.91    -10.30285     19.59589     799.6652        26     0.996     0.897  80.50   0
       121    846.8680    558.2938 300.2671364 +22.8082866     971.5268     69.59824      1.159     1.80     -10.9341     19.59589     177.7207        13     0.952     0.698 -80.33   0
       122    931.3130    555.5402 300.2943563 +22.8327961     6162.545     69.54526      1.063     1.77    -11.20832     19.59589     1043.267        29     0.947     0.912  16.53   0
       123    495.6632    553.9190 300.1591790 +22.7017589     5739.157     69.56293      1.147     1.87     -10.1837     19.59589     1052.749        29     1.005     0.924  88.99   0
       124    223.0277    549.4625 300.0758336 +22.6187087     514.4854     69.45686      1.079     1.88    -11.12505     19.59589     100.6038         8     0.710     0.648  77.33   0
       125    427.3126    542.0702 300.1417631 +22.6778616     2057.856      69.6159      1.131     1.82    -10.16962     19.59589      400.389        18     0.882     0.836  81.33   0
       126    770.2633    541.9908 300.2485644 +22.7806480      465.536     69.42146      1.168     1.54    -10.61519     19.59589     87.76036         7     0.644     0.593  87.67   0
       127    405.5781    540.5389 300.1354994 +22.6709041     647.9965     69.43916      1.107     2.08    -10.23488     19.59589     100.2227         9     0.786     0.682  21.71   0
       128    160.0021    539.9925 300.0593244 +22.5970827     418.1543     69.27972      1.091     1.90    -11.10533     19.59589     73.80406         5     0.640     0.488  89.99   0
       129    847.1265    537.5361 300.2739654 +22.8024003     768.1136     69.49223      1.178     2.36    -10.81881     19.59589      134.417        13     0.879     0.803 -72.91   0
       130    727.6080    534.4005 300.2377427 +22.7656846     492.5894     69.27972      1.129     1.97     -10.3185     19.59589     81.49355         7     0.705     0.608  17.96   0
       131    543.9230    529.6083 300.1821020 +22.7092488     100448.1     69.42146      1.142     1.79     -10.0434     19.59589     18713.22       120     1.212     1.170 -18.42   0
       132    230.0932    529.6227 300.0844789 +22.6151359     1719.288     69.38605      1.197     2.10    -10.98269     19.59589     277.4543        16     0.885     0.854  87.21   0
       133    434.5457    510.2608 300.1543532 +22.6708994     1339.141     69.50991      1.293     2.52     -9.97638     19.59589     189.2474        17     1.348     0.811 -86.15   0
       134    883.9825    509.9102 300.2944341 +22.8055047     229.7252     69.38605      1.251     2.76    -10.65776     19.59589     35.55912         5     0.641     0.569 -88.96   0
       135    845.9979    506.1853 300.2838048 +22.7930544     202.8735     69.29745      0.988     3.46     -10.5124     19.59589     38.30279         6     0.906     0.456  39.19   0
       136    831.4815    496.0249 300.2825829 +22.7857858      835.119     69.43916      1.062     1.96    -10.35156     19.59589     147.5118        10     0.833     0.623  38.13   0
       137    702.7070    493.6201 300.2432417 +22.7465081      1270.66     69.38605      1.099     2.14     -9.97615     19.59589     221.3376        14     0.883     0.776  64.52   0
       138    947.2358    491.1083 300.3202664 +22.8190496       310.43     69.40376      1.588     3.82    -10.52224     19.59589     46.97139         6     0.936     0.554  26.80   0
       139    489.9441    489.8509 300.1782245 +22.6816502     377.5847     69.49223      1.255     2.26    -9.740003     19.59589     66.88438         9     0.771     0.719  47.32   0
       140    959.9625    487.5143 300.3254031 +22.8218286      526.441     69.43916      0.977     1.76    -10.48369     19.59589     137.2138         9     0.753     0.627  50.08   0
       141    945.6547    486.8172 300.3211681 +22.8173426     284.9492     69.43916      1.070     1.63    -10.47246     19.59589     81.72933         6     0.635     0.575  -9.97   0
       142    831.8640    486.5140 300.2857934 +22.7831676      971.126     69.54526      1.148     1.87    -10.25996     19.59589     172.5013        11     0.832     0.649  67.33   0
       143    585.0764    484.0678 300.2097152 +22.7085085     311.6917     69.54526      1.020     2.15    -9.685246     19.59589     54.99405         5     0.595     0.580 -72.21   0
       144    869.9493    481.2245 300.2993834 +22.7930576     1935.523     69.47455      1.085     1.83    -10.38085     19.59589     428.8709        17     0.853     0.806  57.07   0
       145    102.0480    471.7213 300.0635060 +22.5601087     586.5016     69.45686      1.472     2.34    -10.54253     19.59589      87.7351        10     0.897     0.666 -59.89   0
       146    961.8475    471.5930 300.3311656 +22.8178171     321.1995     69.47455      0.997     1.78    -10.35037     19.59589     66.68935         5     0.651     0.465  20.47   0
       147     94.5901    461.2090 300.0646050 +22.5548553     241.0839     69.35062      1.243     3.43    -10.48219     19.59589     32.89006         5     0.770     0.442 -70.04   0
       148    702.2062    455.6924 300.2554120 +22.7354628     288.6943     69.36834      1.210     2.67    -9.796016     19.59589     43.88686         6     0.706     0.632  82.46   0
       149    643.4383    451.8342 300.2383626 +22.7167431     327.3495     69.49223      1.097     2.43    -9.584873     19.59589     58.11233         6     0.744     0.493  83.98   0
       150    704.1989    443.7288 300.2599205 +22.7326231     395.3642     69.36834      1.122     2.34    -9.758382     19.59589     81.20279         9     0.833     0.703  87.63   0
       151    861.4557    440.2101 300.3100649 +22.7787268     509.9308     69.45686      1.021     1.93    -10.12408     19.59589     107.6519         8     0.809     0.683 -74.72   0
       152    845.3568    436.2868 300.3063219 +22.7727767     328.5966     69.43916      0.956     2.50    -10.06286     19.59589     73.38515         5     0.771     0.431  43.25   0
       153    589.9344    434.4317 300.2273578 +22.6957092     1576.575     69.45686      1.088     2.00    -9.289434     19.59589     269.1443        15     0.892     0.776  68.23   0
       154     66.0693    425.9274 300.0672088 +22.5361764     244.7921     69.52759      1.270     3.03    -10.35966     19.59589     32.13493         5     0.615     0.606  35.41   0
       155   1001.2415    413.5093 300.3623266 +22.8129182     787.3343     69.45686      1.108     2.06    -10.10679     19.59589     125.4513        10     0.823     0.668  88.54   0
       156    959.4371    412.0697 300.3497569 +22.7999855     520.9114     69.43916      1.052     2.36    -10.05829     19.59589     78.11671         7     0.793     0.529  61.04   0
       157    700.5348    408.3821 300.2702643 +22.7213703     617.2878     69.43916      1.062     2.05    -9.615489     19.59589     83.71078         7     0.728     0.590  77.85   0
       158    266.9071    402.5925 300.1372027 +22.5897226     1803.264     69.36834      1.156     2.08    -9.697883     19.59589     310.8017        17     0.971     0.810  76.98   0
       159    999.8998    400.7293 300.3660606 +22.8088423     2060.818     69.58059      1.102     1.80    -10.10564     19.59589     436.2387        16     0.865     0.809 -88.26   0
       160    214.1358    397.3080 300.1225148 +22.5723795     3850.863     69.56293      1.218     2.07    -10.00111     19.59589     586.8947        26     1.065     0.917  71.69   0
       161    592.4888    396.2488 300.2405591 +22.6855074     178.4024     69.43916      1.206     2.90    -9.154759     19.59589     37.48769         5     0.776     0.677  37.92   0
       162    354.8672    391.4975 300.1681592 +22.6129133     2440.702     69.54526      1.186     2.09    -9.360538     19.59589     376.7285        20     0.975     0.897 -54.00   0
       163    979.9208    391.8412 300.3627173 +22.8003044     1056.668     69.43916      1.132     1.91    -10.08254     19.59589     194.5849        12     0.843     0.761 -48.81   0
       164    599.0606    388.1556 300.2452345 +22.6851522      9017.36     69.49223      1.188     1.91     -9.15221     19.59589     1662.379        35     1.051     0.923  77.42   0
       165    615.7574    388.3871 300.2503581 +22.6902223     467.3062     69.47455      1.869     1.59    -9.185368     19.59589     45.28607         4     0.512     0.490  65.97   2
       166    932.5934    370.3854 300.3549294 +22.7799636     417.9427     69.36834      1.186     4.14    -10.02827     19.59589     67.53067         7     1.114     0.464 -65.51   0
       167    153.7220    368.3684 300.1131397 +22.5459543     1014.966     69.43916      1.215     2.11    -10.02907     19.59589     155.6566        13     0.917     0.737  25.60   0
       168    539.6866    357.5963 300.2366778 +22.6585803     3234.865     69.38605      1.124     1.97    -9.181209     19.59589     536.9597        24     1.009     0.896 -81.49   0
       169    953.2821    357.7791 300.3654758 +22.7825349     494.0667     69.42146      1.084     2.29    -10.05137     19.59589     92.49216         9     0.831     0.643  71.30   0
       170    254.6427    357.1500 300.1481514 +22.5730007     476.0027     69.49223      1.304     3.21    -9.481934     19.59589     54.19707         8     0.894     0.633 -79.90   0
       171    653.0942    347.7895 300.2751728 +22.6897470      272.099     69.40376      1.121     2.81    -9.249121     19.59589     40.71526         7     0.705     0.680   4.65   0
       172    743.6582    346.3379 300.3038541 +22.7164624     504.5909     69.50991      1.230     2.94    -9.437435     19.59589     101.0157         9     0.959     0.736  82.69   0
       173    446.3820    343.9557 300.2120711 +22.6266971     3105.222     69.47455      1.199     1.97    -9.251191     19.59589      514.533        21     1.010     0.854  72.77   0
       174    838.2028    338.1508 300.3359749 +22.7424290      730.913     69.45686      1.132     2.18    -9.848366     19.59589     126.2936        10     0.829     0.671  33.17   0
       175    513.5471    330.2285 300.2374310 +22.6428853     301.6722     69.47455      1.354     3.36    -9.222284     19.59589     42.71239         5     0.810     0.402 -65.38   0
       176    811.1240    325.6575 300.3315934 +22.7307277     281.2793     69.49223      0.886     1.71    -9.775335     19.59589     63.67094         5     0.673     0.436 -21.53   0
       177    333.7837    323.0327 300.1838405 +22.5869350      1127.56     69.43916      1.171     2.03    -9.178476     19.59589      210.995        13     0.876     0.762  57.44   0
       178     52.3969    320.5251 300.0971987 +22.5018324     443.9512     69.36834      1.051     2.25    -9.846072     19.59589     85.07001         8     0.726     0.705 -80.23   0
       179    303.2525    312.5831 300.1777397 +22.5747813     14851.43     69.43916      1.213     2.15    -9.165211     19.59589     2190.148        48     1.151     1.028  79.71   0
       180    837.8144    309.8214 300.3450552 +22.7341695     666.5408     69.43916      1.190     1.85    -9.697992     19.59589     131.2069        12     0.858     0.758  22.44   0
       181      1.1372    300.5859 300.0877535 +22.4807346     478.7595     52.86098      0.864     2.23    -9.755524     19.59589     141.1518         6     0.863     0.343 -88.18  24
       182    753.1848    298.4868 300.3223638 +22.7055642     196.1877     69.40376      0.966     2.04    -9.444553     19.59589     53.74462         5     0.682     0.464  21.89   0
       183    401.6557    297.9772 300.2130885 +22.6000863      361.259     69.49223      1.441     2.31    -9.090049     19.59589     50.05015         5     0.770     0.479 -29.20   0
       184    713.5219    292.2334 300.3120380 +22.6918863     1046.861     69.43916      1.177     2.21    -9.388782     19.59589     136.0641        13     0.825     0.822  27.47   0
       185    928.6436    284.8470 300.3814813 +22.7541885     213.8526     69.49223      0.864     1.74    -9.736033     19.59589     67.27574         5     0.662     0.451  70.52   0
       186    375.4999    276.9430 300.2117824 +22.5862055     1080.969     69.54526      1.357     2.69    -9.013503     19.59589     148.4096        16     1.061     0.837  62.81   0
       187    814.5977    269.5097 300.3509105 +22.7156285     216.7936     69.36834      1.000     2.79    -9.556175     19.59589     50.51089         7     0.870     0.537  58.74   0
       188    451.1224    256.2036 300.2420431 +22.6029141     660.4719     69.36834      1.242     2.46     -8.95539     19.59589     98.39155        11     0.904     0.701  82.45   0
       189    695.9465    247.9912 300.3209294 +22.6739066     923.2965     69.45686      1.232     2.16    -9.372058     19.59589     197.8817        13     1.009     0.729  83.92   0
       190    957.3329    242.4077 300.4042081 +22.7505745     1623.533     69.45686      1.121     2.02    -9.468224     19.59589     255.9502        15     0.882     0.787 -71.09   0
       191    404.3027    232.0578 300.2353155 +22.5819469     285.5694     69.54526      1.127     2.84    -8.828392     19.59589     56.82907         5     0.794     0.460  40.36   0
       192     79.2020    226.3251 300.1361106 +22.4828374     717.1156     69.36834      1.507     2.98    -9.376997     19.59589     87.03579        13     1.060     0.824 -27.50   0
       193    110.0369    225.9824 300.1458015 +22.4919858     247.4144     69.45686      1.104     2.99    -9.344815     19.59589      43.1612         5     0.782     0.497  65.53   0
       194    163.4131    218.0530 300.1649613 +22.5057145     247.2505     69.47455      1.319     2.67    -9.246679     19.59589     47.97261         6     0.889     0.502 -16.17   0
       195    767.5720    209.3702 300.3557824 +22.6842573     368.3788     69.45686      1.215     3.63    -9.365789     19.59589     47.29576         9     0.924     0.736  69.74   0
       196    865.8601    198.5295 300.3899338 +22.7105713     1127.458     69.49223      1.168     2.08    -9.566587     19.59589     175.9769        13     0.866     0.785  89.43   0
       197    284.3544    195.8806 300.2097536 +22.5356052     900.3756     69.43916      1.141     2.50    -9.103199     19.59589     145.1037        12     0.934     0.717  77.27   0
       198    362.3820    191.0107 300.2356000 +22.5575933     460.7632     69.42146      1.240     3.05    -8.989562     19.59589     56.56752         7     0.751     0.630 -74.50   0
       199    764.2640    190.2331 300.3609640 +22.6777652     335.4476     69.45686      1.295     2.30     -9.26128     19.59589     48.52109         6     0.689     0.614 -26.35   0
       200    179.1349    183.7899 300.1809690 +22.5005911     433.4701     69.42146      1.643     3.98    -9.189023     19.59589     47.06742         9     1.049     0.742 -59.37   0
       201    716.9829    179.9438 300.3495733 +22.6606481     742.6036     69.42146      1.055     2.01    -9.150195     19.59589     159.0792        10     0.794     0.688  28.60   0
       202    200.5670    176.6571 300.1899453 +22.5049682     214.9336     69.47455      0.941     3.27    -9.170578     19.59589     47.07137         5     0.953     0.350 -21.24   0
       203    988.5167    172.2233 300.4367182 +22.7397236     373.4541     69.42146      0.972     2.29    -9.062229     19.59589     62.62442         5     0.694     0.459 -67.77   0
       204    721.1741    171.1030 300.3537485 +22.6593618     359.5434     69.40376      1.282     2.89     -9.11482     19.59589     62.70293         7     0.911     0.540 -75.18   0
       205    641.5167    170.6145 300.3290958 +22.6353644     602.1639     69.42146      1.080     2.12    -8.960579     19.59589     89.05867         9     0.793     0.668  55.91   0
       206    567.4567    162.6676 300.3086150 +22.6108965     316.3156     69.47455      1.088     3.81    -8.863733     19.59589     68.87955         9     1.097     0.648 -55.49   0
       207    836.9716    162.1305 300.3927442 +22.6914558     720.2206     69.45686      1.222     2.20    -9.364832     19.59589     120.9218        10     0.852     0.685  54.67   0
       208    849.0762    161.2563 300.3968008 +22.6948284     478.4843     69.49223      1.307     2.15    -9.445648     19.59589     61.46592         8     0.762     0.642 -49.06   0
       209    609.9579    159.1003 300.3230056 +22.6226024     1999.023     69.43916      0.472     2.24     -8.84351     19.59589     1405.038         7     0.394     0.387  28.35   0
       210   1009.8830    152.0606 300.4499269 +22.7403186     800.9164     69.56293      1.186     1.93    -8.955656     19.59589     160.0551         9     0.731     0.703  10.37   0
       211    965.5782    151.6613 300.4362383 +22.7269435     542.3538     69.43916      1.134     2.66    -9.005003     19.59589      88.0181         8     0.828     0.705  60.63   0
       212    199.5478    144.5231 300.2000573 +22.4954355     346.4547     69.47455      1.292     4.15    -9.032325     19.59589     47.81452         7     0.882     0.665 -10.84   0
       213     61.6745    139.5290 300.1588365 +22.4526665     1042.491     69.52759      1.254     2.53    -9.246101     19.59589     135.3684        13     1.001     0.741  73.22   0
       214     11.3307    136.6331 300.1441394 +22.4367393     345.2323     69.43916      1.904     3.71    -9.527817     19.59589     36.04194         5     0.984     0.403 -74.32   0
       215    884.5182    136.3661 300.4159274 +22.6982807      313.294     69.42146      0.958     2.59    -9.218143     19.59589     60.96017         5     0.693     0.466  69.45   0
       216    219.1100    132.8923 300.2099123 +22.4979594     2826.248      69.6159      1.284     2.24    -8.958077     19.59589     435.7324        27     1.186     0.993 -83.65   0
       217      3.2754    127.4783 300.1446083 +22.4316959     752.2029     63.52454      1.443     3.43    -9.599301     19.59589     85.43111        13     1.132     0.773  73.42  16
       218    202.2351    123.5592 300.2076955 +22.4902209     304.9216     69.50991      1.197     3.03    -8.865211     19.59589     54.99208         7     0.932     0.535  57.48   0
       219   1017.8285    120.1108 300.4627744 +22.7335052     9013.918     69.43916      1.196     2.00    -8.734883     19.59589     1583.745        31     1.040     0.911  78.60  16
       220    863.0306    114.2555 300.4164044 +22.6854895     1765.979     69.47455      1.197     2.10    -9.175318     19.59589     287.8251        18     1.005     0.834  52.32   0
       221    966.7117    112.8917 300.4491740 +22.7161307     1497.882      69.6159      1.229     2.14    -8.705192     19.59589     230.8071        17     0.988     0.819  57.81   0
       222    412.5318    109.6192 300.2776150 +22.5492395     231.1798     69.45686      1.058     2.37    -8.835719     19.59589     61.41051         6     0.772     0.533  43.80   0
       223    336.6286    101.3710 300.2566807 +22.5241263     345.1546     69.42146      1.169     3.35    -9.158281     19.59589     53.62868         6     0.868     0.483  88.25   0
       224    102.6899     98.5270 300.1848828 +22.4531920     263.0678      69.6159      0.954     2.82    -8.801935     19.59589     52.20839         5     0.938     0.331 -68.40   0
       225    463.9837     96.9381 300.2977389 +22.5610107     788.9139     69.42146      1.181     2.10    -8.767927     19.59589     152.1117        11     0.918     0.674  89.19   0
       226    391.6887     96.9297 300.2752481 +22.5393486     336.3466      69.6159      1.495     3.65    -8.948616     19.59589     40.86403         5     0.894     0.640  65.36   0
       227    238.0129     76.8357 300.2339770 +22.4875255     2971.333     69.43916      1.281     2.27    -8.727338     19.59589     449.0712        23     1.011     0.945  67.30   0
       228     89.0015     76.0496 300.1879225 +22.4426344     405.7957     69.43916      1.416     2.83    -8.782331     19.59589     55.36562         7     0.877     0.493  40.70   0
       229    484.0482     62.0971 300.3152869 +22.5570089     2985.641     69.49223      1.234     2.16    -8.625237     19.59589     480.8793        21     0.975     0.901  79.48   0
       230    369.5389     61.4640 300.2798644 +22.5225223     300.3676     69.49223      1.260     2.92    -8.778833     19.59589     46.08749         9     0.854     0.760  74.37   0
       231    736.5569     51.5472 300.3973368 +22.6295939     388.2862     69.49223      1.176     2.68    -8.272826     19.59589     59.39722        10     0.897     0.724  40.36   0
       232    829.3286     50.1596 300.4266963 +22.6569668     208.2838     69.43916      1.029     3.39    -8.643751     19.59589     34.16572         5     0.772     0.431  73.14   0
       233    535.3708     44.1658 300.3370782 +22.5672276     227.2019     69.47455      0.903     2.91    -7.983747     19.59589     42.84264         5     0.746     0.431  69.10   0
       234    612.3920     42.0727 300.3617366 +22.5896922     2934.265     69.43916      1.211     2.18    -7.831839     19.59589     436.4789        20     0.988     0.860  83.94   0
       235    387.1438     41.0598 300.2919599 +22.5219340      738.903     69.52759      1.215     2.67    -8.609627     19.59589     121.2621        13     0.999     0.772  53.22   0
       236    653.5429     39.3545 300.3754334 +22.6012330      432.872     69.49223      1.149     2.51    -8.013165     19.59589     54.94328         7     0.781     0.617  17.03   0
       237    669.6236     35.3132 300.3817528 +22.6048860     303.4332     69.40376      1.041     3.30    -8.061354     19.59589     40.79148         5     0.728     0.461 -74.59   0
       238    136.0639     33.8255 300.2162424 +22.4446168     341.8191     69.43916      1.290     3.96    -8.526131     19.59589     41.70561         7     0.838     0.686 -64.52   0
       239    939.7043     32.8094 300.4667350 +22.6850102     259.6554     69.38605      1.199     3.39    -8.532387     19.59589     44.26136         5     0.941     0.353 -45.80   0
       240    707.5853     31.0099 300.3949735 +22.6150146     235.3419     69.36834      1.112     2.95    -8.039972     19.59589     44.13232         6     0.783     0.492 -86.98   0
       241    656.6523     26.9154 300.3804369 +22.5985876     1209.338     69.49223      1.145     2.26    -7.905511     19.59589      193.714        13     0.909     0.746  81.33   0
       242    671.6837     25.4699 300.3855875 +22.6026726     382.4782     69.56293      1.565     5.58    -7.982034     19.59589     61.56332        10     1.498     0.586  43.49   0
       243    743.0678     18.4925 300.4100881 +22.6220376     749.7912     69.58059      1.115     2.21    -7.942556     19.59589     133.6227         9     0.818     0.628  75.43   0
       244     42.4844   1022.2123 299.8659161 +22.7000442     343.1331     61.35986      3.080     4.97     4.709463     19.59589      28.9355         5     1.136     0.614 -28.15  16
       245    959.1364   1020.6395 300.1516705 +22.9747142     342.0926     67.22733      1.572     3.76    -13.98916     19.59589     47.47038         7     0.850     0.642  33.86  16
       246    286.2910   1007.3568 299.9465092 +22.7690108     603.7484     69.45686      1.324     3.16     -11.1384     19.59589     71.98523        13     1.015     0.859  82.02   0
