#   1 NUMBER                 Running object number                                     
#   2 X_IMAGE                Object position along x                                    [pixel]
#   3 Y_IMAGE                Object position along y                                    [pixel]
#   4 ALPHA_J2000            Right ascension of barycenter (J2000)                      [deg]
#   5 DELTA_J2000            Declination of barycenter (J2000)                          [deg]
#   6 FLUX_APER              Flux vector within fixed circular aperture(s)              [count]
#   7 FLUXERR_APER           RMS error vector for aperture flux(es)                     [count]
#   8 FLUX_RADIUS            Fraction-of-light radii                                    [pixel]
#   9 FWHM_IMAGE             FWHM assuming a gaussian core                              [pixel]
#  10 BACKGROUND             Background at centroid position                            [count]
#  11 THRESHOLD              Detection threshold above background                       [count]
#  12 FLUX_MAX               Peak flux above background                                 [count]
#  13 ISOAREA_IMAGE          Isophotal area above Analysis threshold                    [pixel**2]
#  14 A_IMAGE                Profile RMS along major axis                               [pixel]
#  15 B_IMAGE                Profile RMS along minor axis                               [pixel]
#  16 THETA_IMAGE            Position angle (CCW/x)                                     [deg]
#  17 FLAGS                  Extraction flags                                          
         1    680.6816     11.1876 300.3929471 +22.6016743     268.6771     69.32729      1.101     3.18    -8.183755     19.56432     62.38516         7     0.945     0.524  65.09   0
         2    485.9344     10.5176 300.3325298 +22.5431462     557.7048     69.45084      1.290     2.85    -8.724604     19.56432     73.78383        10     0.910     0.755  78.08   0
         3     58.7294     10.1387 300.1998221 +22.4149914     352.4863     69.38026      1.538     2.87    -8.548562     19.56432     40.96804         7     0.827     0.596  64.05   0
         4    389.5280      8.3140 300.3032471 +22.5136266     256.9042     69.45084      1.070     3.48    -8.065341     19.56432     55.75378         5     0.764     0.458  71.00   0
         5    771.9366      6.8761 300.4227749 +22.6277615     175.5576     69.39792      1.126     3.20    -7.976851     19.56432     35.06151         5     0.783     0.511 -56.53   0
         6    187.7269    999.9941 299.9183129 +22.7376450     603.3082     69.29194      2.934     4.22     25.47147     19.56432     34.89747         5     1.037     0.489  56.00   1
         7     74.7568   1008.6725 299.8803910 +22.7061910     3174.146     69.32729     17.133    79.04     20.10826     19.56432     116.0164      1475    14.045    12.342  51.10  27
         8     68.3852    948.3316 299.8980542 +22.6869887     2855.234     69.36261     30.408   101.38    -0.720462     19.56432     69.07117      2207    20.863    13.669 -81.44  19
         9    157.6915    969.8160 299.9188040 +22.7199744      885.724     69.27426      4.131     6.07     14.77879     19.56432     31.58054         9     1.261     0.822 -26.23   1
        10    916.8828    964.9591 300.1566698 +22.9464698     369.9352     69.30962      1.121     2.66    -12.92949     19.56432     52.00903         7     0.834     0.536 -46.51   0
        11    190.8465    997.5970 299.9200627 +22.7378952     973.9103     69.32729      4.498     9.51     24.34764     19.56432     35.58034        13     2.316     1.090  43.03   1
        12    345.2621    992.6594 299.9696719 +22.7828591     361.8143     69.38026      2.013     3.43    -12.31676     19.56432     40.79818         5     0.772     0.440 -16.22   0
        13    190.8461    980.3849 299.9256659 +22.7329626     2161.791     69.36261     15.438    22.45     16.54856     19.56432     54.21312       120     4.511     3.104 -33.59   3
        14    133.6842    949.8148 299.9178555 +22.7070310     817.5991     69.30962      6.235     9.28     5.936271     19.56432     42.05492        14     2.274     1.056  49.85   0
        15    122.0107    951.1890 299.9137816 +22.7039179      785.219     69.23889      4.001     3.75     6.291783     19.56432     41.54161         5     1.054     0.503 -55.24   1
        16    228.2328    967.7350 299.9414028 +22.7405673     3751.056     69.34495      8.958    30.83      7.48894     19.56432     100.3142       396     7.890     4.171  57.48   2
        17    623.8848    981.2086 300.0600956 +22.8632230     4158.022     69.29194      1.252     2.02    -12.54953     19.56432     691.1807        27     1.067     0.969 -33.22   3
        18    642.2652    948.3457 300.0765169 +22.8593120     3347.441     69.39792      1.228     2.24    -12.48365     19.56432     480.2166        21     1.040     0.887  35.11   0
        19    537.3458    986.0865 300.0315688 +22.8386467     1071.265     69.38026      1.216     2.13    -12.47087     19.56432     163.6545        18     1.077     0.892  43.85   0
        20    629.5685    978.8724 300.0626259 +22.8642587     4572.773     69.34495      1.225     2.01     -12.5449     19.56432     694.0391        28     1.047     0.975  81.24   3
        21    724.0851    981.6178 300.0911667 +22.8934104     255.8007     69.30962      1.258     2.92    -12.75029     19.56432     44.69415         7     0.901     0.573  53.36   0
        22    209.1640    980.5356 299.9313094 +22.7385082      2461.14     69.34495     12.113    30.63     15.43761     19.56432     58.09636       228     6.239     4.175 -55.61   3
        23    550.6880    939.0651 300.0510284 +22.8291654     793.7862      69.4332      1.196     2.19    -12.44295     19.56432     125.7919        14     0.883     0.843  70.53   0
        24    444.5819    935.6124 300.0191342 +22.7963243     674.0033     69.30962      1.296     2.70    -12.32071     19.56432     72.31259        11     0.946     0.730 -63.94   0
        25    375.2180    933.6424 299.9981991 +22.7749343     3242.101     69.36261      1.206     2.13    -12.09433     19.56432     463.5367        27     1.029     0.991 -33.22   0
        26    219.5905    995.1785 299.9297829 +22.7458366     545.9001     69.32729      2.303     8.13     20.56057     19.56432     36.83658        14     1.538     1.201  32.00   0
        27    113.9939    920.0552 299.9214241 +22.6925879     637.2575     69.34495      4.740     5.43    -4.231852     19.56432     27.54058         5     1.468     0.567 -75.70   0
        28    407.7689    920.5577 300.0125823 +22.7809554     265.7992     69.38026      1.159     2.69    -12.21892     19.56432     44.98728         5     0.702     0.483  13.33   0
        29    921.3981    912.0566 300.1752986 +22.9326379      1175.17     69.29194      1.264     2.35    -12.57547     19.56432     164.0113        15     1.049     0.790  58.28   0
        30    158.1761    973.5583 299.9177364 +22.7211924          792     69.39792      3.636     6.01     16.51366     19.56432     37.23983         9     1.395     0.729   1.97   3
        31    710.6048    901.3876 300.1130840 +22.8663450     477.8463      69.2212      2.104     5.75     -12.1486     19.56432     40.03592         6     1.461     0.638  77.19   0
        32    744.9802    895.3875 300.1257447 +22.8749363     543.2574     69.30962      1.204     2.35    -12.09875     19.56432     94.83714         8     0.824     0.613  -8.14   0
        33    767.2845    889.0128 300.1347679 +22.8797979      5695.67     69.29194      1.174     1.94    -12.04266     19.56432      979.891        31     1.097     0.947 -29.74   0
        34    958.7128    888.7401 300.1945217 +22.9371338     258.1328      69.4332      1.271     4.26    -12.44278     19.56432     43.10746         7     0.887     0.788 -57.69   0
        35    813.1677    888.9522 300.1490841 +22.8935441     305.1614     69.38026      1.380     3.69    -12.06427     19.56432     31.65619         5     0.796     0.509  34.66   0
        36    900.7469    882.6274 300.1784388 +22.9179959      267.377     69.36261      1.631     3.67    -12.26319     19.56432      34.4701         5     0.926     0.419 -81.97   0
        37     78.6596    880.6260 299.9232790 +22.6706744     358.3276     69.34495      1.445     3.28    -8.621971     19.56432     46.64347         5     0.970     0.355 -69.67   0
        38    818.7952    876.4725 300.1548992 +22.8916500     263.8105     69.29194      1.204     4.44     -11.9404     19.56432     36.03082         7     1.344     0.418 -34.45   0
        39    472.6023    876.9063 300.0469581 +22.7878990     199.6215     69.25658      1.270     4.32    -12.00498     19.56432     35.19579         5     1.122     0.473 -82.85   0
        40    776.0003    870.9528 300.1433608 +22.8772291     700.5336     69.34495      1.228     2.30    -11.87932     19.56432      135.774        12     0.980     0.674  -8.03   0
        41    814.0919    864.7975 300.1572328 +22.8868881     433.9209     69.25658      1.184     2.15    -11.82566     19.56432     81.46967         8     0.746     0.693   2.20   0
        42    862.3077    855.2978 300.1753507 +22.8986221     249.3337     69.52135      1.239     2.99    -11.81805     19.56432     54.24819         6     0.743     0.615 -57.98   0
        43    713.7653    854.6243 300.1292866 +22.8538734     339.7056     69.36261      1.051     2.06    -11.72596     19.56432     69.94219         6     0.665     0.595 -83.28   0
        44    725.2232    851.9824 300.1337153 +22.8565525     291.5205     69.32729      0.974     1.80    -11.70452     19.56432     73.95634         7     0.687     0.602  88.11   0
        45    426.3427    851.2484 300.0409148 +22.7666545     2003.254     69.39792      1.132     1.92    -11.77843     19.56432     325.1207        18     0.877     0.871  81.63   0
        46    151.6569    837.0920 299.9601207 +22.6801224     361.9697     69.39792      1.128     2.26    -9.922049     19.56432      65.5661         7     0.724     0.616  87.15   0
        47    128.6801    834.1412 299.9539419 +22.6723760     761.9078     69.38026      1.325     2.53    -10.06844     19.56432     116.4942        15     0.950     0.897  59.62   0
        48   1000.3174    822.8975 300.2289221 +22.9307013     1108.007     69.50373      1.210     2.02    -12.01262     19.56432     176.9828        14     0.928     0.767  19.99   0
        49    954.4886    821.4468 300.2151027 +22.9165446     1080.754     69.32729      1.083     2.16    -11.98481     19.56432     165.8485        14     0.913     0.788  28.90   0
        50    737.8533    815.1872 300.1496217 +22.8497804     230.6043     69.36261      1.116     5.05    -11.38872     19.56432     54.61794         7     1.191     0.607  46.64   0
        51    159.7939    814.7471 299.9699182 +22.6761607     278.9567     69.30962      1.801     3.83    -10.70317     19.56432     29.05422         5     1.362     0.308  59.83   0
        52    606.3391    809.3224 300.1105726 +22.8086437     2442.649     69.39792      1.105     1.81     -11.1961     19.56432     409.2657        20     1.063     0.808 -71.66   0
        53    156.6460    803.3354 299.9726523 +22.6719440     523.5889     69.36261      1.108     2.07    -11.14355     19.56432     94.50301        10     0.763     0.742  58.18   0
        54    627.1305    801.4774 300.1195982 +22.8126304     314.9635     69.45084      1.129     2.87    -11.15559     19.56432     63.61699         7     0.831     0.594 -32.26   0
        55    782.3455    789.0842 300.1719752 +22.8556323     2071.178     69.41557      1.119     1.71    -11.49785     19.56432     411.4796        17     0.935     0.765  58.60   0
        56    999.1360    788.8566 300.2396287 +22.9205706     582.6752     69.39792      1.321     2.30    -11.86082     19.56432      100.206         9     0.889     0.707  61.25   0
        57    499.4733    781.9426 300.0862158 +22.7687219     364.4393     69.38026      1.250     2.98    -11.10026     19.56432     42.66483         6     0.770     0.499 -89.13   0
        58    145.7879    779.5657 299.9770102 +22.6618691     341.8022     69.32729      1.188     2.83    -11.25568     19.56432     62.77031        10     0.927     0.696  87.42   0
        59    295.4636    771.8355 300.0260454 +22.7045916     26255.35     69.34495      1.190     1.97    -11.17875     19.56432     3970.876        65     1.160     1.089  54.83   0
        60    553.2155    770.7955 300.1065679 +22.7816495      728.023      69.2035      1.159     2.24    -11.01229     19.56432     125.7871        11     0.824     0.755  36.00   0
        61    965.9893    769.7844 300.2354962 +22.9051561     401.9064     69.29194      1.121     2.20    -11.83148     19.56432     80.86428         6     0.810     0.468 -37.63   0
        62    582.2523    766.8991 300.1168741 +22.7892433     448.9108      69.4332      1.226     2.07    -10.98839     19.56432     73.96938         7     0.689     0.620  64.10   0
        63    593.3735    765.0290 300.1209446 +22.7920432     335.6173     69.32729      1.081     2.49    -10.97588     19.56432     69.48847         7     0.817     0.611 -23.88   0
        64    736.2981    751.8816 300.1697306 +22.8311421     319.8958     69.48611      1.138     2.06    -11.13261     19.56432     81.53675         8     0.755     0.658   0.13   0
        65    345.1328    749.0424 300.0489033 +22.7129638     15480.96     69.32729      1.200     1.93    -11.13494     19.56432     2848.972        48     1.086     1.029  64.79   0
        66    359.5240    749.5244 300.0532221 +22.7174216     986.0488      69.4332      1.084     2.01    -11.13015     19.56432     140.7403        12     0.836     0.766  34.51   0
        67    868.2372    744.7092 300.2131769 +22.8686480     1234.781     69.32729      1.100     1.75    -11.24137     19.56432     253.0403        15     0.862     0.771  13.96   0
        68    356.3464    743.2854 300.0542630 +22.7146783      323.558     69.39792      1.071     2.23     -11.1181     19.56432     56.13453         5     0.676     0.468  79.97   0
        69    626.1355    740.9378 300.1389806 +22.7949577     381.5968     69.38026      1.134     2.23    -10.89848     19.56432      94.1733         9     0.800     0.703 -27.80   0
        70    227.5903    740.9955 300.0149759 +22.6753716      367.643      69.2035      1.054     2.39    -11.24872     19.56432     80.31262         8     0.792     0.657 -41.29   0
        71    164.2500    985.0461 299.9158841 +22.7263090     1162.054     69.36261      5.727    12.44     21.03112     19.56432     37.02246        21     4.389     0.981 -56.85   2
        72    473.3552    735.7125 300.0931249 +22.7476207     445.1222     69.32729      1.239     3.83    -11.04121     19.56432     73.04677        10     1.274     0.583  28.12   0
        73     60.9162    730.1582 299.9667130 +22.6222185     305.3425     69.30962      1.413     3.69    -11.32178     19.56432      36.5274         7     0.901     0.624  17.58   0
        74    225.1035    725.5466 300.0192270 +22.6701949     138.4241     69.41557      0.951     2.10    -11.16883     19.56432     55.72211         5     0.685     0.474 -17.91   0
        75    518.3221    713.6823 300.1142826 +22.7547916     391.3011     69.45084      1.540     2.53     -10.9231     19.56432      55.6336         6     0.708     0.614  46.86   0
        76    540.0429    711.3962 300.1217864 +22.7606522     677.0118     69.36261      1.162     2.03    -10.88909     19.56432      141.211        10     0.874     0.640  64.78   0
        77    934.5827    709.9736 300.2451570 +22.8785626     2182.304     69.36261      1.083     1.81    -11.47877     19.56432     395.8485        18     0.943     0.815 -53.19   0
        78    128.0193    709.9051 299.9941438 +22.6365619     3190.558     69.27426      0.725     2.04    -11.28391     19.56432      1311.22         8     0.724     0.339  -0.99   0
        79    922.9847    701.4850 300.2443015 +22.8726478     867.2066     69.30962      1.200     2.20     -11.3388     19.56432     146.9859        12     0.902     0.744  -9.83   0
        80    285.9340    695.3618 300.0479522 +22.6797981     476.6794     69.32729      1.217     2.65    -10.76623     19.56432     67.91624         8     0.760     0.675  18.76   0
        81    749.2309    692.8346 300.1929627 +22.8180684     1250.166     69.36261      1.139     1.74    -10.95222     19.56432     254.8019        12     0.834     0.702  84.84   0
        82    954.1917    691.5431 300.2572648 +22.8791467     789.4629     69.32729      1.060     1.95    -11.27956     19.56432     152.3979        11     0.830     0.725  38.50   0
        83    134.9292    679.9138 300.0060421 +22.6300372     214.5252     69.45084      1.158     3.67    -11.24787     19.56432     41.22388         5     0.638     0.607 -80.74   0
        84    831.5884    678.7390 300.2232085 +22.8387152     373.3385     69.30962      1.614     4.56    -10.90715     19.56432     47.31775         6     1.005     0.588  32.91   0
        85    867.7858    669.7284 300.2374203 +22.8469794     73286.77     69.34495      1.120     1.77    -10.87661     19.56432     14614.43       100     1.127     1.122  50.25   0
        86   1014.9025    671.3163 300.2827754 +22.8915323     655.0763     69.50373      1.111     1.88    -11.04291     19.56432     108.4632         8     0.713     0.617 -35.66   0
        87    720.3000    670.1690 300.1913202 +22.8028851     359.0285     69.32729      0.822     1.65    -10.85644     19.56432     87.46447         5     0.638     0.451  79.48   0
        88    554.1782    658.5859 300.1433578 +22.7497362     918.0089     69.32729      1.164     2.06    -10.71764     19.56432     159.4063        12     0.877     0.736  47.32   0
        89    735.2527    655.8883 300.2006213 +22.8032686     4721.602     69.36261      1.128     1.79    -10.79006     19.56432     926.0043        24     0.973     0.835  66.47   0
        90    236.8421    651.2644 300.0470278 +22.6524147     2395.995     69.32729      1.215     2.12    -10.70194     19.56432     392.5754        16     0.885     0.851  14.10   0
        91    319.0203    649.1978 300.0732487 +22.6764860     631.2296     69.27426      1.224     2.29    -10.51849     19.56432     101.1556         8     0.805     0.640 -87.92   0
        92    527.2374    644.5690 300.1395293 +22.7376316      348.431     69.36261      0.964     2.53    -10.63127     19.56432     66.26183         6     0.859     0.426  89.91   0
        93    518.7810    636.8411 300.1394097 +22.7328769     1562.632     69.36261      1.201     2.06    -10.58217     19.56432     269.7766        15     0.911     0.779 -68.90   0
        94    508.9822    630.5083 300.1384188 +22.7281198     690.0115     69.27426      1.039     1.86    -10.54669     19.56432     126.4475         8     0.719     0.635  87.49   0
        95    172.1633    626.8151 300.0348734 +22.6259879     361.2711     69.34495      1.107     3.39    -10.99589     19.56432     55.21208         7     0.936     0.600  -3.25   0
        96    212.4726    622.0717 300.0489428 +22.6367268     230.5914     69.39792      1.208     3.24    -10.79124     19.56432     37.61938         6     0.778     0.497 -85.50   0
        97    433.7073    620.4311 300.1182717 +22.7026454     845.1577     69.27426      1.173     2.40    -10.48443     19.56432     159.2343        11     0.921     0.687 -65.65   0
        98     87.7798    615.3923 300.0123685 +22.5973802       9756.7     69.30962      1.245     2.16    -10.99143     19.56432     1393.897        39     1.107     1.039  54.96   0
        99   1009.7422    617.3146 300.2987233 +22.8744703     367.0515     69.45084      1.156     3.75    -10.59752     19.56432     78.34927         6     0.951     0.456 -26.34   0
       100    518.6992    615.5626 300.1463013 +22.7267450     549.2554     69.34495      1.072     2.77    -10.44462     19.56432     82.18884        11     0.948     0.723  69.81   0
       101      8.9171    616.9308 299.9873748 +22.5741434     373.7378     69.45084      1.328     3.64    -10.77021     19.56432     51.67802         5     0.674     0.565 -87.56   0
       102    936.6944    601.6700 300.2810291 +22.8480843     540.7451     69.45084      1.055     2.15    -10.55877     19.56432     107.8946         9     0.792     0.662  -6.43   0
       103     33.7472    599.3961 300.0007848 +22.5765712     839.7629     69.34495      1.632     4.05    -10.76405     19.56432     99.51659        16     1.364     0.884  83.53   0
       104    876.8079    594.0247 300.2648441 +22.8279390     352.3007     69.34495      1.664     3.25    -10.56493     19.56432     49.90477         7     1.089     0.429  33.19   0
       105    438.9420    588.5306 300.1302692 +22.6950610     313.8561     69.36261      1.016     2.42    -10.32069     19.56432     62.65247         7     0.855     0.553  57.69   0
       106    586.7967    587.1917 300.1767202 +22.7390258     252.8001     69.16809      1.026     1.78    -10.33703     19.56432     63.27505         6     0.663     0.544 -48.11   0
       107    634.2194    585.4505 300.1920515 +22.7527475     210.5428     69.32729      1.251     2.79    -10.41324     19.56432     35.95173         5     0.714     0.464  19.43   0
       108    604.1476    585.0088 300.1828317 +22.7436026     223.4446     69.34495      1.192     2.68    -10.39859     19.56432     47.88599         5     0.624     0.584  -1.55   0
       109    483.0018    584.3954 300.1453225 +22.7070913     565.6588     69.16809      1.309     2.05    -10.15127     19.56432      85.0594         8     0.784     0.601 -88.11   0
       110    916.6793    579.6757 300.2819379 +22.8357669     1586.171     69.45084      1.046     1.82    -10.56493     19.56432     322.2829        14     0.853     0.727  57.06   0
       111    448.5452    579.8588 300.1360755 +22.6954530      698.557     69.39792      1.080     2.03    -10.23944     19.56432     126.7063        11     0.899     0.726  34.51   0
       112   1014.5554    577.9426 300.3130229 +22.8645992     442.0281     69.38026      1.037     2.04    -10.39328     19.56432     72.38408         6     0.728     0.483  77.43   0
       113     10.6008    573.4598 300.0020256 +22.5621850     2358.325     69.30962      1.260     2.37    -10.68309     19.56432     292.9743        22     1.012     0.974  72.37   0
       114    311.9810    566.6766 300.0978822 +22.6506981     4499.848     69.34495      1.160     1.97    -10.40163     19.56432     777.6168        24     0.974     0.869  52.18   0
       115    434.4832    563.6440 300.1369702 +22.6865809      4396.47     69.30962      1.092     2.01    -10.23859     19.56432     668.8916        26     0.983     0.914  82.05   0
       116    846.0669    557.5495 300.2671175 +22.8082469     858.4135     69.32729      1.072     1.82    -10.49814     19.56432     159.8011        10     0.784     0.681 -43.74   0
       117    930.6522    554.7503 300.2943955 +22.8327930     6134.836     69.38026      1.085     1.82    -10.55858     19.56432     1144.283        30     0.980     0.917 -52.85   0
       118    494.9927    553.2463 300.1591773 +22.7017470     5770.852     69.36261      1.160     1.87    -9.828971     19.56432     1079.151        27     1.002     0.888  84.04   0
       119    222.3465    548.6904 300.0758606 +22.6186404     647.4436     69.38026      1.103     2.37    -10.62393     19.56432     100.6648        10     0.819     0.753  16.74   0
       120    426.6813    541.4485 300.1417557 +22.6778702     2174.659     69.38026      1.107     1.87    -10.19961     19.56432     365.6088        18     0.929     0.819  87.90   0
       121    769.4834    541.2434 300.2485512 +22.7806073     368.3319     69.30962      0.922     1.65    -10.28858     19.56432     70.01018         5     0.633     0.462  63.78   0
       122    405.0176    540.0239 300.1354792 +22.6709626     675.3921     69.34495      1.277     2.50     -10.2839     19.56432     115.5653        11     0.996     0.732  25.12   0
       123    159.1621    539.2774 300.0592824 +22.5969775     458.3892     69.32729      1.396     3.40    -10.74052     19.56432      58.3054        10     1.036     0.653 -14.35   0
       124    846.3558    536.8865 300.2739227 +22.8023975      849.805     69.32729      1.203     1.95    -10.47573     19.56432     141.3898        13     0.908     0.767 -51.55   0
       125    726.9669    533.8309 300.2377141 +22.7657328     252.0314     69.36261      1.118     2.27    -10.19508     19.56432     67.44897         7     0.709     0.630   5.39   0
       126    543.3066    528.9360 300.1821141 +22.7092583       100198     69.45084      1.178     1.95    -9.717425     19.56432     17522.88       122     1.206     1.199 -72.56   0
       127    229.3960    529.0487 300.0844342 +22.6151208     1707.259     69.32729      1.191     2.07    -10.57152     19.56432     275.1575        18     0.985     0.806 -79.64   0
       128    794.9875    524.5132 300.2619348 +22.7834465     256.6714     69.29194      1.288     3.97    -10.30044     19.56432     38.99026         5     0.878     0.514  44.09   0
       129    433.9514    509.5365 300.1543868 +22.6708912     1453.813     69.38026      1.383     2.29    -9.941364     19.56432     229.2433        19     1.441     0.733 -84.62   0
       130    277.9671    511.5048 300.1052339 +22.6246615      254.904     69.32729      1.239     3.68    -10.40548     19.56432     33.66315         6     0.790     0.492   8.10   0
       131    830.8743    495.2912 300.2826136 +22.7858076     927.3061     69.50373      1.209     2.14    -10.33372     19.56432       135.95        10     0.769     0.721  74.75   0
       132    702.0784    493.0380 300.2432162 +22.7465553     1173.161     69.32729      1.118     1.82    -9.898388     19.56432     261.2747        11     0.806     0.684 -78.44   0
       133    945.6284    490.3759 300.3199841 +22.8187826     306.1754     69.34495      1.792     3.76    -10.33724     19.56432     38.84891         5     0.996     0.408 -73.49   0
       134    489.3272    488.9925 300.1782922 +22.6816024     275.2157     69.32729      1.134     2.75    -9.649632     19.56432     48.65074         7     0.708     0.676 -75.51   0
       135    959.3138    486.7117 300.3254421 +22.8218301     563.5125     69.48611      1.142     1.65    -10.31053     19.56432     136.7066        10     0.828     0.721 -79.90   0
       136    944.8062    485.8125 300.3212104 +22.8172249      283.242      69.2212      1.187     2.63    -10.32656     19.56432       67.298         6     0.843     0.547  25.46   0
       137    831.0585    485.7827 300.2857604 +22.7831309     1029.044     69.29194      1.244     1.89    -10.31366     19.56432     175.2828        12     0.915     0.712  28.95   0
       138    869.2156    480.4890 300.2993734 +22.7930448     2038.527     69.27426      1.092     1.91    -10.33397     19.56432     337.0961        18     0.972     0.759  88.45   0
       139    961.0372    470.7373 300.3311695 +22.8177555     330.5625     69.36261      1.094     2.54    -10.29901     19.56432     62.86278         7     0.719     0.642 -29.41   0
       140    101.4257    470.8139 300.0635861 +22.5600103      389.852     69.34495      1.114     2.35    -10.62913     19.56432     74.63358         7     0.862     0.488  83.44   0
       141     93.6557    460.8532 300.0644078 +22.5548211      313.724     69.38026      1.372     2.18    -10.62659     19.56432     48.86568         5     0.724     0.425  68.73   0
       142    642.4434    451.0900 300.2382708 +22.7166297     404.4971     69.34495      1.283     3.38    -9.699646     19.56432      71.7827         7     0.959     0.525 -62.22   0
       143    957.4522    443.3981 300.3389332 +22.8088240      398.321     69.30962      1.224     2.70    -10.31654     19.56432      61.7771         7     0.801     0.661 -82.44   0
       144    703.5015    443.2158 300.2598452 +22.7326711      387.731     69.25658      1.172     2.41    -9.757284     19.56432     74.09739         8     0.756     0.718  87.23   0
       145    860.9768    439.4533 300.3101364 +22.7787846     457.8595     69.36261      1.100     2.85    -10.01743     19.56432     85.44101         8     0.880     0.695  39.39   0
       146    845.0888    435.5513 300.3064517 +22.7729026     337.8166     69.32729      1.288     2.82    -9.968239     19.56432     55.32246         7     0.848     0.574 -81.07   0
       147    589.2943    433.8628 300.2273175 +22.6957481     1580.652      69.4332      1.147     1.94    -9.658262     19.56432     262.6275        17     0.897     0.883 -11.50   0
       148    949.7814    432.4370 300.3401019 +22.8033755     260.3362     69.34495      1.228     3.42    -10.32378     19.56432     33.88465         5     0.737     0.460 -18.89   0
       149   1000.7460    412.8715 300.3623510 +22.8130188     639.5729     69.36261      1.083     2.06    -10.33736     19.56432     119.7601        10     0.848     0.696  87.91   0
       150    959.0057    411.3422 300.3498303 +22.8000757     505.2873     69.30962      1.179     2.13    -10.31017     19.56432     77.29767         7     0.703     0.623 -14.67   0
       151    699.8907    407.8396 300.2702110 +22.7214264     605.0878     69.34495      1.136     2.22    -9.719484     19.56432      113.814         9     0.783     0.749 -10.18   0
       152    495.7426    408.6198 300.2063962 +22.6604497     248.5573     69.34495      1.327     3.52    -9.567149     19.56432      32.6758         5     0.784     0.455  15.26   0
       153    203.9290    405.9425 300.1165081 +22.5721562     286.2969     69.36261      1.398     4.57    -10.23547     19.56432     37.27456         7     0.881     0.673  36.75   0
       154    266.2942    401.8398 300.1372271 +22.5896884     1828.082     69.36261      1.211     2.20    -10.14702     19.56432     264.6977        16     0.977     0.782  43.91   0
       155    999.2581    400.1216 300.3660281 +22.8089080     2095.634     69.38026      1.118     1.76    -10.35933     19.56432     433.8895        18     0.940     0.815  86.89   0
       156    213.4395    396.5636 300.1225099 +22.5723180     3840.023     69.41557      1.179     2.10    -10.20381     19.56432     492.5093        26     1.039     0.961 -82.59   0
       157    979.3035    391.0515 300.3627505 +22.8003235     864.1152     69.41557      1.156     2.16    -10.31081     19.56432     156.9203        12     0.854     0.745 -79.17   0
       158    354.2797    390.7510 300.1681881 +22.6128968     2368.852     69.34495      1.161     2.02    -9.945675     19.56432     407.6481        19     0.925     0.867 -81.70   0
       159    598.4015    387.4211 300.2452366 +22.6851399     9086.812     69.27426      1.124     2.07    -9.642645     19.56432     1273.972        35     1.057     0.940  76.07   0
       160    615.2006    387.7398 300.2503637 +22.6902673     386.3967     69.30962      1.429     3.85    -9.686425     19.56432     46.28292         6     0.949     0.570  65.74   0
       161    931.8148    369.8916 300.3548136 +22.7800157      309.615     69.27426      1.018     2.26     -10.0222     19.56432     68.40446         6     0.776     0.494  62.89   0
       162    153.0928    367.7343 300.1131165 +22.5459399     925.2502     69.46848      1.186     2.21     -10.1628     19.56432     140.7863        13     0.995     0.697  84.65   0
       163    952.7169    357.1094 300.3654822 +22.7826026     487.0406     69.46848      1.094     1.83    -10.09336     19.56432     114.3831        10     0.812     0.676 -61.39   0
       164    539.0645    356.8887 300.2366791 +22.6585824      3155.74     69.46848      1.201     2.03    -9.244692     19.56432     550.7543        22     0.974     0.875  68.57   0
       165    253.8434    356.0847 300.1482139 +22.5728210     461.5247     69.30962      1.414     3.25    -10.08617     19.56432     55.39878         8     0.919     0.649  63.21   0
       166    111.2441    349.4127 300.1060621 +22.5281266     237.3172     69.34495      1.063     3.89    -10.13007     19.56432     38.08615         5     0.981     0.441  14.45   0
       167    652.5540    347.3004 300.2751274 +22.6898470     241.7728     69.36261      1.063     4.37    -9.742042     19.56432     35.82338         7     1.223     0.444 -50.04   0
       168    743.1517    345.8875 300.3038064 +22.7165920     537.2138     69.34495      1.273     2.30    -9.765338     19.56432     81.12769         8     0.782     0.635  50.28   0
       169    445.7038    343.2116 300.2120652 +22.6266638     2911.596     69.25658      1.164     1.92    -9.133557     19.56432     508.7473        21     0.971     0.863 -82.05   0
       170    837.6098    337.2557 300.3360436 +22.7424136     539.1826     69.34495      0.981     1.79    -9.828113     19.56432     123.7045        10     0.863     0.615 -49.11   0
       171    810.4761    324.8600 300.3316118 +22.7307218     184.0065     69.39792      0.903     1.81    -9.783374     19.56432     64.00098         5     0.675     0.447  63.76   0
       172    333.2690    322.3878 300.1838509 +22.5869695     1186.043     69.36261      1.158     2.35    -9.721781     19.56432       168.47        16     0.961     0.840  65.26   0
       173     51.7521    320.0448 300.0971152 +22.5018495     474.5047     69.36261      1.200     2.46     -10.1227     19.56432     81.61131        10     0.839     0.767 -61.67   0
       174    680.6209    317.5830 300.2935174 +22.6897206     163.0039     69.32729      1.098     3.44    -9.811732     19.56432     24.95659         5     1.060     0.323 -68.98   0
       175    302.6248    311.8936 300.1777282 +22.5747666     14635.24     69.29194      1.212     2.06    -9.721588     19.56432     2265.794        46     1.126     1.020  66.15   0
       176    837.1898    309.2248 300.3450137 +22.7342312     700.4623     69.34495      1.068     1.80    -9.843114     19.56432      149.032        11     0.839     0.678  45.80   0
       177    752.9124    297.8888 300.3224312 +22.7057237     250.3863     69.50373      1.006     2.45    -9.768311     19.56432     54.12873         5     0.748     0.501 -57.29   0
       178    713.0189    291.6378 300.3120321 +22.6919739      1000.23     69.34495      1.207     2.19    -9.807047     19.56432     146.1214        14     0.966     0.751  83.28   0
       179    928.0951    284.1869 300.3814810 +22.7542638     228.3015     69.27426      1.055     1.76    -10.14485     19.56432     67.71995         6     0.697     0.512  45.80   0
       180    374.8319    276.1967 300.2117725 +22.5861699      1151.53     69.32729      1.406     2.89    -9.390924     19.56432     131.4253        16     1.169     0.768  68.53   0
       181    813.7512    268.6512 300.3508801 +22.7155476     340.5361     69.38026      1.215     2.22    -9.797779     19.56432     67.54539         7     0.809     0.542  58.76   0
       182    696.1494    266.5487 300.3149214 +22.6797095      294.468     69.38026      1.256     2.20    -9.838197     19.56432     42.08181         5     0.692     0.465 -20.34   0
       183    450.6410    255.5472 300.2420595 +22.6029679     683.4966     69.34495      1.228     2.96     -9.24039     19.56432     74.33891        11     0.980     0.730  82.24   0
       184    695.3842    247.4423 300.3208846 +22.6739896     1135.938     69.36261      1.168     2.16    -9.839888     19.56432     142.7207        14     0.928     0.820 -68.38   0
       185    956.7188    241.6695 300.4042077 +22.7506114     1569.043     69.45084      1.099     1.88    -10.09257     19.56432     279.5232        16     0.928     0.803  64.19   0
       186    403.8497    230.9152 300.2354957 +22.5818659     310.0159     69.32729      1.286     3.95    -9.219372     19.56432     33.68858         6     0.786     0.567  44.63   0
       187     78.6635    225.6510 300.1361118 +22.4828359     706.9027     69.39792      1.491     3.77    -9.600334     19.56432     82.12141        14     1.145     0.864 -43.88   0
       188    109.3288    225.4393 300.1457074 +22.4919738     149.0762     69.30962      0.986     3.52    -9.622982     19.56432     46.53417         7     0.923     0.527  61.47   0
       189    162.6996    217.2723 300.1649416 +22.5056378     393.5617     69.50373      1.296     2.91    -9.568149     19.56432     48.29638         6     0.713     0.628  30.02   0
       190    767.1592    208.7656 300.3557976 +22.6843766     265.4167     69.39792      0.977     2.06    -9.749524     19.56432     52.53284         6     0.688     0.553 -56.31   0
       191    865.1990    197.7392 300.3899305 +22.7105721     986.5306     69.30962      1.121     1.82    -9.790874     19.56432     193.2363        12     0.845     0.727  89.17   0
       192    283.7858    195.3738 300.2096873 +22.5356622     1053.184     69.36261      1.153     2.16    -9.350767     19.56432       169.27        12     0.873     0.732 -59.52   0
       193    361.8118    190.2347 300.2356199 +22.5575797     384.5325     69.32729      1.157     2.75    -9.247255     19.56432     60.25588         8     0.789     0.662  28.07   0
       194    178.2047    182.0892 300.1811763 +22.5001876     355.1558     69.25658      1.297     3.55    -9.324847     19.56432     58.18635         7     0.982     0.571  58.45   0
       195    625.9518    180.8312 300.3208768 +22.6340433      2413.78     69.38026      0.483     0.84    -9.712726     19.56432     1718.173         7     0.435     0.317  80.34   0
       196    716.3291    179.1887 300.3495588 +22.6606481     848.6495     69.36261      1.235     2.43    -9.724608     19.56432     112.2063        13     0.887     0.822  47.62   0
       197    781.8225    178.1316 300.3703073 +22.6799628     240.6178     69.36261      1.408     4.40    -9.701416     19.56432     48.88187         6     1.227     0.449 -55.11   0
       198    199.7672    175.5772 300.1899909 +22.5047843     297.4309     69.34495      1.267     2.60    -9.266375     19.56432     35.40023         5     0.699     0.471  16.86   0
       199    987.8354    171.5315 300.4366734 +22.7397586     381.4786     69.34495      1.103     2.07    -9.631351     19.56432     81.23064         8     0.786     0.631 -56.94   0
       200    720.4120    170.3368 300.3537028 +22.6593269     560.3554     69.32729      1.716     3.41    -9.712477     19.56432     55.45148        12     1.045     0.782 -87.24   0
       201    640.8961    169.8834 300.3290828 +22.6353746     687.9394     69.52135      1.176     1.87    -9.671636     19.56432     130.7904         8     0.714     0.656 -50.63   0
       202    836.3911    161.5329 300.3926992 +22.6915345      721.127     69.34495      1.131     2.16     -9.66142     19.56432     115.8492        13     0.936     0.780  80.17   0
       203    567.1092    161.6187 300.3087892 +22.6108908     478.9987     69.27426      1.190     2.04    -9.552635     19.56432     101.5821        11     0.965     0.646  77.80   0
       204    848.1694    160.5252 300.3966973 +22.6947721     332.2758     69.36261      1.187     3.73    -9.658686     19.56432     50.73954         6     0.804     0.498  -3.73   0
       205   1009.0801    151.1710 300.4499059 +22.7402628     833.1998     69.36261      1.201     2.11    -9.439307     19.56432     140.5661        11     0.896     0.661  72.41   0
       206    964.9235    150.5974 300.4363201 +22.7268779     618.5331     69.25658      1.236     2.16    -9.445993     19.56432      102.856        10     0.922     0.706 -88.44   0
       207    199.3479    143.7899 300.2001730 +22.4955318      212.707     69.34495      1.192     3.17    -9.130674     19.56432     52.60595         6     0.841     0.681 -18.79   0
       208     61.1635    138.9280 300.1588122 +22.4526951     1055.921     69.29194      1.298     2.28    -9.320354     19.56432     172.2855        16     1.019     0.850  60.50   0
       209    884.1613    135.5466 300.4160210 +22.6983676     313.2739     69.34495      1.213     2.82    -9.402204     19.56432     58.16098         7     0.848     0.566 -83.78   0
       210    218.4547    132.2379 300.2098595 +22.4979439     2769.868     69.34495      1.224     2.23    -9.061808     19.56432     384.3532        21     1.037     0.877  72.34   0
       211    199.6964    133.4041 300.2036504 +22.4926541     140.6995     69.25658      1.119     4.89    -9.101558     19.56432     31.81287         6     0.931     0.727 -80.04   0
       212      2.6876    126.5379 300.1446688 +22.4315990     687.2576     60.90004      1.366     3.00     -9.28833     19.56432     84.88533        12     0.966     0.853   2.76  24
       213    201.3700    123.0297 300.2075358 +22.4901771     427.3645     69.30962      1.327     3.10     -9.07403     19.56432     45.38177         7     0.816     0.612 -67.62   0
       214   1017.1726    119.3794 300.4627442 +22.7335406     9035.676     69.32729      1.184     1.97    -9.163084     19.56432     1421.155        32     1.046     0.946  80.65  16
       215    862.4806    113.5960 300.4163833 +22.6855633     1733.145     69.25658      1.157     2.04    -9.231284     19.56432     244.4218        18     0.984     0.836  62.29   0
       216    966.1580    112.2146 300.4491572 +22.7162078     1327.525     69.36261      1.190     2.03      -9.1409     19.56432     243.5565        14     0.890     0.812  87.00   0
       217    412.0361    108.0533 300.2779046 +22.5490282     273.4756     69.36261      1.217     3.58    -9.117302     19.56432     53.20132         7     1.042     0.539 -42.48   0
       218    336.0218    101.0300 300.2565375 +22.5242269      370.155     69.34495      1.409     4.48    -9.003172     19.56432     36.84433         7     0.877     0.651  54.82   0
       219    102.2420     97.9203 300.1848750 +22.4532427     292.8868     69.32729      1.291     2.43    -9.155386     19.56432     53.25314         5     0.784     0.453 -32.59   0
       220    463.2780     96.3138 300.2976562 +22.5610121     872.1675     69.48611      1.250     2.48    -9.072829     19.56432     118.8957        12     0.922     0.746  76.01   0
       221    391.5276     96.7018 300.2752063 +22.5396205     135.1615     69.46848      1.087     4.21    -9.072691     19.56432     43.37381         6     1.019     0.497  86.91   0
       222    751.9505     85.0393 300.3911996 +22.6442522     242.2077     69.34495      1.040     2.16    -9.059171     19.56432     45.46444         5     0.615     0.562   1.79   0
       223    237.3635     76.0960 300.2339470 +22.4874905     2845.111     69.34495      1.244     2.28    -8.753231     19.56432     401.1525        22     1.061     0.927  66.25   0
       224     88.5111     75.3745 300.1879210 +22.4426521     413.4145     69.29194      1.137     2.66    -9.002625     19.56432     56.84958         7     0.876     0.491  82.73   0
       225    483.3549     61.3092 300.3152570 +22.5569698     2968.466     69.32729      1.192     2.24    -8.933378     19.56432      420.297        21     1.032     0.875  53.62   0
       226    369.0853     61.0974 300.2797724 +22.5226657     288.5673     69.50373      1.263     2.38    -8.637467     19.56432     60.93219         7     0.837     0.512  50.10   0
       227    735.8351     50.7863 300.3972877 +22.6295773     529.8999     69.34495      1.144     1.90    -8.561868     19.56432     75.09956         6     0.664     0.556  42.94   0
       228    828.6643     49.5491 300.4266160 +22.6570192     259.5651     69.39792      1.087     3.58    -8.605494     19.56432     34.93803         6     0.882     0.471 -87.80   0
       229    611.8094     41.3725 300.3617101 +22.5897237     2988.095     69.34495      1.210     2.13    -8.535941     19.56432     444.3119        23     1.041     0.894  84.36   0
       230    387.0036     40.5935 300.2919953 +22.5221448     557.5286     69.16809      1.164     2.70    -8.432961     19.56432     107.1617         9     0.920     0.630  72.20   0
       231    652.7003     38.8837 300.3752512 +22.6012564     420.3684     69.50373      1.252     2.07    -8.454501     19.56432     81.69072         8     0.777     0.627  -2.65   0
       232    135.5893     32.7460 300.2163719 +22.4445286     366.9958     69.34495      1.475     3.72    -9.051944     19.56432     52.06583         9     1.058     0.745  80.12   0
       233    938.8743     32.1954 300.4666021 +22.6850226     337.6536     69.27426      1.331     3.34    -8.996536     19.56432     58.44242         6     1.040     0.402  62.69   0
       234    707.3435     30.1012 300.3951194 +22.6150972     174.0627      69.4332      1.132     2.98    -8.306782     19.56432     39.57742         7     0.732     0.656  71.98   0
       235    656.0701     26.3938 300.3803508 +22.5986750     1338.662     69.30962      1.217     2.24    -8.359282     19.56432     208.6354        14     0.907     0.800  86.15   0
       236    670.7235     24.4392 300.3855485 +22.6025019      267.855     69.32729      1.075     3.15    -8.312133     19.56432     46.18562         5     0.713     0.477 -15.14   0
       237    742.2728     17.6480 300.4100394 +22.6219766     677.6906     69.34495      1.069     2.37    -8.102035     19.56432     114.5439         9     0.895     0.614  69.86   0
       238    180.8852    974.0914 299.9246192 +22.7281669     623.6058     69.50373      2.166     3.87     14.80689     19.56432     38.34963         5     0.999     0.431 -44.35   1
       239    285.9762   1007.1661 299.9465155 +22.7692122     480.5613     69.36261      1.199     2.64    -10.34012     19.56432     88.76604         9     0.888     0.638  59.16   0
       240    163.0010    993.3427 299.9127951 +22.7283112     1486.041     69.29194      5.598    12.29     24.58277     19.56432     53.63146        31     3.005     1.400  28.38   2
       241    166.4834   1001.3326 299.9112761 +22.7316468     690.5226     69.45084      3.013     4.54     27.79137     19.56432     32.50336         5     1.153     0.507  56.79   3
