#   1 NUMBER                 Running object number                                     
#   2 X_IMAGE                Object position along x                                    [pixel]
#   3 Y_IMAGE                Object position along y                                    [pixel]
#   4 ALPHA_J2000            Right ascension of barycenter (J2000)                      [deg]
#   5 DELTA_J2000            Declination of barycenter (J2000)                          [deg]
#   6 FLUX_APER              Flux vector within fixed circular aperture(s)              [count]
#   7 FLUXERR_APER           RMS error vector for aperture flux(es)                     [count]
#   8 FLUX_RADIUS            Fraction-of-light radii                                    [pixel]
#   9 FWHM_IMAGE             FWHM assuming a gaussian core                              [pixel]
#  10 BACKGROUND             Background at centroid position                            [count]
#  11 THRESHOLD              Detection threshold above background                       [count]
#  12 FLUX_MAX               Peak flux above background                                 [count]
#  13 ISOAREA_IMAGE          Isophotal area above Analysis threshold                    [pixel**2]
#  14 A_IMAGE                Profile RMS along major axis                               [pixel]
#  15 B_IMAGE                Profile RMS along minor axis                               [pixel]
#  16 THETA_IMAGE            Position angle (CCW/x)                                     [deg]
#  17 FLAGS                  Extraction flags                                          
         1    284.2998     12.1264 300.2740637 +22.4749598     651.8561     69.68238      1.326     2.58    -9.045898     19.62456     86.07526        12     0.900     0.822  29.99   0
         2    729.2839     12.0095 300.4126004 +22.6082231     326.5157     69.50529      1.346     4.15    -8.079054     19.62456     50.65189         9     1.161     0.590  34.39   0
         3    767.5483      7.4909 300.4259877 +22.6183809     277.1541     69.59389      1.305     3.72    -7.977568     19.62456      30.5703         6     0.949     0.418  18.78   0
         4    787.4295      3.6036 300.4334433 +22.6232156     1019.049     64.80741      1.204     2.27     -7.92828     19.62456     156.5533        14     0.917     0.813  79.92  16
         5    493.3428      2.1064 300.3423427 +22.5347156     266.2185     58.27932      1.350     5.40    -8.931283     19.62456     31.87928         7     0.996     0.825 -55.31  24
         6    631.0746   1002.8469 300.0600585 +22.8632370     4076.883     69.55847      1.207     1.96    -13.19057     19.62456     688.9502        25     0.981     0.954  10.46   3
         7    128.5410   1023.3486 299.8970899 +22.7182215     555.0742     55.97094      2.268     7.14     24.15949     19.62456     49.77858        13     2.052     0.696   2.01  24
         8     76.7600   1012.8727 299.8844160 +22.6996650     2468.319     69.54075     18.251    59.12     11.13622     19.62456     67.74593       721    13.059     7.427  37.57  27
         9     58.5576    973.5027 299.8915795 +22.6829217     2268.744     69.55847     15.772    19.42    -3.061511     19.62456     52.73615       104     3.979     2.633  76.97   3
        10     76.1044    968.3309 299.8987128 +22.6867119     2783.564     69.68238     26.253    69.75   -0.2327509     19.62456     70.48011      1107    14.357     9.402  65.09  19
        11    636.6409   1000.5210 300.0625490 +22.8642406     4454.953     69.54075      1.149     2.06    -13.23465     19.62456      649.247        24     0.982     0.924 -45.05   3
        12    166.1873   1013.5039 299.9119916 +22.7267109     1018.904     69.48756      5.286     6.03     22.06999     19.62456     41.78172        10     1.572     0.649   0.17   3
        13    731.2253   1003.4087 300.0910650 +22.8934504      272.897     69.55847      1.157     2.35    -13.69675     19.62456     56.58328         6     0.656     0.642 -68.59   0
        14    164.5137    993.7280 299.9179100 +22.7205437     799.3198     69.68238      2.813     6.26     15.31568     19.62456     35.13754        10     1.332     0.827  44.73   0
        15    197.1715    990.6125 299.9290723 +22.7294606     305.3867     69.55847      1.805     3.72     13.18352     19.62456     31.00949         5     1.487     0.267 -40.48   1
        16     75.6770    938.2761 299.9083628 +22.6779755     2091.412       69.647     19.215    28.27    -7.525627     19.62456     52.22913       180     8.891     2.496 -22.94   3
        17    924.0751    986.5744 300.1566434 +22.9464718     317.3409     69.57619      1.216     2.97    -13.59603     19.62456     53.86248         7     0.873     0.558 -79.18   0
        18     74.9139    926.8423 299.9118471 +22.6744714     2050.237     69.52303     17.142    27.27    -9.832803     19.62456      47.0523       182     6.254     3.301 -32.55   3
        19    649.4014    969.9405 300.0764787 +22.8593010     3426.548     69.52303      1.284     2.20    -13.18382     19.62456     453.1288        24     1.083     0.927  38.35   0
        20    544.6018   1007.5935 300.0315943 +22.8386448     1093.054     69.38107      1.166     2.31    -12.81246     19.62456     157.5721        13     0.880     0.800 -36.02   0
        21     97.7928    953.6815 299.9102180 +22.6890313     1311.831     69.48756     12.672    13.24   -0.2159824     19.62456     38.19602        35     2.545     1.917 -68.34   3
        22    557.8068    960.8029 300.0509381 +22.8291939      697.191     69.38107      1.180     2.11    -12.78885     19.62456     124.4873         9     0.810     0.655 -19.40   0
        23    451.8174    957.1100 300.0191578 +22.7963224      466.417     69.48756      1.323     2.29    -12.90671     19.62456     76.43647         5     0.706     0.508  57.14   0
        24    382.4370    955.1143 299.9982255 +22.7749223     3178.534     69.54075      1.206     1.98    -12.91976     19.62456     472.2473        27     1.048     0.963 -58.90   0
        25    109.5542    954.8931 299.9134771 +22.6929113     1066.372     69.57619      7.679     8.42    0.5428712     19.62456      45.1791        16     1.718     1.153 -31.48   1
        26    196.1208   1002.1729 299.9249822 +22.7324565     1708.305     69.55847      6.386    14.68     17.14827     19.62456     61.64595        53     2.813     2.280 -77.20   2
        27     59.0833    987.7635 299.8871004 +22.6871637     1911.111     69.54075     20.649    30.46    -0.741105     19.62456     47.13838       181     6.697     3.846  25.00  19
        28    352.7238   1014.3268 299.9697076 +22.7829696     150.0455      69.6293      1.096     2.83    -12.91976     19.62456     42.26855         6     0.710     0.624  50.16   0
        29    928.6156    933.8808 300.1752142 +22.9327137      1117.59     69.54075      1.229     2.36    -13.08103     19.62456     173.7096        16     0.992     0.845  82.65   0
        30    208.1855   1009.3726 299.9263874 +22.7381427      1163.56     69.57619      5.425     8.12     19.35949     19.62456     51.66335        18     1.465     1.343  56.08   3
        31    717.4259    922.8584 300.1129903 +22.8662078     419.1049     69.55847      1.730     5.04    -13.31529     19.62456     39.29742         8     1.255     0.572  72.59   0
        32    217.4447   1001.4721 299.9318373 +22.7386605     2275.677     69.54075     11.813    23.99     16.18398     19.62456     52.65771       147     4.583     3.487 -65.14  19
        33    752.0349    916.9777 300.1256853 +22.8749031     472.8378     69.57619      1.197     2.26    -13.25782     19.62456     99.18114         9     0.830     0.668 -64.78   0
        34    774.4769    910.5515 300.1347686 +22.8797915     5670.642     69.55847      1.101     1.96     -13.0544     19.62456     783.1586        28     1.008     0.920 -75.27   0
        35    819.8325    910.4489 300.1489344 +22.8933662     270.5915     69.59389      1.087     2.64    -12.85147     19.62456     40.67596         5     0.719     0.451 -22.01   0
        36     85.7041    902.3535 299.9231683 +22.6706979     502.0108     69.57619      1.840     4.80    -10.40112     19.62456     42.43546         8     0.959     0.748  36.58   0
        37    826.0003    897.7825 300.1549791 +22.8915819     175.5524     69.46983      1.044     3.65    -12.82636     19.62456     39.01513         5     1.171     0.327  66.49   0
        38    782.9417    892.5827 300.1432544 +22.8771755     724.1423     69.50529      1.180     1.80    -12.91258     19.62456     127.4137         9     0.785     0.679   5.72   0
        39    634.8173    890.0781 300.0979332 +22.8320221     332.1678     69.55847      1.348     4.05    -12.78749     19.62456      46.1012         7     0.984     0.538  73.02   0
        40    821.4037    886.3524 300.1572668 +22.8869238     361.0831     69.54075      1.069     2.44    -12.80654     19.62456      74.9154         6     0.855     0.439 -72.69   0
        41    869.7016    877.4469 300.1752175 +22.8988527     279.1617     69.59389      0.959     2.55    -12.78528     19.62456     64.86333         6     0.846     0.454 -85.65   0
        42    720.8417    876.1279 300.1292636 +22.8538279     233.5879     69.54075      1.075     2.10    -12.91122     19.62456     74.55632         7     0.671     0.661  65.55   0
        43    433.5543    872.9709 300.0408609 +22.7667207     2161.151     69.59389      1.177     1.94    -12.80441     19.62456     343.4664        17     0.948     0.808  79.17   0
        44    732.1876    873.3760 300.1336933 +22.8564418     323.8143     69.55847      1.611     2.33    -12.91382     19.62456     38.98987         5     0.698     0.459  17.11   0
        45    236.3840    990.2516 299.9413766 +22.7411344     3867.075     69.55847      8.074    28.30      7.63715     19.62456      101.799       333     7.885     3.696  57.10  18
        46    158.8173    858.6010 299.9601193 +22.6801214     405.4991     69.46983      1.293     2.79    -11.97335     19.62456     55.34338         9     0.852     0.718  77.51   0
        47    135.7544    855.5939 299.9539320 +22.6723340     788.5304     69.57619      1.245     2.44    -11.99113     19.62456     118.1699        14     1.015     0.786  11.67   0
        48   1007.5150    844.4116 300.2289365 +22.9306909     1021.279     69.50529      1.091     2.12    -12.82925     19.62456     153.9811        13     0.848     0.788  64.75   0
        49    961.8008    843.0539 300.2151223 +22.9165968     1061.927     69.50529      1.177     1.97    -12.67195     19.62456     198.6274        13     0.894     0.754 -82.15   0
        50    745.3885    836.7341 300.1497293 +22.8498891      406.223     69.52303      1.298     2.37    -12.60107     19.62456     55.20281         6     0.798     0.486  43.37   0
        51    613.5308    830.9908 300.1105331 +22.8086886     2321.391     69.54075      1.137     1.81    -12.46994     19.62456     415.4092        18     0.908     0.854  58.73   0
        52    415.6205    827.9378 300.0499350 +22.7484274     358.1031     69.52303      1.280     2.00    -12.20154     19.62456     59.79071         6     0.747     0.485 -87.57   0
        53    163.9249    824.9846 299.9726435 +22.6720227      719.459     69.55847      1.278     2.59    -12.23731     19.62456     106.0875        12     0.986     0.721  81.56   0
        54    634.2659    823.5020 300.1194257 +22.8127610     328.2802       69.647      1.027     3.04    -12.39734     19.62456     55.47232         8     0.879     0.698 -53.24   0
        55   1006.4482    811.0286 300.2394662 +22.9207876     580.9781     69.57619      1.292     3.86    -12.49376     19.62456     85.88965        13     1.098     0.833  58.78   0
        56    789.5008    810.6566 300.1719574 +22.8556362     1994.898       69.647      1.056     1.89    -12.26539     19.62456     310.3816        17     0.864     0.845 -78.57   0
        57    197.8353    804.7267 299.9897715 +22.6763992      302.488     69.52303      1.513     3.25    -12.18323     19.62456      35.8074         5     0.914     0.351 -45.42   0
        58    152.9335    801.2255 299.9769574 +22.6619141     641.6479     69.54075      1.319     2.11    -12.41861     19.62456     96.52209         9     0.819     0.632  62.59   0
        59    568.1411    796.6964 300.1075601 +22.7852348     308.0893      69.6293      1.426     5.35    -12.22549     19.62456     33.88511         7     0.955     0.846 -31.55   0
        60    302.5725    793.3658 300.0260246 +22.7045853     26062.37     69.57619      1.158     2.02    -11.88584     19.62456     3904.567        60     1.113     1.091 -81.85   0
        61    560.4052    792.2855 300.1065870 +22.7816488     844.6719     69.48756      1.098     2.20    -12.16634     19.62456     128.1459        13     0.943     0.770 -37.00   0
        62    230.5822    791.3675 300.0042949 +22.6824018     259.4659     69.54075      1.178     3.90    -11.94934     19.62456     35.76054         6     0.905     0.482   0.30   0
        63    589.4553    788.1407 300.1169785 +22.7891750     541.1877      69.6293      1.230     1.99    -12.12833     19.62456     77.02136         6     0.708     0.495  83.66   0
        64    600.3504    786.6497 300.1208554 +22.7920158     323.7339     69.59389      1.101     2.59    -12.12088     19.62456     51.35716         6     0.794     0.507  48.21   0
        65    743.5687    773.2238 300.1698249 +22.8311204     360.2234     69.55847      1.257     2.53    -11.97082     19.62456     78.57475         8     0.940     0.624 -31.56   0
        66    352.2740    770.6272 300.0488760 +22.7129843     15478.04     69.55847      1.168     2.02    -11.60832     19.62456     2312.573        46     1.088     1.042  50.97   0
        67    366.5412    771.1476 300.0531438 +22.7174154     992.8157      69.6116      1.224     2.22    -11.60627     19.62456     154.5193        15     0.906     0.842 -86.04   0
        68    875.2325    766.2308 300.2131281 +22.8685925     1432.504     69.57619      1.094     1.85      -11.925     19.62456     253.6465        13     0.880     0.757  48.52   0
        69    633.1877    762.3498 300.1389839 +22.7948950     434.2936      69.6116      1.194     2.64    -11.84242     19.62456     62.05223         8     0.856     0.606  -2.58   0
        70    234.9516    762.2773 300.0151152 +22.6753755     419.0558     69.55847      1.255     2.62    -11.78093     19.62456     76.77045         7     0.878     0.585  -7.26   0
        71    480.4541    757.1192 300.0931437 +22.7475754     351.1609     69.59389      1.043     2.26    -11.71603     19.62456     67.10506         6     0.729     0.497 -86.38   0
        72     38.8708    757.6990 299.9556827 +22.6151911     368.1953     69.70007      1.679     3.88    -12.07171     19.62456     38.15415         6     1.044     0.414 -11.88   0
        73    426.7214    752.1499 300.0780422 +22.7300276     131.6768     69.55847      1.144     3.83    -11.53318     19.62456     44.52195         5     0.762     0.682  32.58   0
        74    634.6096    750.8677 300.1431614 +22.7920273     124.7796     69.55847      0.900     3.26    -11.73331     19.62456     32.20238         5     0.739     0.448  70.81   0
        75    859.0507    749.1017 300.2136562 +22.8588244     220.7067      69.6293      1.062     3.38    -11.80104     19.62456     38.72134         5     0.788     0.510 -59.72   0
        76    525.2189    735.1334 300.1142253 +22.7546998       326.49     69.54075      1.124     2.47    -11.47054     19.62456     53.24435         5     0.740     0.489 -38.38   0
        77    547.0701    732.7928 300.1217876 +22.7605835     734.4533     69.52303      1.218     2.52     -11.4659     19.62456     112.3164        11     0.892     0.729 -47.44   0
        78    941.6309    731.5101 300.2451217 +22.8785296     2322.154     69.50529      1.120     1.93    -11.81731     19.62456      344.208        18     0.891     0.857 -42.07   0
        79    930.0366    723.0649 300.2442535 +22.8726297     823.4575     69.55847      1.069     1.83     -11.7138     19.62456     186.0142        10     0.786     0.705 -73.88   0
        80    293.0898    716.8590 300.0479597 +22.6798060      387.808       69.647      1.134     2.76    -11.35392     19.62456     67.74251         9     0.886     0.666  11.58   0
        81    756.8707    714.2208 300.1931602 +22.8181770     1190.021     69.55847      1.235     2.94     -11.5053     19.62456     185.5979        16     1.440     0.736  -6.00   0
        82    961.2644    713.0596 300.2572445 +22.8791170      698.478     69.59389      1.092     1.69    -11.84092     19.62456      159.081        12     0.831     0.730  80.37   0
        83    142.0265    700.9276 300.0061882 +22.6298950     243.0785     69.55847      1.144     2.55    -11.80086     19.62456     47.58002         5     0.770     0.484  64.43   0
        84    839.0387    700.3107 300.2232877 +22.8388196     313.3018     69.54075      1.377     2.74    -11.56674     19.62456     46.72702         5     0.745     0.423  17.92   0
        85    874.9008    691.2518 300.2374113 +22.8469694     72475.71       69.647      1.145     1.80    -11.60322     19.62456     14129.75       102     1.189     1.099  77.29   0
        86   1021.9022    692.9735 300.2826878 +22.8915220     614.8727     62.77896      1.190     2.10    -11.95858     19.62456     109.0065         9     0.755     0.710 -38.33  16
        87    908.0131    684.1437 300.2500449 +22.8548540     238.7219     69.54075      1.244     2.92    -11.59036     19.62456     35.93917         6     0.795     0.628   2.76   0
        88    561.1425    680.0131 300.1433316 +22.7496636     836.4319     69.52303      1.198     2.11    -11.06992     19.62456     123.4206        10     0.812     0.719 -71.71   0
        89    742.3495    677.3845 300.2006152 +22.8032508     4570.242     69.57619      1.083     1.94    -11.44225     19.62456     720.8555        26     0.962     0.925 -82.09   0
        90    244.0049    672.8228 300.0470190 +22.6524490     2397.231     69.52303      1.254     2.15    -11.17095     19.62456     384.0052        24     1.063     0.942  41.61   0
        91    326.0833    670.7379 300.0732155 +22.6764831     546.1228       69.647      1.280     2.80     -11.2061     19.62456     67.13625         7     0.728     0.631 -27.85   0
        92    201.2332    668.3438 300.0351810 +22.6383274     194.7132     69.57619      1.093     4.11    -11.33872     19.62456     40.18035         6     0.769     0.626 -39.93   0
        93    525.8891    658.3519 300.1394017 +22.7328750     1568.682     69.54075      1.173     2.03    -10.85634     19.62456     260.6523        16     0.903     0.824  23.60   0
        94    516.1589    652.1196 300.1383997 +22.7281684     761.6973     69.52303      1.276     2.14    -10.85137     19.62456     127.7975        11     0.858     0.733  50.55   0
        95    179.2982    648.2112 300.0349093 +22.6259721      388.564     69.45209      1.192     2.34    -11.36153     19.62456     54.87119         6     0.734     0.519  35.41   0
        96    219.3077    643.4317 300.0488976 +22.6366101     184.8108     69.50529      0.907     2.80      -11.154     19.62456     43.92877         5     0.694     0.482  13.14   0
        97    962.7526    642.8221 300.2805484 +22.8593944     173.9155     69.57619      1.055     3.48    -11.38643     19.62456     48.82286         5     0.956     0.379  -3.28   0
        98    440.9856    641.8004 300.1183628 +22.7026584     861.6376     69.41659      1.190     1.83    -10.84587     19.62456     172.5173        11     0.867     0.711 -56.14   0
        99   1016.7283    638.9823 300.2986302 +22.8744657     443.8574     69.55847      1.231     2.48    -11.32846     19.62456     73.08644         8     0.838     0.651 -66.80   0
       100     94.8935    636.9218 300.0123543 +22.5974001     9705.045     69.68238      1.283     2.12     -11.6119     19.62456     1558.077        39     1.120     1.014  76.42   0
       101     15.8183    638.2526 299.9873615 +22.5740418     410.9825     69.54075      1.208     2.10    -11.89052     19.62456     54.09916         6     0.717     0.525 -56.17   0
       102    525.8989    636.9365 300.1463672 +22.7267339      525.724       69.647      1.242     2.09    -10.82663     19.62456     93.72681         8     0.779     0.630 -44.73   0
       103    897.3722    632.5861 300.2634917 +22.8368612     215.9298     69.57619      1.001     3.80    -11.33193     19.62456     31.01051         5     1.029     0.402 -73.58   0
       104    943.7740    623.0574 300.2810564 +22.8480311     401.3717     69.55847      1.072     2.13    -11.25055     19.62456     98.47117         8     0.753     0.640 -59.32   0
       105     40.9922    621.2509 300.0007060 +22.5767271     772.2653     69.55847      1.625     4.98    -11.73902     19.62456     74.65135        16     1.477     0.709 -83.82   0
       106    883.9637    615.6577 300.2648152 +22.8279818     414.3225     69.55847      1.350     2.47    -11.23778     19.62456      49.4339         7     0.692     0.672  -2.26   0
       107    446.4031    610.0131 300.1303817 +22.6951650      282.166     69.39883      1.088     2.16    -10.78881     19.62456     60.11178         6     0.760     0.491 -89.81   0
       108    489.8305    605.7704 300.1452737 +22.7069741     314.0702     69.55847      1.188     2.37    -10.75666     19.62456     56.56917         6     0.719     0.553  45.40   0
       109    923.8787    601.2036 300.2819576 +22.8357932     1688.515     69.46983      1.210     1.86    -11.15613     19.62456      290.291        19     0.963     0.873  32.76   0
       110    455.6381    601.3090 300.1360843 +22.6954382     739.4589     69.54075      1.130     2.29    -10.71191     19.62456     120.8174        11     0.923     0.686  19.25   0
       111   1021.6143    599.3035 300.3130538 +22.8645330     322.6091     63.92668      1.028     2.33    -10.92532     19.62456     59.92552         8     0.822     0.605 -74.03  16
       112     17.7333    595.1935 300.0019520 +22.5622762     2479.206     69.55847      1.255     2.07    -11.72701     19.62456     397.2171        23     1.057     0.918  55.11   0
       113    319.1054    588.1163 300.0979039 +22.6506951     4498.259     69.73542      1.245     2.07     -10.9435     19.62456     760.1907        28     1.073     0.943  84.94   0
       114    441.5297    585.1357 300.1369517 +22.6865664     4236.472     69.59389      1.164     2.05    -10.57774     19.62456     640.5447        24     0.979     0.900  74.60   0
       115    853.2521    578.8458 300.2672085 +22.8082071     900.3207     69.59389      1.184     2.13    -11.08529     19.62456     161.6536        13     0.906     0.852  32.55   0
       116    937.7401    576.3002 300.2943745 +22.8327949     6043.629       69.647      1.107     1.81    -11.01319     19.62456     1075.321        27     0.965     0.901  68.72   0
       117    502.0982    574.7043 300.1591889 +22.7017401     5890.835     69.73542      1.280     2.16    -10.46391     19.62456      857.777        34     1.068     1.036  50.84   0
       118    671.2158    570.7307 300.2131306 +22.7513113     290.1546     69.57619      1.136     2.50     -10.6323     19.62456     52.10477         6     0.699     0.591 -41.09   0
       119    229.7716    570.2151 300.0759483 +22.6187567     571.0078     69.57619      1.180     2.54    -11.02971     19.62456     91.76387        10     0.935     0.633  22.72   0
       120    433.7039    562.8551 300.1417582 +22.6778270     2138.579       69.647      1.225     2.14    -10.40347     19.62456     334.2207        20     1.064     0.847  70.75   0
       121    776.5124    563.1021 300.2484110 +22.7806863     397.3484     69.71774      1.267     3.11    -10.83214     19.62456     59.66617         9     0.940     0.670 -59.94   0
       122    411.9848    561.1677 300.1355498 +22.6708282     494.1599     69.54075      1.271     2.64    -10.44628     19.62456     98.53409        11     0.896     0.810  67.30   0
       123    166.6546    560.8610 300.0593719 +22.5971338     207.8187      69.6116      1.023     2.38    -11.07899     19.62456     54.44246         7     0.773     0.608 -61.30   0
       124    853.7758    558.2469 300.2740669 +22.8024490     805.4033     69.57619      1.305     2.68    -11.02546     19.62456     98.53246        11     0.880     0.797 -23.11   0
       125    550.3947    550.4150 300.1821147 +22.7092538     99631.06     69.43433      1.199     2.11    -10.35701     19.62456     13015.26       135     1.291     1.256  80.32   0
       126    733.9863    555.3154 300.2376926 +22.7657036     403.3058     69.50529      1.246     2.09    -10.74012     19.62456      68.0162         7     0.701     0.627 -24.23   0
       127    236.5288    550.4939 300.0844577 +22.6151288     1713.826      69.6647      1.144     2.15    -10.98702     19.62456     240.1945        15     0.896     0.800  58.17   0
       128    801.8477    546.4791 300.2617079 +22.7835071     240.0654     69.55847      0.915     1.65    -10.77839     19.62456     55.31916         5     0.649     0.476  19.98   0
       129    441.0184    530.6535 300.1544986 +22.6707820      1267.94     69.54075      1.273     2.32    -10.16683     19.62456     188.5575        14     0.931     0.860   1.51   0
       130    837.9647    516.7546 300.2826232 +22.7857954     886.0789     69.59389      1.187     1.86     -10.7288     19.62456     159.7778        12     0.892     0.690 -85.45   0
       131    709.1204    514.3952 300.2432445 +22.7465021     1275.065     69.46983      1.243     2.21    -10.47677     19.62456      182.909        14     0.904     0.868  70.91   0
       132    953.7713    511.6165 300.3203952 +22.8190193     148.9324     69.55847      0.988     3.43     -10.7196     19.62456      31.1862         5     0.746     0.456  16.56   0
       133    966.6843    508.2295 300.3255225 +22.8219149     518.3942     69.55847      1.047     2.31     -10.7019     19.62456     79.06973         8     0.735     0.648  74.65   0
       134    838.2315    507.2067 300.2858089 +22.7831334     1071.167     69.55847      1.234     2.18    -10.66013     19.62456     163.3692        13     0.932     0.738  12.25   0
       135    952.2961    507.4413 300.3212919 +22.8173780     300.0907     69.57619      1.106     3.08    -10.69748     19.62456     49.76522         7     0.918     0.488  -6.87   0
       136    591.6265    504.5616 300.2098506 +22.7084567      350.396     69.57619      1.411     3.62    -10.08232     19.62456     33.68239         6     0.879     0.484  89.05   0
       137    876.2608    501.9737 300.2993629 +22.7930261     2105.203     69.55847      1.188     1.86    -10.66639     19.62456     368.0719        21     0.991     0.891  65.90   0
       138    108.4901    492.4095 300.0635410 +22.5600516     553.6961     69.48756      1.343     2.45    -10.79553     19.62456     71.45934        11     0.861     0.765  11.28   0
       139    968.1118    492.2488 300.3311604 +22.8177518     373.5764     69.55847      1.164     3.83    -10.63111     19.62456      55.6442         7     0.761     0.643  19.04   0
       140    649.5325    472.5585 300.2382790 +22.7166293     399.2934     69.54075      1.195     3.49    -10.16877     19.62456     55.57716         6     0.937     0.464 -34.82   0
       141    964.4023    464.7308 300.3389444 +22.8087351     227.1058     69.52303      1.108     2.06    -10.54088     19.62456     55.14355         5     0.686     0.448 -67.35   0
       142    710.3827    464.3934 300.2598838 +22.7325241     416.6318     69.52303      1.273     3.31    -10.28562     19.62456     56.60143        13     1.049     0.889 -49.53   0
       143    867.8380    460.7882 300.3101188 +22.7786729     433.9067     69.55847      1.100     2.29    -10.44639     19.62456     71.45319         8     0.725     0.675  -6.31   0
       144    852.2307    456.8009 300.3065493 +22.7728514     322.6191     69.52303      1.233     3.17    -10.43222     19.62456     44.95559         8     0.863     0.653   8.31   0
       145    596.4055    455.4239 300.2273029 +22.6957845     1502.062     69.54075      1.158     2.19    -9.883725     19.62456     206.5871        17     1.037     0.820  73.39   0
       146    956.7249    453.6316 300.3401563 +22.8032465     168.6597     69.55847      0.927     2.46    -10.51231     19.62456     66.20441         5     0.851     0.415  77.28   0
       147   1007.5682    434.2391 300.3623125 +22.8129042     723.4428     69.59389      1.160     2.44    -10.46036     19.62456       111.09        11     0.911     0.707  54.61   0
       148    965.8022    432.9622 300.3497016 +22.8000273     308.7829     69.57619      1.009     2.07    -10.45776     19.62456     79.88149         7     0.690     0.634 -66.71   0
       149    706.9407    429.2289 300.2702348 +22.7213953     416.2623     69.55847      1.202     2.28    -10.16584     19.62456     72.73598         7     0.696     0.619  71.51   0
       150    273.3609    423.3472 300.1372152 +22.5897089     1769.879     69.54075      1.264     2.34    -10.24281     19.62456     226.7697        18     0.958     0.935 -28.34   0
       151   1006.4194    421.4332 300.3661140 +22.8088804     1976.642     69.55847      1.099     2.04    -10.42659     19.62456     302.2492        20     0.969     0.867  88.14   0
       152    220.5256    418.0022 300.1225263 +22.5723267     3730.266     69.46983      1.271     2.25    -10.23717     19.62456     515.7283        26     1.066     0.953  76.38   0
       153    986.1642    412.4528 300.3627137 +22.8002333     888.4794     69.57619      1.017     2.01    -10.39135     19.62456     147.2571         9     0.765     0.648 -80.24   0
       154    361.3786    412.2771 300.1681811 +22.6129313      2410.39     69.55847      1.254     2.26    -9.690432     19.62456     291.9211        23     1.032     0.950  38.62   0
       155    622.1992    409.4289 300.2502744 +22.6903117      440.465     69.52303      1.717     4.99    -9.808274     19.62456      35.3414         8     1.004     0.701  34.87   0
       156    605.4606    408.8431 300.2452528 +22.6851262     8839.757     69.55847      1.265     2.20    -9.780308     19.62456     1219.156        36     1.105     1.031  37.00   0
       157    938.9638    391.4576 300.3548139 +22.7800632       378.86     69.55847      1.074     1.90      -10.287     19.62456     68.61317         6     0.721     0.498   1.69   0
       158    160.3784    389.3582 300.1131354 +22.5460668     999.9755     69.59389      1.282     2.25    -10.27773     19.62456     134.7951        15     0.980     0.860  59.90   0
       159    546.0815    378.3409 300.2366732 +22.6585701      3217.39      69.6116      1.332     2.37    -9.675823     19.62456     406.4858        26     1.088     0.985  52.28   0
       160    959.8375    378.3619 300.3655761 +22.7825524     527.0064      69.6293      1.131     2.43     -10.2224     19.62456      81.2598        10     0.848     0.708  78.87   0
       161    261.1574    377.6142 300.1482735 +22.5729280     242.9458     69.57619      1.256     3.94    -10.00772     19.62456     43.23514         7     0.807     0.713  72.27   0
       162    750.1447    367.5050 300.3037410 +22.7166156     575.0328      69.6116      1.355     2.94    -9.990382     19.62456     66.52639        10     0.909     0.735  41.65   0
       163    452.7253    364.6454 300.2120667 +22.6266518     3019.586     69.54075      1.278     2.28    -9.538783     19.62456     416.5977        23     1.021     0.935  62.84   0
       164    941.9963    359.0193 300.3662943 +22.7716508     257.9041     69.52303      1.227     2.05    -10.12798     19.62456     59.02395         5     0.608     0.563  89.92   0
       165    844.7570    358.7863 300.3360555 +22.7424570     666.7396     69.57619      1.212     2.19    -10.07167     19.62456     108.3222        10     0.972     0.653 -28.63   0
       166    437.6155    353.2661 300.2110604 +22.6188555      160.682     69.54075      1.036     3.38    -9.527634     19.62456     31.79459         5     0.753     0.438 -69.77   0
       167    817.6049    346.3007 300.3316475 +22.7307361      294.855     69.45209      1.157     2.65    -10.00143     19.62456     50.62898         5     0.688     0.488 -87.72   0
       168    340.3365    343.9646 300.1838203 +22.5870180     1227.258     69.55847      1.263     2.32    -9.575072     19.62456     177.9341        15     0.922     0.832  75.78   0
       169     58.8328    341.2465 300.0972087 +22.5018025     527.3402     69.59389      1.267     3.20    -10.11637     19.62456     84.75029        10     0.933     0.822 -63.44   0
       170    309.6506    333.3525 300.1777232 +22.5747709     14475.24     69.59389      1.290     2.25    -9.623884     19.62456     1830.622        48     1.168     1.097  62.46   0
       171    844.3261    330.7400 300.3450284 +22.7342704     579.3817     69.59389      1.126     2.36    -10.01107     19.62456     102.5303        13     0.874     0.845  46.13   0
       172      6.0499    321.3400 300.0872780 +22.4802567     2454.315      69.6116      1.312     2.22    -10.13069     19.62456     361.0043        22     1.045     0.928  74.25  16
       173    759.4899    319.7266 300.3221669 +22.7056918     243.4227     69.71774      1.143     2.38    -9.675325     19.62456     52.33314         5     0.689     0.471 -70.41   0
       174    408.4042    318.1620 300.2133701 +22.6000216     244.3992     69.59389      1.206     3.21    -9.452664     19.62456     43.91423         6     0.797     0.490 -87.74   0
       175    719.8079    312.8072 300.3120507 +22.6918152     984.2202     69.41659      1.284     2.51    -9.468909     19.62456      142.626        13     0.934     0.795  52.99   0
       176    935.4130    305.4537 300.3816346 +22.7542864     304.6781     69.57619      1.288     3.51    -10.08136     19.62456     47.89073         6     0.919     0.424  18.69   0
       177    381.9596    297.7596 300.2117673 +22.5862370     1061.072      69.6293      1.384     2.74    -9.457522     19.62456      138.764        14     1.030     0.801  81.42   0
       178    820.9193    289.9979 300.3509609 +22.7155534     293.3022     69.46983      1.277     2.11    -9.904819     19.62456     52.50296         5     0.594     0.581 -89.32   0
       179    457.5654    277.0833 300.2420011 +22.6029667     631.4681     69.52303      1.234     2.35    -9.333026     19.62456     92.15909         8     0.773     0.652  17.35   0
       180    702.4810    268.7107 300.3209687 +22.6739574     1032.042      69.6647      1.247     2.33    -9.242127     19.62456     153.9973        12     0.844     0.787  35.71   0
       181    963.7310    263.0475 300.4042318 +22.7505789      1617.42     69.54075      1.204     2.04    -10.08535     19.62456     267.7413        18     1.010     0.859 -63.89   0
       182    410.8100    252.6385 300.2353884 +22.5819336     282.4843     69.55847      1.188     2.05     -9.33178     19.62456     49.42544         5     0.690     0.451  18.43   0
       183    116.6547    247.0025 300.1457640 +22.4921140     413.2892     69.50529      1.348     3.45    -9.688563     19.62456     50.92554         9     1.039     0.582 -78.31   0
       184     85.9500    246.8792 300.1362646 +22.4828689     734.6609     69.57619      1.619     4.34    -9.697187     19.62456     64.49128        17     1.212     1.070  65.11   0
       185    169.8548    239.3180 300.1647893 +22.5058647     200.4304      69.6116      1.114     3.02    -9.612089     19.62456     44.61864         5     0.934     0.348  86.47   0
       186    774.1941    229.9843 300.3558805 +22.6843144     282.5742     69.48756      1.202     2.41    -9.383262     19.62456     50.83434         7     0.696     0.664   6.95   0
       187    872.2407    219.3360 300.3898939 +22.7106191     977.9986     69.52303      1.229     2.20     -9.53269     19.62456     167.5399        12     0.893     0.741  62.62   0
       188    290.8195    216.7778 300.2097071 +22.5356679     1157.412     69.55847      1.393     2.40    -9.417357     19.62456     158.2278        16     0.989     0.888  53.47   0
       189    368.7628    211.8567 300.2355440 +22.5576217     565.0731     69.55847      1.479     2.43    -9.244502     19.62456     77.71141         9     0.855     0.672 -29.06   0
       190    770.5860    210.6379 300.3610350 +22.6776749     258.6823     69.57619      1.111     3.87    -9.395111     19.62456     36.44352         6     0.893     0.481   0.30   0
       191    185.5884    203.6597 300.1812507 +22.5003506     389.4304     69.52303      1.526     4.42     -9.40976     19.62456     40.64574         8     0.846     0.802  79.20   0
       192    723.5058    200.6100 300.3496210 +22.6606916     920.5829     69.50529      1.371     2.82    -9.322164     19.62456     96.77591        14     1.038     0.791 -74.57   0
       193    206.6453    197.6836 300.1897347 +22.5049497     258.5754     69.52303      1.268     2.63    -9.350088     19.62456     41.15745         5     0.727     0.438  70.70   0
       194    994.6282    192.8945 300.4366369 +22.7396637     365.4595     69.46983      1.230     2.70    -9.929798     19.62456     61.41624         6     0.782     0.601  55.86   0
       195    788.4965    200.4695 300.3699159 +22.6801175     194.1253     69.68238      1.182     3.68    -9.476602     19.62456     40.53153         6     1.012     0.385  70.05   0
       196    647.7447    191.5035 300.3289782 +22.6353802     611.2431       69.647      1.314     2.60    -9.340431     19.62456      74.2308        10     0.912     0.675  81.85   0
       197    843.2855    182.7371 300.3927454 +22.6914298     675.8519      69.6647      1.182     2.82    -9.568062     19.62456      102.205        10     0.971     0.639  44.17   0
       198    574.1102    183.0441 300.3087951 +22.6108892     439.1752     69.55847      1.354     2.62     -9.31181     19.62456     66.77121         8     0.818     0.627  44.11   0
       199    855.4390    181.9389 300.3967927 +22.6948398     436.7064     69.55847      1.314     2.02    -9.573699     19.62456     62.46008         6     0.727     0.492  82.81   0
       200   1016.2258    172.6601 300.4499395 +22.7403118     765.0383     69.55847      1.187     2.20    -9.813534     19.62456     121.0346        12     0.942     0.721  49.31   0
       201    972.0638    171.9944 300.4363816 +22.7269001     591.5176     69.54075      1.323     2.22    -9.830442     19.62456     95.94673         8     0.787     0.628  47.57   0
       202    205.7136    165.1656 300.1999959 +22.4953377     341.8938     69.52303      1.317     4.86    -9.101245     19.62456     47.76865         8     1.176     0.568  45.10   0
       203     68.0482    160.3616 300.1587769 +22.4526776     1025.304     69.57619      1.289     2.43    -9.390029     19.62456      135.736        16     0.998     0.836  30.32   0
       204     17.3662    157.1342 300.1440818 +22.4365510      392.779     69.55847      1.681     3.78    -9.380692     19.62456      42.2467         6     0.970     0.688  74.61   0
       205    891.1825    157.0233 300.4160196 +22.6983812     222.7167     69.54075      1.057     1.94    -9.690228     19.62456     69.62199         7     0.674     0.645  67.00   0
       206    225.5562    153.6888 300.2098873 +22.4979929     2750.619     69.55847      1.295     2.38    -9.035275     19.62456     360.8837        26     1.099     1.028  88.78   0
       207      9.6566    147.9922 300.1446532 +22.4316158     736.9056     69.54075      1.236     2.22    -9.350898     19.62456     111.6137        11     0.874     0.700  26.16   0
       208    208.7876    144.1788 300.2077601 +22.4902358     292.3922     69.54075      1.257     2.38    -9.048343     19.62456     47.67299         6     0.741     0.529 -50.06   0
       209   1023.5712    140.7230 300.4625934 +22.7333277      5784.39     54.72402      0.972     2.15    -9.782525     19.62456     1513.966        21     1.101     0.629  84.79  24
       210    869.4346    134.9070 300.4164155 +22.6855124     1717.747     69.50529      1.255     2.20    -9.566882     19.62456      232.582        19     1.123     0.832 -86.31   0
       211    973.1810    133.5889 300.4491911 +22.7161930     1400.421     69.52303      1.175     1.97    -9.723006     19.62456     226.5042        16     0.930     0.802  39.62   0
       212    419.1686    130.0641 300.2777627 +22.5492449     300.2758     69.55847      1.313     3.80    -8.876052     19.62456     51.94418         6     1.059     0.588 -76.20   0
       213    347.3940    120.2162 300.2586302 +22.5249062     162.2604     69.48756      1.044     3.38    -8.853543     19.62456     28.09388         5     0.748     0.442  69.81   0
       214    109.1135    119.3660 300.1848337 +22.4532286     345.2598     69.52303      1.323     3.74    -9.129775     19.62456     44.98006         8     1.039     0.683  89.31   0
       215    470.1886    117.6961 300.2976499 +22.5609818     808.1657     69.46983      1.336     2.73    -9.104154     19.62456     91.48927        14     1.000     0.824  76.28   0
       216    244.3844     97.4977 300.2339681 +22.4875075     2796.367     69.45209      1.263     2.40     -8.95155     19.62456     364.8408        23     1.054     0.948  73.76   0
       217     95.3110     96.9575 300.1878137 +22.4426591     347.1092     69.55847      1.394     3.43    -9.020734     19.62456     42.63948         5     0.799     0.425 -74.19   0
       218    490.4210     82.8375 300.3152533 +22.5570317     3169.231     69.57619      1.372     2.28    -9.072316     19.62456     393.3253        25     1.120     0.973  72.45   0
       219    376.0999     82.8291 300.2796860 +22.5227737     339.0225     69.46983      1.408     5.19    -8.923457     19.62456     38.28805         8     1.070     0.745  79.61   0
       220    742.8860     72.1673 300.3973291 +22.6295867     479.0404     69.52303      1.625     4.03    -9.041075     19.62456      59.7171        10     1.034     0.737 -41.31   0
       221    618.7858     62.8588 300.3616938 +22.5897456     3122.626     69.54075      1.312     2.33    -8.925706     19.62456     449.2922        23     1.067     0.928  64.92   0
       222    393.7744     61.7948 300.2920060 +22.5220295     662.0438     69.54075      1.258     2.34    -8.996089     19.62456     106.7183        11     0.977     0.667  88.78   0
       223    659.9740     60.1765 300.3753906 +22.6013110     452.1222     69.52303      1.368     1.98    -8.905829     19.62456     75.20959         8     0.766     0.607  35.26   0
       224    675.9919     56.5002 300.3815718 +22.6050517      344.941     69.46983      1.408     3.52    -8.865376     19.62456     41.44569         6     0.914     0.531  71.03   0
       225    142.6023     54.1134 300.2164028 +22.4445415      433.657     69.48756      1.783     4.11    -8.715776     19.62456     48.52288         8     1.078     0.737 -79.83   0
       226    945.6385     53.2486 300.4666626 +22.6848485     169.6219     69.57619      1.223     2.57    -8.903608     19.62456      37.9814         5     0.715     0.451 -72.70   0
       227    662.9531     47.6101 300.3803938 +22.5985920     1351.416     69.57619      1.399     2.46    -8.735255     19.62456     192.6821        17     1.040     0.875  34.88   0
       228    677.7308     45.8614 300.3855637 +22.6025150     503.5308     69.59389      1.653     4.53    -8.701716     19.62456     47.26489        10     1.276     0.579  35.98   0
       229    749.3000     39.1777 300.4100266 +22.6220255     656.2352     69.50529      1.293     2.87    -8.501265     19.62456      83.8195        11     0.971     0.734   8.25   0
       230    687.2095     32.2141 300.3929418 +22.6014315     293.5033     69.46983      1.073     2.41    -8.479615     19.62456     57.91353         6     0.745     0.524  49.87   0
       231    493.0326     31.9439 300.3325713 +22.5431945     414.0286     69.57619      1.242     1.98    -8.981354     19.62456     79.20574         9     0.728     0.711 -70.80   0
       232    396.7006     29.9730 300.3032357 +22.5137670     409.3553     69.50529      1.385     2.82    -9.118279     19.62456     61.47524         9     0.852     0.762   2.83   0
       233    778.9359     28.4669 300.4227343 +22.6278200     195.6963      69.6116      1.359     3.96    -8.321251     19.62456     33.62432         5     0.901     0.498  -1.91   0
       234    168.3662     20.0747 300.2354468 +22.4424938      1750.29     69.55847      1.340     2.52    -8.500148     19.62456     229.8499        23     1.182     0.980  62.10   0
       235    736.3309     20.3881 300.4120790 +22.6127414     360.6928     69.59389      1.288     4.16    -8.192673     19.62456     59.22319         7     1.024     0.591  45.32   0
       236    140.7312   1021.1508 299.9015927 +22.7212542     105.6754     65.71385      0.957     2.48     23.87671     19.62456     35.79348         5     0.806     0.643 -46.82  16
       237    171.0380   1015.7430 299.9127698 +22.7288093     1533.332     69.55847      6.475    12.61     22.64893     19.62456     41.50137        37     2.229     1.985 -26.96  26
       238    196.9810   1018.3023 299.9199981 +22.7373351     794.1193     69.48756      2.499     5.79     22.84569     19.62456     30.55234         8     1.413     0.667   0.71  24
       239    226.9952   1016.5120 299.9299088 +22.7458374     506.7758     69.46983      1.767     3.64     20.86926     19.62456     49.59346         9     1.003     0.845  89.76   0
