#   1 NUMBER                 Running object number                                     
#   2 X_IMAGE                Object position along x                                    [pixel]
#   3 Y_IMAGE                Object position along y                                    [pixel]
#   4 ALPHA_J2000            Right ascension of barycenter (J2000)                      [deg]
#   5 DELTA_J2000            Declination of barycenter (J2000)                          [deg]
#   6 FLUX_APER              Flux vector within fixed circular aperture(s)              [count]
#   7 FLUXERR_APER           RMS error vector for aperture flux(es)                     [count]
#   8 FLUX_RADIUS            Fraction-of-light radii                                    [pixel]
#   9 FWHM_IMAGE             FWHM assuming a gaussian core                              [pixel]
#  10 BACKGROUND             Background at centroid position                            [count]
#  11 THRESHOLD              Detection threshold above background                       [count]
#  12 FLUX_MAX               Peak flux above background                                 [count]
#  13 ISOAREA_IMAGE          Isophotal area above Analysis threshold                    [pixel**2]
#  14 A_IMAGE                Profile RMS along major axis                               [pixel]
#  15 B_IMAGE                Profile RMS along minor axis                               [pixel]
#  16 THETA_IMAGE            Position angle (CCW/x)                                     [deg]
#  17 FLAGS                  Extraction flags                                          
         1    740.9254     13.4959 300.4197527 +22.6054625     513.4417     69.48371      1.353     2.93    -8.618093     19.56364     63.65951         8     0.817     0.693 -43.79   0
         2    636.4560   1020.0045 300.0600629 +22.8632639     3953.587     68.66811      1.140     1.86    -12.52395     19.56364     644.2354        26     0.999     0.920  67.76  19
         3    549.9392   1023.8597 300.0318718 +22.8383977     429.8022      52.8899      0.890     1.73    -12.28856     19.56364     140.7976         7     0.948     0.342   4.06  24
         4    203.6454   1019.5557 299.9255648 +22.7331619     2930.976     69.37787     11.599    29.21     6.176125     19.56364     67.07388       220     5.589     4.486   1.62  27
         5    242.1082   1008.3096 299.9411825 +22.7414932     4732.208     69.50134      9.971    34.27    -2.921424     19.56364     108.4935       555     9.722     4.640  56.61  18
         6     64.5975   1009.5027 299.8856366 +22.6885016     1421.874     69.25419     19.789    35.70     1.658208     19.56364     49.64203       178     6.069     5.828 -28.27  19
         7     81.4309    955.1981 299.9085482 +22.6779982     2164.696     69.30722     22.288    42.73    -4.907297     19.56364     59.47045       288    10.967     4.621 -36.79   3
         8    929.4821   1003.8459 300.1566303 +22.9465565     469.2101     69.32489      1.327     4.29    -13.82574     19.56364     68.21595         9     1.211     0.721  73.71   0
         9    176.5149   1022.3458 299.9162246 +22.7258105     979.7715     60.77715      7.350     9.74     11.94377     19.56364     44.43317        21     1.857     1.425 -52.79  27
        10      1.3491   1017.9543 299.8632417 +22.6719153     514.1478     54.03533      3.333     3.84    -21.90722     19.56364     30.86736         5     0.893     0.474 -85.99  25
        11     80.5443    975.4543 299.9016773 +22.6835368     2422.836     69.37787     23.484    30.73   -0.4497797     19.56364     60.51674       241     5.863     4.471  30.09   3
        12    171.6228   1012.3160 299.9179708 +22.7214662      1203.86     69.30722      5.423     9.55     10.71376     19.56364     32.93708        20     2.361     1.077 -56.30  16
        13    177.7918   1016.1838 299.9186282 +22.7244281     657.8497     69.27187      4.033     3.80     10.46066     19.56364     31.56121         5     1.226     0.337   9.31  17
        14     78.0968   1019.4653 299.8865852 +22.6954128     1855.432     69.44845     38.213    45.94     8.180634     19.56364     53.21454       172    10.006     5.852 -67.57  27
        15    654.7993    987.0835 300.0764972 +22.8593246     3328.163     69.21881      1.192     2.04    -12.69411     19.56364     566.5843        22     0.975     0.870  58.51   0
        16    563.2448    977.9167 300.0509766 +22.8292134     636.1295     69.30722      1.109     2.16    -12.32184     19.56364     148.1738         9     0.839     0.616  30.13   0
        17    642.0273   1017.7758 300.0625236 +22.8642968     4450.621     69.32489      1.176     1.77    -12.57628     19.56364     832.9993        25     0.968     0.888 -83.58  18
        18     60.2866    976.0527 299.8951901 +22.6776212     935.8292     69.37787      4.581     4.63    -4.822714     19.56364     35.33929         5     1.033     0.642  27.38   1
        19    457.0094    974.3423 300.0190780 +22.7962942     539.5051     69.30722      1.061     1.69    -12.38063     19.56364     109.2327         7     0.668     0.599   2.69   0
        20    387.7825    972.4527 299.9981569 +22.7749654     3270.029     69.32489      1.178     2.02    -12.46775     19.56364     510.6715        25     1.048     0.903 -33.48   0
        21    223.1735   1018.0239 299.9321332 +22.7385896     3668.205     69.30722     10.002    28.71     2.139501     19.56364     68.90012       329     6.047     4.855   8.44  27
        22     94.2390    960.4601 299.9108136 +22.6833545     1123.291     69.34255      6.878     7.39    -1.785665     19.56364     59.35464        14     1.883     0.811  58.55   1
        23     64.0751    993.9584 299.8905363 +22.6838905     2092.209     69.32489     21.772    33.01    -1.168049     19.56364     50.38677       169     5.670     5.335  87.17  19
        24     85.6277    989.1382 299.8988006 +22.6889856     2641.337     69.34255     23.916    41.84     4.026527     19.56364       55.376       373     8.985     5.408  40.34  19
        25    933.9576    950.8660 300.1752801 +22.9326884     1092.465     69.32489      1.130     1.79    -13.26429     19.56364     223.5872        10     0.773     0.668  88.06   0
        26    722.9296    939.6315 300.1131698 +22.8661539     408.8473     69.34255      1.658     3.46    -12.80084     19.56364     44.38391         8     0.955     0.603  65.10   0
        27     78.6424    944.4631 299.9111771 +22.6740839      1887.75     69.34255     16.180    26.09    -7.538851     19.56364     44.61195       162     6.980     2.708 -31.10   3
        28    757.3290    934.0403 300.1257071 +22.8748709       460.07     69.30722      1.083     2.94    -12.82207     19.56364     82.89478         9     0.954     0.646  73.86   0
        29    169.6470   1006.9849 299.9190930 +22.7193447     1101.662     69.36021      4.320     6.14     9.949488     19.56364     35.54671         8     1.357     0.781  -8.33   2
        30    914.7759    931.5946 300.1755747 +22.9214018     79.26581     69.32489      0.943     3.50    -13.02303     19.56364      28.0145         5     0.751     0.470  14.07   0
        31    779.8713    927.8313 300.1347524 +22.8798522     5385.456     69.34255      1.117     1.75    -12.85112     19.56364     1135.685        27     0.941     0.883 -88.82   0
        32    970.9307    927.4910 300.1944208 +22.9370657     148.0326     69.46608      1.117     2.81    -13.05824     19.56364     43.69766         5     0.730     0.590  79.20   0
        33     91.3013    919.4388 299.9232562 +22.6707152     446.2008     69.36021      1.580     3.45    -10.62085     19.56364     43.43527         7     0.946     0.475 -10.16   0
        34     81.3799    910.6430 299.9230376 +22.6652135     223.7759     69.37787      1.612     3.41    -11.02118     19.56364     31.83128         5     1.037     0.324  68.51   0
        35    788.3303    909.9219 300.1432193 +22.8772492     706.5286     69.44845      1.109     1.86    -12.72252     19.56364     139.3951        10     0.750     0.690   6.29   0
        36    971.5156    908.8005 300.2006888 +22.9318739      171.318     69.21881      0.965     2.58     -12.8935     19.56364     49.68784         7     0.797     0.599  10.13   0
        37    640.5815    906.9966 300.0981473 +22.8320771     266.0663     69.27187      1.475     2.81    -12.51315     19.56364     48.30878         5     0.905     0.490  13.64   0
        38    826.3825    903.2643 300.1572451 +22.8867534     379.9862     69.32489      1.006     2.01    -12.68854     19.56364     77.04684         5     0.669     0.464  72.73   0
        39    438.8535    890.1069 300.0408547 +22.7666821     2062.453     69.39552      1.169     1.81    -12.31243     19.56364     399.9561        19     0.907     0.857  87.89   0
        40    737.7886    890.4672 300.1338057 +22.8565014     334.8796     69.34255      1.029     1.98    -12.53378     19.56364     61.17062         5     0.664     0.477 -18.43   0
        41    141.2206    872.9608 299.9538945 +22.6723884     804.0078     69.37787      1.214     2.20    -10.97874     19.56364     136.4066        10     0.829     0.702  12.33   0
        42   1012.8021    861.7453 300.2288845 +22.9307401     1029.854     69.28955      1.116     1.98    -12.54622     19.56364     200.4527        14     0.901     0.795  75.24   0
        43    967.1151    860.0018 300.2152030 +22.9165400     1002.988     69.27187      1.147     2.15    -12.42239     19.56364     185.5108        12     0.891     0.705  47.45   0
        44    750.6922    853.8104 300.1497583 +22.8498501     292.6981     69.28955      1.321     3.42    -12.29998     19.56364     57.56628         7     0.973     0.530 -63.16   0
        45    618.7604    848.1731 300.1105008 +22.8086478     2199.328     69.39552      1.162     1.91    -12.19483     19.56364     419.1497        18     0.917     0.838 -87.15   0
        46    108.4137    849.1524 299.9514502 +22.6557088     217.9372     69.34255      1.257     3.47    -11.67334     19.56364     38.21046         5     1.153     0.301 -10.17   0
        47    421.3215    845.7513 300.0498377 +22.7486951     381.8161     69.34255      1.322     3.50    -12.07358     19.56364     63.07977         7     0.941     0.579  74.81   0
        48    169.0369    842.2708 299.9725266 +22.6719446      639.991     69.32489      1.183     2.45    -11.40925     19.56364     97.45183        11     0.960     0.658  72.89   0
        49    639.4495    840.9093 300.1193074 +22.8127712     454.1974     69.34255      1.314     3.45    -12.14299     19.56364     59.32355         9     0.975     0.650 -60.44   0
        50    188.6362    839.0595 299.9796626 +22.6769101      218.412     69.36021      1.272     2.53    -11.45319     19.56364     45.18019         5     0.783     0.471 -31.13   0
        51   1011.8730    828.0370 300.2395668 +22.9207792     728.3961     69.28955      1.385     2.34    -12.18326     19.56364     110.0782        10     0.850     0.696 -87.76   0
        52    794.8862    827.8857 300.1719666 +22.8556644     1903.789     69.46608      1.099     1.78    -12.13678     19.56364     400.5803        13     0.806     0.757  34.26   0
        53    511.9930    820.2170 300.0863621 +22.7685847     332.9875     69.28955      1.052     2.05    -11.82435     19.56364     83.63005         7     0.757     0.637 -60.24   0
        54    158.4152    818.5566 299.9769431 +22.6619552     400.8345     69.36021      1.081     2.65    -11.59963     19.56364     80.95289         7     0.907     0.462  77.36   0
        55    307.9760    810.6768 300.0259984 +22.7046061     25739.16     69.36021      1.231     2.00     -11.4446     19.56364     4160.553        63     1.177     1.105  67.82   0
        56    565.6337    809.4412 300.1065656 +22.7815901     778.6504     69.39552      1.173     2.38    -11.77271     19.56364     120.7307        14     0.977     0.848 -61.64   0
        57    978.6790    808.9196 300.2354358 +22.9053354     351.6898     69.46608      1.098     2.78    -11.90023     19.56364     76.18215         6     0.908     0.432  77.14   0
        58    594.6786    805.3830 300.1169287 +22.7891410     390.2627     69.34255      1.033     2.33    -11.78872     19.56364     59.45504         6     0.780     0.484  42.80   0
        59    710.8640    799.9253 300.1548880 +22.8224328     234.6108     69.37787      1.039     2.14    -11.90293     19.56364     54.88821         6     0.723     0.524  61.46   0
        60    357.6710    787.9019 300.0488638 +22.7129925     15359.03     69.48371      1.202     1.96    -11.31777     19.56364     2496.934        49     1.154     1.033  81.32   0
        61    371.9761    788.4453 300.0531364 +22.7174426     887.7336     69.36021      1.219     2.29    -11.33985     19.56364     140.6043        12     0.891     0.743  62.99   0
        62    880.6840    783.4977 300.2131534 +22.8686499      1381.73     69.50134      1.104     2.07    -11.63629     19.56364     216.4861        16     0.904     0.854  33.52   0
        63    638.4755    779.4754 300.1389965 +22.7948456     476.1338     69.43081      1.142     2.46    -11.56929     19.56364     68.03729         7     0.767     0.631  66.60   0
        64    240.1442    779.7529 300.0149711 +22.6753705     411.6242     69.37787      1.258     1.99    -11.50907     19.56364     67.98103         8     0.732     0.644  48.86   0
        65    474.8936    779.3890 300.0881022 +22.7457350     160.8135     69.28955      1.010     3.48    -11.40647     19.56364     36.98613         5     0.767     0.457 -16.09   0
        66    485.6833    774.4645 300.0930622 +22.7475601     340.5257     69.44845      1.046     2.39    -11.36092     19.56364     60.83831         5     0.673     0.479 -16.97   0
        67    886.7025    771.2793 300.2190056 +22.8669455     256.2273     69.46608      0.977     1.76    -11.60327     19.56364     58.65452         5     0.655     0.444  -7.49   0
        68    387.1889    770.7913 300.0636125 +22.7169444     261.1636      69.2365      1.245     3.39    -11.24598     19.56364     29.84924         5     0.959     0.346  44.28   0
        69    864.5656    766.1341 300.2137790 +22.8588296     109.4493     69.34255      0.857     1.91    -11.58027     19.56364     41.95654         5     0.672     0.454 -66.46   0
        70    237.6509    764.1453 300.0192740 +22.6701456     270.3138     69.37787      1.081     2.23    -11.43512     19.56364     49.81958         5     0.722     0.431 -69.31   0
        71    530.6825    752.7075 300.1141462 +22.7548200     313.1732     69.48371      1.199     2.31     -11.1375     19.56364     42.51982         5     0.717     0.437  73.56   0
        72    552.3571    750.2098 300.1217056 +22.7606068     713.5721     69.34255      1.266     2.33    -11.10625     19.56364      110.933        13     1.042     0.846  18.51   0
        73    947.0904    748.7773 300.2451556 +22.8785885     2240.045     69.27187      1.152     1.71    -11.57458     19.56364     458.8052        21     0.974     0.912  58.89   0
        74    935.4839    740.2778 300.2443018 +22.8726672     844.3287     69.44845      1.054     1.84    -11.54488     19.56364     162.8809        13     0.959     0.715  33.56   0
        75    298.4824    734.4617 300.0478435 +22.6798941     371.6953     69.43081      1.220     2.44    -11.06598     19.56364     59.30246         7     0.765     0.639  78.99   0
        76    761.6740    731.6255 300.1929406 +22.8180630     1296.273     69.36021      1.194     2.25    -11.48992     19.56364     183.6796        15     1.067     0.759 -75.37   0
        77    966.6362    730.3802 300.2572364 +22.8791633     724.9539     69.36021      1.112     2.01    -11.52211     19.56364     139.6663        11     0.947     0.708  70.85   0
        78    147.4682    718.5201 300.0060873 +22.6299820     364.4422     69.44845      1.510     4.68    -11.62968     19.56364     37.75199         7     0.913     0.679  23.38   0
        79    880.2484    708.4820 300.2374246 +22.8469730     71311.29     69.36021      1.144     1.88    -11.24879     19.56364     11412.01       107     1.218     1.151  87.03   0
        80    732.6097    708.5375 300.1913962 +22.8027163     504.6621     69.27187      1.490     2.46    -11.18983     19.56364     63.86444         9     0.855     0.712  20.37   0
        81    913.1346    701.2870 300.2500179 +22.8547659     227.3195     69.43081      0.786     2.16    -11.27864     19.56364     54.89414         5     0.738     0.410  18.09   0
        82    566.6928    697.4471 300.1433325 +22.7497631     782.2015     69.36021      1.088     1.89    -10.86548     19.56364     133.7587        10     0.798     0.658  89.76   0
        83    747.7361    694.7388 300.2005974 +22.8032903     4571.497     69.37787      1.182     2.00    -11.02926     19.56364     751.0905        30     1.036     1.002  71.11   0
        84    249.3574    690.0056 300.0470302 +22.6523941     2369.258     69.36021      1.243     2.24    -11.06934     19.56364     346.0036        20     0.994     0.879  77.03   0
        85    331.4784    687.9605 300.0732299 +22.6764577     427.1568     69.32489      1.146     3.38    -10.93711     19.56364     63.95532         8     0.866     0.638  49.52   0
        86    539.7267    683.5275 300.1394656 +22.7376772     472.2743     69.39552      1.371     2.52    -10.87159     19.56364     58.87024         6     0.688     0.636 -66.28   0
        87    531.2009    675.5544 300.1394049 +22.7328306     1611.266     69.34255      1.264     2.22    -10.86421     19.56364     217.8738        20     0.981     0.919 -87.81   0
        88    521.2534    669.3333 300.1383320 +22.7280603     715.3644     69.36021      1.272     2.81    -10.83795     19.56364     88.79183        12     0.995     0.774  -5.37   0
        89    199.0666    664.5994 300.0396601 +22.6300086     330.3927     69.32489      1.159     4.21    -11.12902     19.56364     89.94656         7     1.081     0.467 -83.34   0
        90    184.7972    665.3984 300.0349652 +22.6259540     193.1223     69.13028      1.273     4.22    -11.18263     19.56364     29.41644         5     0.917     0.554  50.44   0
        91    256.0452    660.8145 300.0586030 +22.6460274     185.5295     69.36021      1.245     3.65    -10.92168     19.56364     36.01812         5     0.817     0.486 -56.38   0
        92    446.1748    658.9773 300.1183352 +22.7025613     777.4377     69.30722      1.169     2.21    -10.80148     19.56364      116.372        10     0.800     0.720  79.02   0
        93    100.3723    654.3389 300.0123276 +22.5974342     9629.075     69.34255      1.243     2.14    -11.19015     19.56364     1360.712        43     1.163     1.053  78.73   0
        94   1021.6336    656.1945 300.2985220 +22.8743327     411.1503     63.65133      1.196     3.02    -11.57482     19.56364       89.166        10     1.024     0.676  -1.33  16
        95     21.2716    656.0628 299.9871963 +22.5741758      344.155     69.37787      1.306     2.55    -10.96739     19.56364     55.20415         6     0.849     0.569 -23.14   0
        96    531.1934    654.6750 300.1461931 +22.7268347     503.9348     69.27187      1.360     3.37     -10.7277     19.56364     64.77299        10     1.079     0.687  14.91   0
        97    566.6829    653.9836 300.1574656 +22.7372828     138.9703     69.30722      0.996     4.39    -10.67948     19.56364     30.25062         6     0.843     0.650  54.20   0
        98    948.9672    640.1757 300.2810680 +22.8479498     492.9239     69.34255      1.136     2.12     -11.1119     19.56364     78.89933         9     0.746     0.682  23.90   0
        99     46.1829    638.6938 300.0005814 +22.5766759     656.6934     69.27187      1.644     5.33    -10.92084     19.56364     71.69533        14     1.512     0.650 -87.42   0
       100    816.0798    637.9968 300.2403490 +22.8074867     183.8579     69.25419      1.178     2.70    -10.74049     19.56364     34.18045         5     0.630     0.579   0.24   0
       101    451.3889    627.5948 300.1301629 +22.6951183     261.8143     69.21881      1.204     2.70    -10.57934     19.56364     53.39533         5     0.720     0.476 -78.64   0
       102    646.6223    624.1049 300.1920730 +22.7526818     156.3803     69.25419      1.329     4.36    -10.41755     19.56364     30.45452         5     1.141     0.475  84.54   0
       103    616.6312    624.0773 300.1827425 +22.7436787     332.1659     69.32489      1.312     2.84    -10.43195     19.56364     42.71013         6     0.788     0.480  85.82   0
       104    495.4994    623.4019 300.1452532 +22.7071488     430.8454     69.21881      1.167     2.73    -10.51391     19.56364     62.34397         9     0.831     0.756 -71.97   0
       105    929.1262    618.6147 300.2818926 +22.8358074     1550.457     69.34255      1.142     1.90    -10.93525     19.56364     257.7829        16     0.927     0.811  56.82   0
       106    461.2674    618.5756 300.1361695 +22.6954932     866.2578     69.32489      1.437     3.17    -10.50721     19.56364     108.2984        16     1.133     0.902 -32.55   0
       107     23.0799    612.4180 300.0019490 +22.5622032     2471.908     69.34255      1.277     2.26    -10.66881     19.56364     341.6619        20     0.989     0.916  43.52   0
       108    324.5251    605.5719 300.0978594 +22.6507300     4429.718     69.36021      1.250     2.21    -10.58162     19.56364     577.2194        26     1.034     0.985  80.66   0
       109    446.9289    602.5115 300.1369311 +22.6865802      4354.25     69.50134      1.273     2.20    -10.40816     19.56364     614.8811        32     1.108     1.028  61.75   0
       110    858.4325    596.3140 300.2671042 +22.8082091      939.942     69.30722      1.178     2.10     -10.5456     19.56364     150.5977        13     0.910     0.765 -84.86   0
       111    943.0904    593.5939 300.2943830 +22.8328031     6099.077     69.25419      1.175     1.92    -10.83914     19.56364     1019.127        30     1.027     0.929 -77.21   0
       112    507.4765    592.0690 300.1591686 +22.7017469     5638.173     69.43081      1.316     2.23    -10.20628     19.56364     726.6348        36     1.145     1.065  84.45   0
       113    235.0069    587.6798 300.0758425 +22.6187297      673.377     69.27187      1.366     2.19     -10.6568     19.56364     107.0451        10     0.845     0.690 -83.08   0
       114    439.2138    580.2509 300.1417679 +22.6778756     2074.446     69.37787      1.261     2.23    -10.29275     19.56364     298.7712        19     0.991     0.891 -70.31   0
       115    781.7285    580.0790 300.2484767 +22.7805500     307.1875     69.44845      0.999     2.04    -10.33086     19.56364     69.98434         7     0.767     0.563  65.46   0
       116    417.5265    578.5428 300.1355755 +22.6708786     600.6359     69.37787      1.235     2.58     -10.3834     19.56364     85.20639        11     0.845     0.808  49.67   0
       117    171.9069    578.2980 300.0592793 +22.5970982     327.3067     69.51895      1.308     3.26    -10.67298     19.56364     50.22884         8     1.055     0.549  67.19   0
       118    858.8879    575.4666 300.2740245 +22.8023558     786.1154     69.43081      1.350     3.08    -10.37099     19.56364       90.812        13     1.134     0.672 -67.44   0
       119    555.7580    567.7851 300.1820924 +22.7092570     99202.11     69.36021      1.321     2.22    -9.883376     19.56364     14338.55       127     1.348     1.310 -73.66   0
       120    739.0994    572.3890 300.2376943 +22.7655600     393.4401     69.25419      1.147     2.99    -10.12351     19.56364     62.16248         9     0.914     0.667 -56.35   0
       121    241.9424    567.8591 300.0844421 +22.6151241     1668.646     69.41317      1.277     2.15    -10.62665     19.56364     260.1266        19     1.039     0.880  53.11   0
       122    446.4531    548.0657 300.1544833 +22.6708080     1497.081     69.37787      1.361     2.46    -10.05518     19.56364     173.5896        17     1.023     0.866  53.43   0
       123    843.4529    533.9794 300.2827005 +22.7858086     860.5434     69.34255      1.268     2.85    -10.10034     19.56364     114.0698        13     0.976     0.833   4.93   0
       124    714.5193    531.7676 300.2432419 +22.7465216     1263.641     69.34255      1.308     2.66    -9.931245     19.56364     173.1613        17     0.988     0.930 -57.71   0
       125    502.1018    527.9161 300.1783508 +22.6817156     315.0134     69.50134      1.248     3.60     -9.60387     19.56364     49.16004         8     0.931     0.651  28.09   0
       126    971.7404    525.6650 300.3254018 +22.8218666     647.3013     69.37787      1.230     2.85    -10.40166     19.56364     93.16008        12     1.004     0.754  70.53   0
       127    843.5295    524.2001 300.2859032 +22.7830215     1144.043     69.25419      1.450     3.34    -10.08137     19.56364     132.8973        19     1.240     0.948  86.69   0
       128    881.6603    519.2495 300.2993988 +22.7930274     2191.026     69.39552      1.242     2.12    -10.14037     19.56364     315.3675        21     0.977     0.948  18.19   0
       129    542.6249    515.6833 300.1949403 +22.6903570     225.5897     69.30722      1.048     3.42    -9.358021     19.56364     36.45453         5     0.740     0.456  73.82   0
       130    113.8729    509.9353 300.0634659 +22.5600654     531.4026     69.37787      1.411     3.59    -10.37386     19.56364     70.65314        11     1.095     0.793 -70.16   0
       131    957.3438    524.7466 300.3212105 +22.8172885     373.3622     69.39552      1.056     2.34    -10.38514     19.56364     52.21936         6     0.682     0.608  18.64   0
       132    774.6201    502.9840 300.2713231 +22.7562700     134.4655     69.32489      1.293     4.24    -9.970916     19.56364     26.18977         5     0.813     0.632   2.18   0
       133    106.3020    500.1057 300.0643080 +22.5549728     123.9236     69.51895      0.923     3.74    -10.30822     19.56364     33.71785         5     0.838     0.480  36.95   0
       134    655.0997    489.8321 300.2383635 +22.7166600     224.2046     69.32489      1.184     3.00    -9.698985     19.56364     61.47146         7     0.957     0.515  79.08   0
       135    969.3707    481.9932 300.3388575 +22.8086034     273.7575     69.34255      1.136     2.65    -10.13364     19.56364     45.68876         7     0.734     0.643  81.09   0
       136    715.9243    482.0310 300.2598450 +22.7326545     409.7832     69.34255      1.365     2.57    -9.821366     19.56364     69.32584         9     0.789     0.743  26.41   0
       137    873.0814    478.0338 300.3101202 +22.7786116     470.9558     69.30722      1.341     3.51    -10.01214     19.56364     56.29341         9     0.796     0.772 -10.61   0
       138    857.7323    474.5529 300.3064666 +22.7730112     234.6627     69.32489      1.193     4.25    -10.00652     19.56364     44.47116         5     0.862     0.598 -50.18   0
       139    601.7922    472.7700 300.2273078 +22.6957755     1543.826     69.34255      1.321     2.56    -9.267866     19.56364     197.4735        17     1.009     0.896  77.08   0
       140    962.0142    470.9267 300.3401597 +22.8032181     256.9619     69.34255      1.230     4.53    -10.10014     19.56364     38.51324         7     1.026     0.567  58.43   0
       141   1012.9130    451.5098 300.3623450 +22.8128857     629.2997     69.50134      1.247     2.25      -10.141     19.56364      107.764        12     0.977     0.773 -78.55   0
       142    885.2652    451.3251 300.3225982 +22.7745864     319.7123     69.39552      1.102     2.93    -10.02299     19.56364     52.05856         5     0.910     0.415  15.51   0
       143    971.6359    450.0218 300.3499539 +22.8000914     475.9126     69.36021      1.394     2.28    -10.08733     19.56364     79.54795         8     0.778     0.694 -76.23   0
       144    712.2327    446.5595 300.2702220 +22.7213567     596.8523     69.39552      1.248     2.66    -9.827812     19.56364     73.54575         8     0.839     0.628  55.47   0
       145    216.4868    444.8773 300.1164968 +22.5721925     316.7912     69.46608      1.304     3.64    -9.915879     19.56364      47.1207         9     1.037     0.640 -85.73   0
       146    278.7022    440.7783 300.1371712 +22.5896832     1737.554     69.27187      1.312     2.55    -9.708269     19.56364      230.625        22     1.085     0.962  77.26   0
       147   1011.6854    438.8851 300.3660646 +22.8088882     2005.786     69.46608      1.220     2.14    -10.10169     19.56364     323.0625        20     1.001     0.887  66.69   0
       148    226.0244    435.5017 300.1225079 +22.5723634     3868.245     69.27187      1.373     2.34    -9.844302     19.56364      506.383        30     1.188     1.001 -84.18   0
       149    991.6776    429.9667 300.3627216 +22.8003302     970.5862     69.32489      1.239     2.46    -10.06616     19.56364     126.2647        11     0.865     0.779  82.81   0
       150    366.7157    429.6595 300.1681558 +22.6128946     2278.157     69.44845      1.330     2.32    -9.786766     19.56364     325.1103        22     1.028     0.999  67.48   0
       151    610.8755    426.3186 300.2452300 +22.6851558     9026.635     69.44845      1.344     2.41    -9.145532     19.56364     1079.362        41     1.188     1.120 -85.32   0
       152    627.3011    427.1594 300.2500718 +22.6903219     364.6624     69.32489      1.503     4.17    -9.319398     19.56364     37.19516         6     0.881     0.640 -26.80   0
       153    944.4390    408.3767 300.3550039 +22.7799710     327.1208     69.37787      1.175     3.42    -10.03061     19.56364     48.55627         6     0.867     0.485   0.34   0
       154    165.6462    406.5595 300.1131433 +22.5459398     995.5433     69.39552      1.343     2.40    -9.996184     19.56364     117.0063        15     0.960     0.876  22.01   0
       155    551.4790    395.7145 300.2366795 +22.6585562     3246.113     69.46608      1.360     2.37    -9.121753     19.56364     410.7448        29     1.119     1.079 -32.82   0
       156    964.9551    395.8737 300.3654641 +22.7825228     580.9289     69.32489      1.286     1.98     -9.99999     19.56364     96.61876         9     0.728     0.689 -21.75   0
       157    266.3029    395.1967 300.1481241 +22.5728787     159.0339     69.25419      1.158     4.05     -9.63077     19.56364     39.85553         5     0.729     0.712 -15.29   0
       158    123.9333    388.1004 300.1061768 +22.5281252     248.6451     69.43081      1.090     3.81    -10.02549     19.56364     40.72639         6     0.927     0.450  38.69   0
       159    755.5412    384.4321 300.3039002 +22.7164853     628.4127     69.36021      1.428     3.52     -9.72763     19.56364     72.86573        12     1.083     0.790 -62.23   0
       160    458.0739    382.0130 300.2120582 +22.6266128      2987.17     69.36021      1.407     2.54    -9.453933     19.56364     366.5176        28     1.187     1.044 -68.08   0
       161    947.5288    376.7239 300.3662507 +22.7717965     192.8113     69.43081      1.051     2.68    -9.999794     19.56364     50.90992         5     0.728     0.412  61.95   0
       162    849.9319    376.2883 300.3359630 +22.7424306     644.7721     69.48371      1.218     2.37    -9.933345     19.56364     103.2577        11     0.887     0.728 -89.79   0
       163    822.8680    364.0114 300.3315152 +22.7307922     290.3754     69.36021      1.349     2.92    -9.762868     19.56364     38.04348         5     0.797     0.487 -32.76   0
       164    345.7865    361.3388 300.1838398 +22.5870003     1214.613     69.30722      1.283     2.43    -9.405269     19.56364      159.128        16     0.954     0.918 -49.73   0
       165     63.9317    358.8576 300.0970330 +22.5017276     360.0014     69.36021      1.216     2.55    -10.12405     19.56364     74.05625         7     0.879     0.547 -14.59   0
       166    315.0387    350.8246 300.1776917 +22.5747588     14306.51     69.36021      1.371     2.35    -9.468271     19.56364     1933.837        51     1.240     1.131  83.89   0
       167    849.5321    348.0128 300.3450231 +22.7341827      610.078     69.36021      1.123     2.45    -9.855444     19.56364     107.5352        11     0.950     0.699  59.27   0
       168     11.4529    338.7757 300.0872542 +22.4802158     2409.524     69.36021      1.291     2.38    -10.16215     19.56364     304.3796        24     1.160     0.949 -64.58   0
       169    765.0997    336.6767 300.3223907 +22.7056248     331.0681     69.46608      1.654     4.74    -9.517591     19.56364     31.22573         7     1.143     0.556  30.66   0
       170    413.5587    336.0793 300.2131264 +22.6000716     392.2536     69.32489      1.901     4.58    -9.413012     19.56364     34.17406         7     0.961     0.620 -34.52   0
       171    725.4914    330.3530 300.3121034 +22.6919377     977.5078     69.34255      1.335     2.64    -9.466393     19.56364     106.6014        13     0.930     0.835 -84.16   0
       172    387.4887    315.3384 300.2117515 +22.5862971      948.313     69.41317      1.412     2.79    -9.196747     19.56364     107.0747        15     1.034     0.851 -68.29   0
       173    825.7256    307.8188 300.3506568 +22.7154953     318.1008     69.34255      1.196     3.71    -9.512339     19.56364     52.55194         6     1.171     0.337  29.91   0
       174    463.0913    294.5085 300.2420390 +22.6029835     544.7313     69.50134      1.284     2.80    -9.229479     19.56364     71.62138        10     0.962     0.650 -66.21   0
       175    707.7256    286.2954 300.3208764 +22.6739512     1091.653     69.48371      1.410     2.62    -9.354202     19.56364     124.3111        16     1.044     0.854  53.07   0
       176    969.0336    280.4352 300.4042309 +22.7505504     1521.228     69.39552      1.241     2.09    -9.474246     19.56364     242.7044        17     0.941     0.889 -54.62   0
       177    415.8625    270.4253 300.2351628 +22.5819051       374.08     69.34255      1.638     4.96    -9.086508     19.56364     34.52122         8     1.064     0.656 -39.45   0
       178     91.1576    264.4542 300.1361459 +22.4828027     772.8539     69.34255      1.638     4.68    -9.765324     19.56364       75.897        14     1.305     0.856 -46.13   0
       179    121.7357    264.2016 300.1457290 +22.4919040     352.7514     69.34255      1.082     3.90    -9.705887     19.56364      47.2417         6     0.934     0.466 -52.52   0
       180    779.3762    247.8340 300.3556895 +22.6843642     374.9214     69.36021      1.340     2.55    -9.397938     19.56364     54.77211         7     0.904     0.585  -3.36   0
       181    877.6284    236.5673 300.3899722 +22.7105578     941.4671     69.34255      1.221     2.24    -9.464947     19.56364     145.1836        13     0.876     0.789  55.90   0
       182    296.1487    234.3077 300.2096510 +22.5356344     873.2392     69.39552      1.291     2.57    -9.057161     19.56364     112.4615        14     0.911     0.872  73.37   0
       183    374.2280    229.0643 300.2356380 +22.5575410     493.5889     69.34255      1.481     4.37    -8.866593     19.56364     54.65315         7     0.820     0.662  21.78   0
       184    775.8609    228.3547 300.3609181 +22.6777109     382.1309     69.36021      1.280     3.44    -9.424552     19.56364     37.53848         5     0.796     0.430 -18.22   0
       185    190.7671    221.4061 300.1810756 +22.5003247     364.2515     69.34255      1.251     3.76    -9.401726     19.56364     46.17954         8     0.969     0.590  65.14   0
       186    728.7236    218.1737 300.3495355 +22.6606616     890.3008     69.36021      1.427     2.75    -9.454597     19.56364     120.1775        15     1.050     0.875  40.98   0
       187    793.3360    217.5824 300.3698611 +22.6798490     222.9745     69.32489      1.148     3.50    -9.358384     19.56364       37.953         5     0.750     0.472 -14.33   0
       188    211.7252    214.7322 300.1897567 +22.5046942     235.5415     69.41317      1.378     5.19    -9.262485     19.56364     39.45766         7     1.130     0.673  46.47   0
       189   1000.1302    210.2989 300.4367017 +22.7396904     441.1293     69.46608      1.200     2.29    -9.188902     19.56364     71.40911         8     0.755     0.662 -37.41   0
       190    732.9756    209.4448 300.3536939 +22.6594262     341.4606     69.36021      1.294     2.44    -9.449491     19.56364     59.00603         5     0.752     0.525 -87.31   0
       191    653.3311    208.8106 300.3290893 +22.6353802     545.8728     69.32489      1.191     2.34    -9.302222     19.56364     87.30128        10     0.852     0.719  39.69   0
       192    848.6583    200.2733 300.3927232 +22.6914437     685.8574     69.37787      1.274     2.70    -9.282338     19.56364     93.32793        11     0.937     0.730 -40.62   0
       193    579.6191    200.5709 300.3088093 +22.6109227     410.5136     69.34255      1.449     2.73    -9.069967     19.56364     64.39617        12     0.909     0.848 -77.42   0
       194    860.8782    199.2348 300.3968697 +22.6948052     376.1054     69.28955      1.261     2.88    -9.295918     19.56364      51.9484         6     0.722     0.581 -40.43   0
       195   1021.5293    190.0180 300.4499606 +22.7402638     780.5952     64.14966      1.189     2.13     -9.11091     19.56364     123.7064        12     0.898     0.746  -4.37  24
       196    977.1840    189.4395 300.4363158 +22.7268192     550.3474     69.36021      1.269     2.57    -9.128053     19.56364     69.95767         7     0.721     0.628   4.66   0
       197    211.8581    183.1390 300.2000523 +22.4956617     377.6118     69.41317      1.321     3.61    -9.152344     19.56364     47.04265         8     0.917     0.672  27.64   0
       198     73.4512    177.7005 300.1588047 +22.4525868     1017.413     69.43081      1.229     2.43    -9.489624     19.56364     136.9168        19     1.022     0.975  78.07   0
       199    896.2388    174.3114 300.4159838 +22.6982280     385.0282     69.32489      1.229     2.92    -9.104927     19.56364     55.91936         9     0.860     0.769  70.71   0
       200     22.6435    174.7093 300.1439925 +22.4364863     224.0018     69.34255      1.164     4.58    -9.610907     19.56364      47.5741         7     0.996     0.598  15.40   0
       201    230.9344    171.0966 300.2098910 +22.4979242     2817.823     69.44845      1.385     2.59    -9.068001     19.56364     344.4657        28     1.217     1.009  74.35   0
       202     14.9426    165.4515 300.1446049 +22.4315185     624.5363     69.39552      1.494     3.28    -9.599429     19.56364     88.67207        12     1.095     0.788  59.96   0
       203    214.4907    161.3641 300.2079375 +22.4901979     225.8128     69.32489      1.442     2.84    -9.070959     19.56364     41.29755         5     0.961     0.713  18.72   0
       204    874.7900    152.3006 300.4164404 +22.6854740     1685.781     69.25419      1.277     2.46    -8.976932     19.56364     216.0049        17     0.957     0.896  71.00   0
       205    978.5029    150.9458 300.4492211 +22.7161409     1364.388     69.43081      1.253     2.31     -9.00444     19.56364     185.8129        16     0.956     0.850  46.66   0
       206    424.5463    147.8325 300.2776583 +22.5492891     174.1732     69.36021      1.428     4.37     -8.96004     19.56364     33.42415         6     0.942     0.578 -19.26   0
       207    114.7155    136.5088 300.1849928 +22.4531374      258.916     69.50134      1.150     3.76    -9.224813     19.56364     37.10423         6     0.906     0.451 -89.56   0
       208    475.6653    135.0224 300.2977229 +22.5609301     861.7923     69.32489      1.535     3.39    -8.851581     19.56364      97.2318        15     1.124     0.852 -36.22   0
       209    249.7774    115.0700 300.2339299 +22.4874826      2932.77     69.36021      1.395     2.46    -8.861824     19.56364     389.0891        27     1.179     0.990  74.39   0
       210    101.0141    114.5549 300.1878588 +22.4427241     446.5591     69.36021      1.610     3.46     -9.21885     19.56364     39.30347         8     0.809     0.696 -85.10   0
       211    495.7775    100.2881 300.3152532 +22.5569755     2970.444     69.27187      1.397     2.57     -8.65413     19.56364     350.6851        24     1.091     1.002 -62.83   0
       212    381.1081    100.2619 300.2795794 +22.5226001     268.3977     69.43081      1.333     2.56    -8.969502     19.56364     56.33121         7     0.917     0.581 -89.73   0
       213    748.4047     89.6322 300.3973846 +22.6295988     394.5631     69.32489      1.562     2.77    -8.694201     19.56364     54.29692         7     0.819     0.647  65.47   0
       214    840.6891     88.4540 300.4265279 +22.6568982     198.6825     69.37787      0.993     3.46    -8.630639     19.56364      38.9947         5     0.788     0.438 -21.10   0
       215    624.1894     80.2847 300.3617229 +22.5897019     2855.741     69.30722      1.337     2.39     -8.47211     19.56364     358.1677        24     1.085     0.992  49.37   0
       216    546.7909     82.5774 300.3368791 +22.5671715     314.8232     69.34255      1.631     3.23    -8.559283     19.56364     29.86638         5     0.737     0.445  21.40   0
       217    399.4571     79.3726 300.2920652 +22.5220975     730.6229     69.34255      1.549     3.77    -8.838088     19.56364     91.55503        15     1.176     0.843  67.86   0
       218    665.2949     77.7109 300.3753604 +22.6012761     394.5873     69.51895      1.445     2.78    -8.562833     19.56364     52.28572         9     0.853     0.719 -81.66   0
       219    681.6661     73.6145 300.3817890 +22.6050023     350.2836     69.32489      1.342     4.05    -8.595512     19.56364     41.12364         6     0.868     0.540 -45.57   0
       220    950.8289     71.1261 300.4664907 +22.6848918     284.7612     69.36021      1.317     4.36    -8.652952     19.56364     44.41285         6     0.959     0.563 -26.35   0
       221    148.0254     71.5620 300.2164155 +22.4444760      310.966     69.36021      1.339     3.38    -8.598451     19.56364     41.14104         6     0.782     0.493  -5.19   0
       222    668.2129     64.9528 300.3804083 +22.5984819     1372.544     69.36021      1.387     2.83    -8.569471     19.56364     142.0852        19     1.079     0.932  53.82   0
       223    683.1033     63.6678 300.3854636 +22.6025728     463.0178     69.44845      1.517     3.43    -8.595373     19.56364     49.05202         5     0.968     0.351  45.10   0
       224    754.6238     56.6695 300.4100165 +22.6219819     795.0152     69.34255      1.406     3.26    -8.659636     19.56364       98.407        14     1.101     0.830  38.72   0
       225    692.7152     49.7964 300.3929577 +22.6014631     278.9315     69.27187      1.407     4.19    -8.605164     19.56364     38.64196         7     1.054     0.475  63.51   0
       226    498.4607     49.0629 300.3327068 +22.5430563     584.0953     69.37787      1.512     4.26    -8.535462     19.56364     54.60536        11     0.971     0.854  47.41   0
       227    402.1517     47.0964 300.3033739 +22.5136300       335.55     69.37787      1.331     4.02    -8.607849     19.56364     50.59688         7     0.998     0.519  59.25   0
       228    173.6385     37.5651 300.2354038 +22.4423913     1917.909     69.39552      1.452     2.53      -8.0432     19.56364     223.0497        22     1.088     1.006 -78.45   0
       229    289.5052     29.7565 300.2739593 +22.4748840     505.8354     69.36021      1.214     2.88    -8.316726     19.56364     71.31226         8     0.902     0.604 -54.54   0
       230    734.8720     29.1372 300.4127931 +22.6081482     517.9105     69.37787      1.606     4.00    -8.633409     19.56364     51.83293         8     0.868     0.732 -73.66   0
       231    696.4368     24.2879 300.4023915 +22.5952423     251.5446     69.32489      1.147     3.34    -8.598076     19.56364     37.00694         5     0.765     0.423  66.04   0
       232    792.8334     21.0658 300.4334731 +22.6231843     1129.708     69.34255      1.341     2.29    -8.637999     19.56364     150.8663        17     1.009     0.896 -53.99   0
       233    176.3259     16.3178 300.2431305 +22.4370938     411.1682     69.44845      1.470     3.02    -7.773719     19.56364     48.25731        10     0.917     0.731 -40.82   0
       234    967.5900     14.2656 300.4901635 +22.6735488     315.0472     69.30722      1.031     1.91    -8.451499     19.56364     63.62197         5     0.620     0.492  89.96   0
