#   1 NUMBER                 Running object number                                     
#   2 X_IMAGE                Object position along x                                    [pixel]
#   3 Y_IMAGE                Object position along y                                    [pixel]
#   4 ALPHA_J2000            Right ascension of barycenter (J2000)                      [deg]
#   5 DELTA_J2000            Declination of barycenter (J2000)                          [deg]
#   6 FLUX_APER              Flux vector within fixed circular aperture(s)              [count]
#   7 FLUXERR_APER           RMS error vector for aperture flux(es)                     [count]
#   8 FLUX_RADIUS            Fraction-of-light radii                                    [pixel]
#   9 FWHM_IMAGE             FWHM assuming a gaussian core                              [pixel]
#  10 BACKGROUND             Background at centroid position                            [count]
#  11 THRESHOLD              Detection threshold above background                       [count]
#  12 FLUX_MAX               Peak flux above background                                 [count]
#  13 ISOAREA_IMAGE          Isophotal area above Analysis threshold                    [pixel**2]
#  14 A_IMAGE                Profile RMS along major axis                               [pixel]
#  15 B_IMAGE                Profile RMS along minor axis                               [pixel]
#  16 THETA_IMAGE            Position angle (CCW/x)                                     [deg]
#  17 FLAGS                  Extraction flags                                          
         1    741.4290     13.9790 300.4197530 +22.6054849     324.4805       69.411      1.043     3.09    -8.331611     19.58295     51.44996         7     0.735     0.647  76.95   0
         2    636.8123   1020.6351 300.0600942 +22.8632850     4108.641     67.16467      1.123     1.76    -12.93198     19.58295     732.4141        30     1.082     0.949  77.60  18
         3    642.4144   1018.3151 300.0625937 +22.8643011     4457.014     69.35794      1.078     1.91    -12.94319     19.58295     713.8582        24     0.992     0.842 -83.03  19
         4    204.8465   1020.3007 299.9258527 +22.7334627      2713.71     68.10815     13.211    28.74     5.547416     19.58295     61.71741       212     6.047     3.792   4.05  27
         5    242.7625   1008.7740 299.9413878 +22.7415499     4781.566     69.42868      9.865    30.59    -2.907691     19.58295     109.8471       561     9.234     5.060  57.74  18
         6     90.4532   1018.7283 299.8908288 +22.6986393     1466.182     69.39332     12.667    18.96     11.21194     19.58295     54.38102        54     3.923     2.546 -65.39  27
         7     63.5882    995.1414 299.8901644 +22.6838073     1982.023     69.37563     20.833    36.68    -1.326048     19.58295     52.77313       215     8.811     4.238 -67.43  19
         8     81.0599    970.5691 299.9035886 +22.6820160     2305.327     69.44635     18.698    25.59    -1.748772     19.58295     53.78994       162     7.064     2.575 -20.36   3
         9    929.7601   1004.7714 300.1565181 +22.9466435     361.5133     69.44635      1.174     3.55    -13.49042     19.58295     60.48814         9     1.039     0.605  89.76   0
        10    117.3550   1005.4605 299.9035035 +22.7029213     861.1861     69.42868      3.115     3.42     9.907976     19.58295     28.13511         5     1.104     0.306  69.70   0
        11    169.3447   1015.2206 299.9164762 +22.7213400     949.7657     69.39332      4.635     5.38     10.67777     19.58295     46.02443        11     1.485     0.551  76.43  16
        12    166.2980   1001.3270 299.9200527 +22.7164426     612.0058     69.53465      6.879     6.45     8.017257     19.58295     39.42177         8     2.108     0.554  65.16   0
        13    171.8889   1011.3862 299.9185149 +22.7210055     1275.695     69.35794      6.292     6.12     9.304333     19.58295     41.84916        12     1.519     1.213  62.36   2
        14     80.9634    950.1323 299.9102103 +22.6761302      1500.18       69.411     22.473    50.84     -6.06185     19.58295     51.67886       383    12.221     5.869 -49.64  19
        15    176.4408   1023.3094 299.9160474 +22.7257904     915.2643     55.96204      3.954     5.46     11.21339     19.58295     42.61269        11     1.204     0.697  -0.44  26
        16    655.1143    987.7314 300.0765049 +22.8593385     3369.462     69.49934      1.162     2.01    -12.94271     19.58295     567.9131        22     0.971     0.868  46.25   0
        17     77.6947   1019.0061 299.8867761 +22.6948848     2000.085     69.30484     19.732    32.10     7.075611     19.58295     51.27168       175     6.345     4.507  19.13  27
        18    127.4748    984.7766 299.9133800 +22.7000343     536.0212     69.44635      5.251     5.23     4.935785     19.58295     27.26926         5     1.076     0.719  10.11   0
        19    563.6342    978.4073 300.0510642 +22.8292030     740.3226       69.411      1.058     1.98    -12.84135     19.58295     122.7259        11     0.844     0.722  14.52   0
        20    107.6106    979.1559 299.9090396 +22.6924548     906.4454       69.411      7.407     7.43     3.349776     19.58295     41.54007        12     2.440     0.633  -5.31   1
        21    740.4869    975.7682 300.1069849 +22.8815281     234.3534     69.37563      1.315     3.44    -13.32975     19.58295     35.44825         5     0.787     0.435 -67.94   0
        22    457.6613    975.0615 300.0191802 +22.7964264     545.0811     69.44635      1.057     1.97    -12.93671     19.58295     95.68505         8     0.729     0.637  55.90   0
        23    388.1111    973.1052 299.9981850 +22.7749804     3287.417     69.58758      1.170     1.93    -13.03635     19.58295     601.1294        24     0.964     0.927  75.99   0
        24    114.6084    973.1794 299.9131584 +22.6928447     1101.665     69.37563      8.585     9.33     1.883552     19.58295      36.2773        18     1.986     1.223  31.24   0
        25    737.1152   1021.1844 300.0911483 +22.8935492     347.1353     65.42465      1.061     2.37    -13.72658     19.58295     71.67258         6     0.748     0.548 -86.28  16
        26     95.1308    961.0860 299.9110451 +22.6835263     1044.656       69.517      6.785     6.56    -1.670217     19.58295     52.43051        17     1.485     1.111 -34.70   1
        27    934.3184    951.5524 300.1752651 +22.9327316     1109.082     69.42868      1.112     2.02    -13.48554     19.58295     168.6792        14     0.857     0.797 -87.13   0
        28     72.4816    996.5704 299.8924609 +22.6868893     1749.743     69.42868     18.571    22.84     1.145727     19.58295     45.46463       108     5.685     2.549  82.87  19
        29     85.7935    989.2672 299.8989724 +22.6887967     2837.632     69.39332     23.160    48.08     3.174089     19.58295     64.50509       564    10.116     6.342  51.39  19
        30    780.1826    928.4208 300.1347620 +22.8798501     5501.523     69.39332      1.065     1.70    -13.02022     19.58295     1038.995        29     0.964     0.926  79.80   0
        31    757.9706    934.7205 300.1257924 +22.8749936     490.8564       69.411      1.067     2.45    -13.01375     19.58295     100.0331         9     0.913     0.597 -52.30   0
        32    485.8798    916.5246 300.0470118 +22.7881082      259.955       69.517      1.381     5.08    -12.84566     19.58295     35.40991         6     0.901     0.809 -77.56   0
        33    831.9788    916.0074 300.1549396 +22.8918267     184.5179     69.39332      0.854     2.13    -13.02811     19.58295     43.93416         5     0.618     0.558   0.13   0
        34    501.6327   1009.2980 300.0217141 +22.8194489      158.692     69.39332      1.122     5.94    -12.85193     19.58295     32.50169         8     1.696     0.585 -38.42   0
        35    788.7745    910.4231 300.1432963 +22.8772617     778.9954     69.37563      1.113     1.89    -12.97967     19.58295     141.3665         9     0.795     0.599  70.84   0
        36    826.9595    903.8640 300.1573279 +22.8868347     512.8615     69.37563      1.196     2.53    -12.98006     19.58295     84.19108         9     0.870     0.695 -70.26   0
        37    726.4817    894.3826 300.1291130 +22.8539672     256.9298     69.37563      0.953     2.40    -12.80898     19.58295     70.94173         6     0.795     0.500  89.53   0
        38    439.2426    890.7130 300.0409034 +22.7667025     2089.317       69.411      1.124     1.93    -12.88547     19.58295     374.5217        19     0.914     0.838  68.82   0
        39    738.0585    890.9636 300.1338314 +22.8564594     299.2144       69.411      1.153     2.38    -12.85627     19.58295      62.5028         8     0.799     0.638  43.33   0
        40    216.9926    879.4818 299.9754596 +22.6967426     223.8187     69.34025      1.092     4.17    -12.01362     19.58295     37.86644         5     0.765     0.649  88.75   0
        41    223.2611   1018.9037 299.9320296 +22.7385947     3469.228     69.49934      9.746    28.71     2.274309     19.58295     72.05592       265     5.482     4.691  23.81  27
        42    164.4748    876.7592 299.9600274 +22.6801875     465.2962     69.39332      1.233     3.01    -11.47376     19.58295     62.16195         8     0.838     0.662 -51.88   0
        43    141.5861    873.6373 299.9539325 +22.6724171     737.7759       69.411      1.094     2.02    -11.71248     19.58295     116.2864        12     0.838     0.741 -52.75   0
        44   1013.2250    862.3606 300.2288959 +22.9307826     936.3295     69.44635      1.098     1.83    -12.73377     19.58295     191.4235        13     0.889     0.748 -84.23   0
        45    967.4048    860.7736 300.2151250 +22.9165867     972.4725     69.37563      1.041     2.03    -12.77794     19.58295     181.0403        11     0.897     0.657  37.66   0
        46    672.7354    860.9999 300.1232387 +22.8282584     264.7107     69.42868      1.282     4.14    -12.28698     19.58295     40.98788         7     1.126     0.435 -33.57   0
        47    173.7272    854.5567 299.9701257 +22.6766012     248.4279     69.39332      1.209     4.34    -12.24522     19.58295     38.86442         7     1.375     0.391 -80.67   0
        48    619.1362    848.7748 300.1105289 +22.8086658     2339.579     69.39332      1.134     1.74    -12.41897     19.58295     472.6684        19     0.896     0.834 -10.58   0
        49    421.3303    845.8854 300.0499178 +22.7484656     340.0134       69.517      1.085     2.34    -12.64592     19.58295     60.23393         5     0.697     0.453 -76.37   0
        50    169.5043    842.7626 299.9726507 +22.6719513     673.2487     69.39332      1.248     2.59    -12.24322     19.58295     84.48855        14     0.936     0.871 -36.27   0
        51    639.5070    841.0522 300.1193833 +22.8125623     453.4891     69.46402      1.246     2.40    -12.26355     19.58295     64.64724         6     0.747     0.493  81.56   0
        52    188.3578    839.6418 299.9795238 +22.6767191     189.7805       69.517      0.998     3.76    -12.23694     19.58295     33.59447         5     0.969     0.419 -74.59   0
        53    556.3324    831.9818 300.0964441 +22.7849989     246.1335       69.411      1.677     4.42    -12.27983     19.58295     25.99049         6     0.848     0.655 -56.09   0
        54   1012.1646    828.3685 300.2396257 +22.9207007     494.5992     69.42868      1.165     2.15    -12.64723     19.58295     97.22839         9     0.763     0.705 -87.83   0
        55    795.1143    828.4573 300.1719433 +22.8556322     2032.404       69.517      1.024     1.85    -12.38747     19.58295     370.3123        15     0.832     0.775  75.24   0
        56    512.1276    821.3097 300.0861599 +22.7686694     410.1472     69.56994      1.342     4.57    -12.28024     19.58295     56.78261         8     0.908     0.654  71.99   0
        57    158.5620    819.2049 299.9769147 +22.6619103     377.6361     69.42868      1.111     2.54    -12.24487     19.58295     76.83298         8     0.771     0.721  73.29   0
        58    573.8262    814.6000 300.1075434 +22.7852607     230.2267     69.35794      1.003     2.50    -12.05704     19.58295     54.49652         7     0.797     0.606 -34.32   0
        59    308.3743    811.2963 300.0260458 +22.7046309     26429.18     69.37563      1.139     1.95    -12.32641     19.58295     4139.092        60     1.113     1.056  78.60   0
        60    566.1481    810.1229 300.1066102 +22.7816717     703.9395       69.411      1.101     1.77    -12.00776     19.58295     171.3172        11     1.026     0.630  59.90   0
        61    978.9672    809.2747 300.2354861 +22.9052621     388.5469       69.411      0.940     1.65    -12.60277     19.58295      108.566         7     0.656     0.581   7.59   0
        62    595.0824    806.3615 300.1168397 +22.7892750     391.2325     69.37563      1.027     2.18    -11.91467     19.58295     81.96302         7     0.811     0.562  55.57   0
        63    748.9766    790.7727 300.1698303 +22.8309724     398.4684     69.39332      1.230     1.94    -11.98372     19.58295     87.07732         7     0.704     0.624 -18.31   0
        64    358.0356    788.4705 300.0489111 +22.7129933     15442.02     69.42868      1.170     1.92    -12.13661     19.58295     2457.492        48     1.089     1.012  76.59   0
        65    372.1929    788.9373 300.0531616 +22.7173773     999.7498     69.37563      1.180     2.13    -12.14188     19.58295      148.955        10     0.803     0.686  83.94   0
        66    881.0015    784.0378 300.2131569 +22.8686369     1318.959     69.42868      1.061     1.74    -12.34525     19.58295     305.3372        11     0.828     0.645  82.87   0
        67    369.0001    783.0364 300.0540881 +22.7147260     327.4896     69.39332      1.346     3.23    -12.08815     19.58295      40.4464         5     0.645     0.581 -90.00   0
        68    639.0823    780.2938 300.1390166 +22.7949953     406.1109     69.56994      1.057     2.80    -11.78379     19.58295     86.34965         9     0.929     0.642 -72.28   0
        69    240.5193    780.7622 300.0148858 +22.6754989     388.1738     69.37563      1.138     3.27    -12.04898     19.58295      68.8153         7     0.900     0.612 -41.95   0
        70    486.2073    775.0895 300.0931298 +22.7476269     415.8602     69.32255      1.316     2.38     -11.8801     19.58295     64.35684         8     0.803     0.617 -46.07   0
        71     45.3778    776.1849 299.9557523 +22.6155795     294.3854       69.411      1.148     2.16    -12.14365     19.58295     46.69141         5     0.699     0.449  69.99   0
        72    531.0581    752.9547 300.1142847 +22.7547345     312.7653     69.44635      1.211     3.15    -11.56398     19.58295     55.91735         5     0.781     0.513  59.18   0
        73    553.0352    750.5632 300.1219019 +22.7606429     730.7997     69.48168      1.289     1.99    -11.54162     19.58295     110.3808        10     0.842     0.638  66.20   0
        74    947.3768    749.3974 300.2451144 +22.8785901     2222.609     69.35794      1.025     1.72    -11.93824     19.58295     426.5923        15     0.816     0.739 -56.70   0
        75    472.5303    749.9636 300.0970466 +22.7363119     269.4285     69.39332      1.275     2.63    -11.61132     19.58295     42.56963         6     0.774     0.498 -86.30   0
        76    935.9131    740.7259 300.2443609 +22.8726619     894.9089      69.5523      1.176     1.91    -11.85968     19.58295     171.3031        13     1.156     0.725  85.03   0
        77    298.8573    735.0272 300.0478930 +22.6798960     426.5498       69.411      1.132     2.14    -11.61799     19.58295      86.2624         6     0.813     0.462  54.23   0
        78    761.9525    732.1287 300.1929465 +22.8180256     1193.814     69.39332      1.108     1.73    -11.76689     19.58295      262.947        12     0.835     0.723  73.39   0
        79    967.0076    730.9800 300.2572248 +22.8791848      783.919     69.37563      1.154     1.71    -11.73783     19.58295     190.7394        14     0.914     0.821  72.82   0
        80    147.5310    718.6842 300.0061794 +22.6297726     316.5141       69.517      1.332     4.66    -11.69473     19.58295     43.85728         7     0.890     0.692  39.05   0
        81    844.6865    717.7039 300.2234144 +22.8386948     221.7408     69.58758      1.040     2.85    -11.84618     19.58295     55.89451         5     0.738     0.451   7.01   0
        82    880.5729    709.0254 300.2374205 +22.8469628     72099.82     69.37563      1.099     1.80    -11.75238     19.58295     13456.15       107     1.189     1.088  66.47   0
        83    733.1513    709.4793 300.1913408 +22.8028832     436.8008       69.411      1.027     1.69    -11.55249     19.58295     73.22921         5     0.655     0.457 -25.40   0
        84    913.3572    701.7827 300.2499943 +22.8547119      201.317     69.42868      1.075     3.17    -11.69917     19.58295     52.05667         5     0.818     0.482 -41.08   0
        85    566.8787    698.0975 300.1432719 +22.7497369     803.7405       69.517      1.205     2.30    -11.26266     19.58295     148.2748        10     0.833     0.683  81.62   0
        86    748.0721    695.2714 300.2006083 +22.8032783     4541.024     69.46402      1.147     1.88    -11.52488     19.58295     862.0671        25     0.997     0.855  72.82   0
        87    249.7440    690.6412 300.0470589 +22.6524187     2341.003     69.39332      1.200     2.03    -11.31598     19.58295     390.2635        22     1.034     0.922  83.29   0
        88    331.7285    688.5728 300.0732176 +22.6764360     615.8616     69.39332      1.222     3.05    -11.22289     19.58295     96.20599        10     0.973     0.798  49.70   0
        89    540.2739    684.0250 300.1395674 +22.7377150     383.8548     69.42868      1.250     3.76    -11.06199     19.58295     54.95231         7     0.866     0.706  27.90   0
        90    531.5746    676.1674 300.1394149 +22.7328494     1469.704       69.411      1.201     2.14     -11.0197     19.58295     232.1221        17     0.972     0.836 -84.26   0
        91    521.9603    669.9901 300.1384314 +22.7281915     757.5176       69.411      1.395     2.58    -10.98511     19.58295     101.2008        12     0.937     0.765 -89.72   0
        92    915.1049    667.8977 300.2615571 +22.8455012     231.4363     69.58758      1.106     3.28    -11.53782     19.58295     58.44757         7     1.019     0.769 -57.40   0
        93    185.3489    666.7100 300.0348273 +22.6262210      300.973     69.42868      1.132     2.13    -11.42546     19.58295     51.04033         5     0.677     0.463 -76.80   0
        94    199.6007    664.6085 300.0399390 +22.6298970      358.473     69.23398      1.373     4.17    -11.34316     19.58295     48.10254         6     1.084     0.459 -55.61   0
        95    968.6552    660.8466 300.2805442 +22.8595283     266.1955     69.44635      1.018     1.97       -11.54     19.58295     52.64006         5     0.685     0.449  72.49   0
        96    446.6191    659.7028 300.1183348 +22.7026321     774.3127     69.34025      1.146     2.19    -11.01247     19.58295     128.5762        11     0.822     0.740  26.29   0
        97   1022.2211    656.7861 300.2985678 +22.8744174     468.3605     61.19915      1.188     2.26     -11.5136     19.58295     71.57726         6     0.703     0.556 -37.13  16
        98    100.7282    654.8965 300.0123788 +22.5974247     9556.642       69.517      1.234     2.10    -11.62717     19.58295     1514.173        37     1.062     1.021  81.09   0
        99     21.4961    656.0995 299.9873819 +22.5739762     357.8871     69.60521      1.089     2.03    -11.71684     19.58295     47.81877         6     0.719     0.500 -88.70   0
       100    531.6241    655.0715 300.1462888 +22.7268084     549.3138     69.44635      1.329     2.50    -10.81063     19.58295     62.78209         7     0.733     0.614  85.35   0
       101    566.4969    653.9930 300.1574926 +22.7369610     134.8276     69.30484      1.046     3.40    -10.88644     19.58295     36.26993         5     0.740     0.620  -1.22   0
       102    949.5314    640.8791 300.2810735 +22.8480585     456.5813       69.517      1.001     2.17    -11.44748     19.58295     106.0962         7     0.780     0.560 -61.40   0
       103     46.7335    639.1146 300.0007395 +22.5766847     733.6472     69.49934      1.644     4.55    -11.60344     19.58295     76.35997        13     1.351     0.634 -89.05   0
       104    816.0544    639.1802 300.2400242 +22.8075543     189.3163     69.39332      1.209     4.00    -11.25145     19.58295     33.68182         6     0.927     0.493 -37.34   0
       105    112.9109    639.2214 300.0212582 +22.5965871     250.0316     69.34025      1.410     3.81    -11.52361     19.58295     34.90347         5     0.800     0.520  57.62   0
       106    889.6465    633.5828 300.2647778 +22.8280101     497.7123     69.44635      1.527     2.80    -11.37636     19.58295     51.07988         7     0.801     0.657  69.54   0
       107    451.4988    627.8054 300.1302218 +22.6949410     291.9297     69.30484      0.992     1.65     -10.8457     19.58295     64.48847         5     0.637     0.470 -66.75   0
       108    647.1172    624.9328 300.1920366 +22.7528004     216.6369       69.517      1.153     2.58    -10.89167     19.58295     46.39507         5     0.765     0.498  37.63   0
       109    495.8993    624.0033 300.1452716 +22.7071714     408.7378     69.30484      1.300     2.44    -10.65213     19.58295     59.89709         8     0.799     0.642  49.20   0
       110    929.5448    619.0045 300.2819537 +22.8357819     1686.919     69.37563      1.155     1.81    -11.35246     19.58295     281.3129        16     0.883     0.784  87.01   0
       111    461.5010    619.3433 300.1360841 +22.6955132     783.9063     69.49934      1.185     2.48    -10.75806     19.58295     116.5086        12     0.880     0.758  69.33   0
       112     23.5291    613.1428 300.0019755 +22.5622684     2294.457     69.42868      1.178     2.12    -11.47189     19.58295     342.3665        18     0.907     0.891  38.00   0
       113    324.8735    606.1099 300.0978927 +22.6507161     4435.387     69.56994      1.259     2.15    -10.95324     19.58295     694.5867        25     1.076     0.903  74.94   0
       114    447.2921    603.0764 300.1369510 +22.6865805      4374.42      69.5523      1.249     2.18    -10.72307     19.58295     587.6827        27     1.080     0.921  78.53   0
       115    858.9376    596.7346 300.2671848 +22.8082172       1038.9     69.44635      1.361     2.23    -11.25178     19.58295     154.9982        14     0.972     0.834  57.05   0
       116    943.4232    594.0953 300.2943771 +22.8327841       6046.9     69.30484      1.130     1.93    -11.27441     19.58295     1043.609        28     0.970     0.910 -87.82   0
       117    507.8383    592.6813 300.1591671 +22.7017613     5650.358     69.37563      1.264     2.15    -10.40908     19.58295      879.348        33     1.099     1.008  55.66   0
       118    235.4207    588.3885 300.0758450 +22.6187830     628.4704     69.39332      1.184     2.73    -11.06292     19.58295     91.39893        12     0.923     0.781  80.31   0
       119    677.2769    588.0908 300.2134027 +22.7512653     191.3408      69.5523      0.901     3.35    -10.72297     19.58295     39.52052         5     0.787     0.414  75.26   0
       120    439.5717    580.8917 300.1417595 +22.6778959     2207.891     69.39332      1.265     2.21    -10.58445     19.58295     317.8807        20     0.993     0.921  78.65   0
       121    782.0945    580.3168 300.2485770 +22.7804626     319.9884     69.58758      1.224     4.50    -10.84551     19.58295     50.55949         9     1.030     0.664  86.55   0
       122    417.8880    579.4016 300.1354988 +22.6709623     600.3186     69.34025      1.291     2.69    -10.63584     19.58295      88.3684        11     0.973     0.690 -81.24   0
       123    172.1016    579.0119 300.0592155 +22.5970861     301.2484     69.30484      1.136     2.71    -11.19083     19.58295      61.2665         5     0.640     0.559 -89.29   0
       124    859.2563    576.0261 300.2740148 +22.8023628     873.5888       69.411      1.372     2.44    -11.19646     19.58295      115.877        13     0.990     0.763 -23.94   0
       125    739.4791    573.1473 300.2376318 +22.7656256     440.4065     69.42868      1.063     2.14    -10.67256     19.58295      73.7313         7     0.716     0.596  61.20   0
       126    556.1347    568.3814 300.1820944 +22.7092721     98976.78     69.37563      1.281     2.26    -10.26617     19.58295     13122.77       121     1.276     1.243  79.33   0
       127    242.2678    568.4969 300.0844373 +22.6151306      1680.67       69.517      1.228     2.35    -11.04503     19.58295     222.1918        17     0.956     0.874  63.08   0
       128    446.8157    548.6727 300.1544831 +22.6708200     1358.677       69.411      1.277     2.15    -10.32909     19.58295     193.3937        16     0.906     0.879  47.65   0
       129    843.6083    534.5500 300.2826171 +22.7857545      820.601       69.411      1.199     2.51    -10.93978     19.58295     105.1906        11     0.903     0.710  75.00   0
       130    714.9342    532.3917 300.2432311 +22.7465586     1328.759       69.411      1.189     2.05    -10.43009     19.58295     213.0611        17     0.915     0.879  41.36   0
       131    924.3177    529.4538 300.3094289 +22.8084810     271.1398     69.44635      1.514     3.33    -11.08074     19.58295     36.87653         5     0.904     0.496   3.52   0
       132    502.1430    528.5894 300.1782226 +22.6816512     332.2697     69.37563      1.336     3.46    -10.19699     19.58295     52.77723         6     0.916     0.568 -63.40   0
       133    971.9567    526.1440 300.3253569 +22.8218066     677.4487       69.411      1.159     2.16    -11.04113     19.58295     125.9096         9     0.853     0.629  35.20   0
       134    958.3077    525.0792 300.3214472 +22.8174102     393.1359     69.53465      1.323     2.70    -11.04187     19.58295     61.24267         7     0.818     0.612  19.90   0
       135    843.9357    524.7454 300.2859051 +22.7830353     1010.288     69.46402      1.363     2.85    -10.86715     19.58295     146.1548        14     1.227     0.735  71.39   0
       136    435.6176    521.8094 300.1597282 +22.6597484     182.1464     69.35794      1.281     3.49    -10.26435     19.58295      28.6288         5     0.801     0.438  71.77   0
       137    882.0883    519.7668 300.2994132 +22.7930404     2055.031     69.37563      1.207     2.02    -10.96197     19.58295     368.5167        19     0.974     0.812  70.21   0
       138    114.2797    510.5549 300.0634949 +22.5600889     426.8001     69.39332      1.169     2.33    -10.99677     19.58295     68.64417        10     0.887     0.655 -88.22   0
       139    973.9211    510.1882 300.3311540 +22.8178090     328.0347     69.39332      1.120     2.64    -10.93356     19.58295     53.08535         8     0.784     0.665  44.27   0
       140    106.7691    500.3655 300.0644720 +22.5549110     241.1999     69.42868      1.323     4.90    -10.92003     19.58295     28.23639         6     0.952     0.714  21.90   0
       141    655.6009    490.3021 300.2384291 +22.7166776     316.6557     69.28713      1.194     3.33    -10.34086     19.58295     47.20525         9     0.877     0.807  -2.19   0
       142    970.0984    482.5556 300.3389400 +22.8087205     308.8447       69.411      1.085     3.77    -10.75397     19.58295     49.32261         8     0.966     0.643 -37.22   0
       143    716.3322    482.5043 300.2598751 +22.7326461     283.0067      69.5523      1.116     2.15    -10.38176     19.58295     56.07944         5     0.660     0.479  18.34   0
       144    873.4126    478.8920 300.3099895 +22.7786933     509.5327     69.35794      1.150     2.27    -10.61642     19.58295     84.77616         7     0.779     0.564  63.92   0
       145    857.6441    475.2338 300.3062636 +22.7729160     327.6036     69.46402      1.140     2.25    -10.56868     19.58295     57.57911         6     0.672     0.622   0.54   0
       146    602.1120    473.1931 300.2273339 +22.6957243     1572.368     69.32255      1.299     2.39    -10.20809     19.58295     209.1013        17     0.940     0.893  38.22   0
       147    441.8602    460.2837 300.1816578 +22.6439559      323.468       69.517      1.357     3.23    -10.09226     19.58295      37.1316         5     0.921     0.347  47.69   0
       148   1013.3533    451.9690 300.3623648 +22.8128876     606.5147     69.44635      1.186     2.30    -10.75979     19.58295     102.8239        11     0.917     0.666  60.56   0
       149    971.5949    450.6217 300.3497807 +22.7999889     428.1844     69.39332      0.971     2.36    -10.71967     19.58295     89.89188         7     0.841     0.510  60.44   0
       150    712.5692    447.1174 300.2701985 +22.7213510     551.4326       69.411      1.213     2.57     -10.2157     19.58295      95.8934         8     0.917     0.552  46.33   0
       151    216.9256    445.3325 300.1165742 +22.5721799     313.1195     69.48168      1.116     2.60    -10.33836     19.58295     63.93069         6     0.840     0.468 -39.90   0
       152    279.1591    441.1552 300.1372746 +22.5896545     1734.052     69.48168      1.281     2.35    -10.16991     19.58295     253.7638        18     1.008     0.871  69.14   0
       153   1011.9845    439.3652 300.3660320 +22.8088538     2149.567       69.411      1.129     1.83    -10.76702     19.58295      393.324        19     0.908     0.864  79.46   0
       154    226.3234    435.9866 300.1225304 +22.5723175     3812.144     69.42868      1.334     2.23    -10.25381     19.58295     510.7653        30     1.128     1.062  20.45   0
       155    991.9565    430.4195 300.3626921 +22.8002816      942.779     69.42868      1.136     2.02    -10.73887     19.58295     149.1891         9     0.769     0.665  66.40   0
       156    367.1231    430.2206 300.1681764 +22.6129053     2395.503       69.411      1.303     2.40    -9.985283     19.58295     317.4737        23     1.019     0.994  18.26   0
       157    611.2086    426.8415 300.2452218 +22.6851373     9104.763     69.42868      1.322     2.37    -9.967473     19.58295      1206.96        40     1.196     1.036  67.02   0
       158    628.2131    427.9335 300.2501612 +22.6905494     435.8386     69.37563      2.184     5.06    -9.969051     19.58295     39.84476         5     1.069     0.677  65.94   2
       159    944.6586    408.8412 300.3549530 +22.7799071     448.1848       69.411      1.518     5.19    -10.62236     19.58295     52.24987        10     1.325     0.697 -68.79   0
       160    166.0230    407.2580 300.1131216 +22.5459775     1059.226       69.411      1.319     2.41    -10.40694     19.58295     156.7688        13     0.960     0.759  43.79   0
       161    551.7958    396.2717 300.2366559 +22.6585416     3193.994     69.35794      1.341     2.44    -9.870425     19.58295     409.6317        25     1.121     0.972  77.14   0
       162    965.2393    396.3694 300.3654203 +22.7824875     634.1701       69.411      1.165     2.27    -10.65613     19.58295     94.75186         9     0.799     0.685  82.14   0
       163    266.7360    395.7132 300.1481705 +22.5728826      230.023     69.49934      1.104     3.25    -10.07823     19.58295     49.15032         6     0.723     0.637 -65.10   0
       164    124.4360    389.2114 300.1060612 +22.5283184     251.4151       69.411      1.193     3.39    -10.33132     19.58295      34.5037         5     0.760     0.437  67.77   0
       165    665.8480    385.0461 300.2758078 +22.6895105     423.8161     69.42868      1.261     4.19    -9.853964     19.58295     205.7002         6     1.416     0.354 -87.62   0
       166    756.2155    385.1804 300.3039097 +22.7166362     531.9051     69.39332      1.347     2.85    -10.07851     19.58295     76.12334        11     0.990     0.729 -61.01   0
       167    458.4775    382.5503 300.2120731 +22.6266170     2941.784       69.411      1.321     2.47    -9.827818     19.58295     372.0182        20     1.043     0.904  60.01   0
       168    850.5122    376.7752 300.3360204 +22.7424796     698.8459     69.35794      1.193     2.91    -10.17874     19.58295     115.5174        11     0.972     0.740  55.03   0
       169    947.3569    376.3949 300.3663315 +22.7713872     332.3511     69.42868      1.184     3.57    -10.56272     19.58295     57.46024         5     0.890     0.412  45.43   0
       170    345.9916    361.8317 300.1838131 +22.5869303     1183.833       69.411      1.352     2.63    -9.790887     19.58295     162.6896        16     1.028     0.899  58.35   0
       171     64.4911    359.2985 300.0971535 +22.5017443     386.3668     69.58758      1.109     1.85    -10.12031     19.58295     75.52446         5     0.639     0.478  69.81   0
       172    315.3676    351.2790 300.1777171 +22.5747144     14607.74     69.39332      1.341     2.44    -9.832097     19.58295     1605.279        51     1.229     1.126  85.45   0
       173    850.0829    348.5844 300.3450405 +22.7342472     678.9413     69.37563      1.281     2.66    -10.05026     19.58295     108.6141        11     0.973     0.696  59.19   0
       174    805.4124    346.2654 300.3318734 +22.7201952     53.45438     69.35794      1.004     3.75    -9.978039     19.58295     33.75304         5     1.110     0.447  33.94   0
       175     11.6890    339.1924 300.0872836 +22.4801277     2345.916     69.32255      1.258     2.21    -10.07094     19.58295     331.4624        20     0.999     0.911  62.53   0
       176    765.8033    337.3521 300.3224268 +22.7057635      383.924     69.39332      1.541     4.35    -9.940586     19.58295     35.54294         7     0.872     0.619  26.18   0
       177    725.8557    330.7816 300.3121161 +22.6919031     907.6821     69.39332      1.303     2.74    -9.892241     19.58295     115.3015        14     0.974     0.823  75.27   0
       178    941.0344    323.3131 300.3815960 +22.7542306     294.1567     69.37563      1.179     4.56     -10.2789     19.58295     45.72262         9     1.034     0.703 -74.70   0
       179    976.9760    321.3998 300.3934236 +22.7644468     2178.339     69.34025      0.612     1.08    -10.39929     19.58295      1104.82         6     0.490     0.309  86.86   0
       180    387.6587    315.6054 300.2117789 +22.5861523      1091.67     69.37563      1.541     2.57    -9.734842     19.58295     134.9519        15     1.009     0.836  63.13   0
       181    826.4898    308.1442 300.3508177 +22.7155525     322.6236     69.44635      1.158     2.17    -9.956419     19.58295     53.08271         5     0.701     0.452  66.43   0
       182    463.4734    295.0778 300.2420264 +22.6029903     506.2794       69.517      1.267     2.90     -9.44976     19.58295     81.80344        13     1.009     0.820  73.41   0
       183    708.2719    286.6600 300.3209626 +22.6739523     1056.544     69.44635      1.277     2.30    -9.784087     19.58295     152.6825        15     0.974     0.810  33.14   0
       184    969.3519    280.9670 300.4041723 +22.7505356     1520.013     69.44635      1.155     2.37    -10.09718     19.58295     242.3199        16     0.941     0.776  80.37   0
       185    416.4179    270.8445 300.2352534 +22.5819199     257.5452     69.42868      1.321     2.70    -9.734668     19.58295     50.27699         7     0.822     0.623  63.18   0
       186    122.2589    265.3774 300.1455845 +22.4921216     412.8282       69.411      1.663     4.61    -9.948291     19.58295      65.4391        10     1.224     0.711 -65.54   0
       187     91.5454    264.8804 300.1362049 +22.4827640     715.8589     69.44635      1.646     4.09    -9.941165     19.58295     60.60268        14     1.202     0.880 -31.87   0
       188    175.3332    256.6962 300.1648921 +22.5055517     365.6366     69.53465      1.493     3.23    -9.859602     19.58295     44.12943         6     0.975     0.519 -54.33   0
       189    780.0167    248.1506 300.3558110 +22.6843809     327.4554     69.44635      1.253     4.11    -9.560017     19.58295     43.00908         7     1.048     0.497 -61.86   0
       190    528.0531    240.6967 300.2797720 +22.6067276      1346.22     69.48168      0.559     0.84    -9.276826     19.58295     748.8498         6     0.460     0.385 -86.93   0
       191    877.9188    236.9548 300.3899532 +22.7104915     1016.755     69.39332      1.353     2.40    -9.642851     19.58295     161.1235        16     1.093     0.795  70.71   0
       192    525.4251    237.9290 300.2798523 +22.6051446     2842.248       69.411      0.613     1.00    -9.280715     19.58295     1405.419         5     0.495     0.301  -2.62   0
       193    296.5016    234.7733 300.2096680 +22.5355998      997.486     69.35794      1.269     2.37    -9.560472     19.58295     134.4913        15     0.960     0.842 -87.75   0
       194    374.5960    229.4660 300.2356742 +22.5574938     509.4256       69.411      1.325     3.63    -9.514022     19.58295      68.9118         8     1.015     0.637 -81.43   0
       195    776.2567    228.6672 300.3609627 +22.6776530      296.724     69.44635      0.973     2.79    -9.394677     19.58295     48.28833         5     0.716     0.458 -11.83   0
       196    191.2892    222.1451 300.1810625 +22.5004176     420.6348     69.44635      1.291     3.10    -9.682401     19.58295     52.49487         9     0.961     0.676  65.95   0
       197    729.0422    218.5088 300.3495510 +22.6605863     816.5978       69.411      1.247     2.61    -9.192243     19.58295     109.7307        12     0.912     0.803  -3.42   0
       198    793.7904    218.3678 300.3697679 +22.6799449     373.8139       69.411      1.414     2.96    -9.417162     19.58295     39.96354         5     0.724     0.457 -16.05   0
       199    212.7256    215.1617 300.1899905 +22.5048421     168.1639     69.35794      1.039     2.25    -9.629858     19.58295     48.91225         5     0.737     0.415 -74.36   0
       200   1000.5628    210.8503 300.4366619 +22.7397159      533.651       69.411      1.534     2.89    -9.893302     19.58295     64.10085         8     0.891     0.696  63.24   0
       201    733.0505    209.8881 300.3535970 +22.6593090     349.2393     69.42868      1.412     4.27    -9.191635     19.58295     45.76598         7     1.005     0.561  51.93   0
       202    653.5560    209.1800 300.3290689 +22.6352854     449.8773     69.44635      1.225     2.37    -9.191076     19.58295     86.81704        10     0.919     0.634 -27.50   0
       203    579.6710    201.0521 300.3087031 +22.6108069     343.2613       69.411      1.330     4.25    -9.223769     19.58295     51.92115         9     1.091     0.665 -64.55   0
       204    848.9003    200.8810 300.3926155 +22.6914257     563.5779     69.53465      1.303     3.28    -9.413281     19.58295     97.62154        13     1.040     0.813 -11.95   0
       205    861.1882    199.9639 300.3967428 +22.6948427     482.1552     69.39332      1.412     2.09    -9.419372     19.58295     67.82867         7     0.708     0.619  80.20   0
       206   1021.9114    190.6761 300.4498664 +22.7403052     862.1287      62.7046      1.311     1.85    -9.724736     19.58295     144.9116        13     0.970     0.708  78.06  16
       207    977.7805    190.0213 300.4363164 +22.7269021     483.6461       69.411      1.262     3.19     -9.68667     19.58295     89.70737        11     1.023     0.769 -51.64   0
       208    212.0374    183.3948 300.2000835 +22.4955133     206.4769     69.44635      1.211     3.09     -9.59746     19.58295     49.30172         8     0.955     0.567  68.27   0
       209     73.7968    178.2059 300.1588160 +22.4525577     1036.342     69.23398      1.273     2.67    -9.435514     19.58295     134.9184        15     1.037     0.821 -88.03   0
       210    896.5377    174.9135 300.4158892 +22.6982262     347.4501       69.517      1.265     3.83    -9.453071     19.58295     65.49829         9     1.176     0.574  21.53   0
       211    231.1535    171.6489 300.2098356 +22.4978732     2715.346     69.42868      1.331     2.52    -9.568872     19.58295     343.6435        25     1.095     1.001  69.31   0
       212     15.3417    166.0649 300.1446007 +22.4315355     550.4667     69.44635      1.192     2.40    -8.941068     19.58295     95.06618        10     0.824     0.763  85.20   0
       213    214.7924    162.6427 300.2076722 +22.4903800     359.0083     69.42868      1.549     1.97    -9.573475     19.58295     46.30078         5     0.686     0.449  18.80   0
       214    875.2327    152.8786 300.4163974 +22.6855079     1695.899     69.39332      1.257     2.13     -9.32489     19.58295     270.1786        17     0.949     0.819  86.38   0
       215    978.7786    151.5883 300.4490975 +22.7161452     1260.297     69.39332      1.216     2.28     -9.39556     19.58295     202.8793        16     1.027     0.830  72.99   0
       216    425.2870    148.1698 300.2778182 +22.5493358     208.5646       69.411      1.221     3.33    -9.401238     19.58295     50.81194         6     1.041     0.553 -19.61   0
       217    348.9393    140.0366 300.2567101 +22.5241111     362.5723     69.42868      1.701     2.78    -9.372317     19.58295     39.21684         5     0.637     0.572  88.38   0
       218    114.8369    137.3882 300.1848054 +22.4531489     390.1809     69.39332      1.454     3.32     -9.36877     19.58295     53.75585         7     0.866     0.737  80.75   0
       219    476.0970    135.2200 300.2978268 +22.5608449     919.9781     69.34025      1.399     2.82    -9.257672     19.58295     104.6565        12     0.937     0.794 -68.38   0
       220    404.1386    136.0569 300.2751689 +22.5395158     203.0733     69.48168      1.132     4.80    -9.344847     19.58295     39.21505         6     1.186     0.552 -72.57   0
       221    250.0688    115.3797 300.2339678 +22.4873838      2825.29     69.39332      1.370     2.58    -9.147134     19.58295     343.1165        26     1.184     0.972  68.81   0
       222    101.2202    114.8093 300.1878989 +22.4425814     336.0095     69.39332      1.084     2.63    -9.179985     19.58295     48.46482         6     0.729     0.558 -38.31   0
       223    496.0760    100.6766 300.3152482 +22.5569054     3083.476     69.49934      1.344     2.49     -9.13978     19.58295     407.4504        26     1.119     1.009  79.32   0
       224    381.5975    100.3708 300.2797328 +22.5225050     315.1584     69.35794      1.238     2.83    -9.114767     19.58295     48.50767         7     0.915     0.464  78.43   0
       225    748.8288     90.3734 300.3972847 +22.6296719     418.5817     69.39332      1.599     2.80    -8.974227     19.58295     53.60289         7     0.969     0.544  73.99   0
       226    188.9737     84.4368 300.2250147 +22.4601762      223.047     69.42868      1.472     4.60    -8.932737     19.58295     29.24339         5     1.017     0.590 -74.81   0
       227    624.4180     80.6951 300.3616774 +22.5896193     3015.742     69.34025      1.326     2.32    -9.083908     19.58295     415.2006        24     1.077     0.970  75.45   0
       228    399.5864     80.0304 300.2919248 +22.5220525     710.7921       69.411      1.406     2.87    -9.096729     19.58295     87.07759        11     0.931     0.803   5.75   0
       229    665.2618     78.1082 300.3752344 +22.6011119     426.5401     69.49934      1.369     4.55    -8.975965     19.58295     54.74561         7     0.976     0.657  -4.09   0
       230    681.6608     74.1500 300.3816251 +22.6048865      386.646     69.46402      1.552     5.58    -8.897007     19.58295     38.55901         9     1.179     0.777 -77.64   0
       231    148.2369     72.0743 300.2163652 +22.4444096     284.0412     69.35794      1.306     2.69    -8.875712     19.58295      45.4841         7     0.726     0.666  70.51   0
       232    951.3511     71.3350 300.4665773 +22.6848444      321.353     69.42868      1.426     2.67    -9.108231     19.58295     51.31914         5     0.787     0.666 -63.54   0
       233    719.7590     69.7300 300.3949245 +22.6150280     179.8358     69.37563      1.065     3.44    -8.792211     19.58295     38.54043         5     1.209     0.283 -34.63   0
       234    668.5789     65.3486 300.3804054 +22.5984369     1347.322       69.411      1.241     2.36    -8.826852     19.58295     192.5031        16     0.961     0.871  80.82   0
       235    754.9415     57.0848 300.4099850 +22.6219295     605.0375       69.517      1.315     2.96    -8.768363     19.58295      84.7513        13     0.932     0.893  61.97   0
       236    693.1541     50.1913 300.3929742 +22.6014400     346.8664     69.42868      1.362     1.84    -8.628187     19.58295     58.61611         6     0.678     0.543  41.41   0
       237    498.8245     49.7471 300.3326201 +22.5430907     429.9352     69.42868      1.243     2.72    -9.087533     19.58295     77.95821        10     0.879     0.761  27.60   0
       238    402.7796     47.8479 300.3033543 +22.5137613     340.4973     69.44635      1.356     2.43    -9.082477     19.58295     54.45985         6     0.741     0.536  43.37   0
       239    174.0390     38.0545 300.2354139 +22.4423754     1845.394       69.411      1.394     2.48    -8.563638     19.58295     240.9185        24     1.135     1.001 -73.13   0
       240    735.2506     30.3564 300.4125181 +22.6083448     347.0626     69.44635      1.128     2.58    -8.426069     19.58295     78.40993         8     0.925     0.539 -77.51   0
       241    289.9255     30.0461 300.2740310 +22.4748185     482.4536       69.411      1.280     2.52    -9.080118     19.58295     72.09184         9     0.783     0.719  49.34   0
       242    773.0176     24.9903 300.4260237 +22.6181124      294.993     69.35794      1.321     3.59    -8.714419     19.58295     39.54844         7     0.894     0.513  51.80   0
       243    695.5385     25.1092 300.4018500 +22.5949413     229.2012     69.49934      1.384     4.86    -8.369715     19.58295     31.48796         6     0.931     0.718   6.60   0
       244    793.1400     21.5317 300.4334147 +22.6231437     996.8311     69.44635      1.259     2.44     -8.88764     19.58295     137.2354        13     0.889     0.793  74.27   0
       245    176.5695     16.7834 300.2430968 +22.4370240     382.0889     69.39332      1.227     3.82    -8.381114     19.58295     50.44904         7     0.961     0.482 -82.16   0
       246    967.8641     14.7312 300.4900817 +22.6735012     258.7602     69.46402      1.160     2.76    -8.992807     19.58295     50.04533         6     0.882     0.547 -65.15   0
