#   1 NUMBER                 Running object number                                     
#   2 X_IMAGE                Object position along x                                    [pixel]
#   3 Y_IMAGE                Object position along y                                    [pixel]
#   4 ALPHA_J2000            Right ascension of barycenter (J2000)                      [deg]
#   5 DELTA_J2000            Declination of barycenter (J2000)                          [deg]
#   6 FLUX_APER              Flux vector within fixed circular aperture(s)              [count]
#   7 FLUXERR_APER           RMS error vector for aperture flux(es)                     [count]
#   8 FLUX_RADIUS            Fraction-of-light radii                                    [pixel]
#   9 FWHM_IMAGE             FWHM assuming a gaussian core                              [pixel]
#  10 BACKGROUND             Background at centroid position                            [count]
#  11 THRESHOLD              Detection threshold above background                       [count]
#  12 FLUX_MAX               Peak flux above background                                 [count]
#  13 ISOAREA_IMAGE          Isophotal area above Analysis threshold                    [pixel**2]
#  14 A_IMAGE                Profile RMS along major axis                               [pixel]
#  15 B_IMAGE                Profile RMS along minor axis                               [pixel]
#  16 THETA_IMAGE            Position angle (CCW/x)                                     [deg]
#  17 FLAGS                  Extraction flags                                          
         1    326.4905      5.2321 300.2938807 +22.4780797     85.09534     69.46667      1.022     3.41    -7.993504     19.67397     34.39216         5     0.778     0.433  67.32  16
         2    594.8605      1.2551 300.3786789 +22.5573411     209.2059     53.92822      0.783     1.64    -7.775952     19.67397      82.5293         5     0.669     0.420 -13.12  24
         3    175.8379   1013.1769 299.9194998 +22.7220314     973.7817     69.75137      5.941    12.73     8.330395     19.67397     29.81491        17     3.919     1.151 -62.50  19
         4    737.4653   1023.0799 300.0909983 +22.8934943     223.5801     57.52879      0.944     1.87    -12.13469     19.67397     72.23355         6     0.708     0.498  87.88  24
         5    637.3575   1022.3831 300.0600497 +22.8632516     4000.892     60.89659      1.004     1.71    -12.12404     19.67397     780.4545        21     0.862     0.825  74.16  27
         6    642.9751   1020.0815 300.0625484 +22.8642775      4574.15     68.87576      1.118     1.68    -12.11801     19.67397     1073.548        24     0.926     0.863  43.40  18
         7    225.9496   1018.8782 299.9332154 +22.7387181     3399.396     69.73362     10.899    37.25   -0.1934257     19.67397     71.60339       376     7.888     4.882  13.84  27
         8    204.9988   1021.3091 299.9259129 +22.7331213     2614.695     65.25593     12.054    27.94     4.182933     19.67397     73.76292       180     6.147     3.527  27.64  27
         9    234.2579   1003.6005 299.9407727 +22.7368362     2159.024     69.69808      7.794    15.07    -3.218488     19.67397     63.28317        61     4.476     1.411   4.07  19
        10    182.3633   1020.8748 299.9190206 +22.7261971     758.3766     66.72001      7.804     9.15     8.725355     19.67397     41.77193        12     1.620     1.444 -80.04  19
        11     83.5166   1019.6772 299.8887031 +22.6961569      1784.23     69.69808     19.022    24.94     9.069757     19.67397     48.34807       117     6.338     2.725 -14.11  27
        12     69.4068   1018.3493 299.8847533 +22.6915371     1571.749     69.73362     12.833    19.18     3.459082     19.67397     44.50408        63     3.638     2.808 -74.38  27
        13     85.1140    943.6435 299.9139554 +22.6748563     1656.672     69.71585     11.540    15.98    -6.885065     19.67397     56.50084        60     3.985     1.782 -26.10   3
        14     80.1311    989.9380 299.8973354 +22.6866212     2174.779     69.76913     24.339    73.32     1.752852     19.67397     60.51833      1025    13.346    11.177 -57.76  18
        15    998.8384   1005.6895 300.1781235 +22.9669134     55.64891     69.71585      0.830     4.12    -13.07174     19.67397     28.26862         6     0.744     0.653 -64.15   0
        16    930.1071   1006.1116 300.1565557 +22.9464204     454.3932      69.8933      1.191     2.29    -13.13953     19.67397     77.35692         6     0.712     0.556  56.29   0
        17    564.2098    980.1873 300.0510202 +22.8291962     565.5253     69.62696      0.986     1.64    -12.18262     19.67397     162.9866         9     0.791     0.602 -32.12   0
        18    178.7058   1023.3804 299.9170681 +22.7258162     620.9752     55.80199      9.797    12.23     9.703862     19.67397     32.83151        13     3.040     1.370  80.29  27
        19     80.4692    955.5891 299.9086239 +22.6768831     2020.875     69.71585     21.105    38.48    -4.939341     19.67397     49.90152       274     7.624     5.389 -23.26   3
        20    244.0886   1011.4044 299.9412869 +22.7420251     4937.028     69.64475      9.062    36.19    -4.094873     19.67397     118.1048       431    10.344     3.670  61.71  27
        21    150.2300    992.2184 299.9183681 +22.7083342      830.142     69.71585      4.322     7.54     6.488925     19.67397     36.37463         9     2.151     0.740  26.62   0
        22    458.1252    976.6777 300.0191516 +22.7963450     451.1466     69.84011      1.101     2.78    -12.27352     19.67397     94.44511         8     0.861     0.639 -18.78   0
        23    655.6661    989.4662 300.0764704 +22.8593060     3291.171     69.78688      1.034     1.82     -12.1077     19.67397     574.1143        20     0.899     0.813  47.39   0
        24    421.2761    961.9677 300.0124782 +22.7810649     232.7166     69.73362      1.127     4.30    -12.34089     19.67397     52.62044         8     1.178     0.447  89.86   0
        25     41.3120   1022.7275 299.8746027 +22.6843490     326.3552     59.33065      2.483     6.04     -5.93435     19.67397     32.10346         7     1.140     0.899  43.47  24
        26    388.6756    974.8115 299.9981563 +22.7749587     3124.375     69.75137      1.088     1.90    -12.22705     19.67397     597.3716        19     0.893     0.815 -61.59   0
        27    934.9116    953.3500 300.1752354 +22.9327194     1017.913     69.75137      1.013     1.61    -12.83447     19.67397     253.5308        10     0.768     0.651  34.91   0
        28    730.0237    953.2399 300.1114237 +22.8712270     2973.937     69.76913      0.811     2.06    -12.26193     19.67397     1247.412        10     0.810     0.419 -31.00   0
        29    433.1552    949.3947 300.0202669 +22.7810267     77.94643     69.73362      0.879     3.70    -12.32238     19.67397     44.42728         6     0.955     0.565  64.54   0
        30    723.9175    942.0093 300.1131784 +22.8661731     447.0631     69.68031      1.465     4.39    -12.26198     19.67397     53.59222         6     1.218     0.450  56.60   0
        31    167.9910   1007.4585 299.9189238 +22.7180359     837.2115     69.69808     10.314    10.71     8.558012     19.67397     44.22868        18     2.749     1.163  44.24  19
        32    170.0576   1011.8189 299.9181460 +22.7199059     1329.152     69.69808      5.003     9.19      9.23717     19.67397     40.43897        20     2.524     0.933 -67.90  19
        33    758.4344    936.3914 300.1257594 +22.8749171     483.6983     69.73362      1.028     2.01    -12.34897     19.67397      92.1119         9     0.757     0.660  82.07   0
        34    780.7587    930.1347 300.1347513 +22.8798192     5508.924     69.69808      1.048     1.66    -12.34131     19.67397     1284.725        27     0.931     0.855 -80.58   0
        35    826.3162    930.0872 300.1489618 +22.8934717     213.4423     69.84011      0.761     1.82     -12.4037     19.67397     71.56502         5     0.688     0.430  70.68   0
        36     91.9215    921.9698 299.9231253 +22.6706920     322.7955     69.73362      1.051     2.65    -10.08308     19.67397     62.34502         7     0.855     0.511 -49.53   0
        37    789.1084    912.0493 300.1432407 +22.8771346     646.0163     69.76913      0.944     1.41    -12.23379     19.67397     198.7108         9     0.663     0.629 -22.03   0
        38    827.5211    905.6783 300.1572838 +22.8868286      384.379     69.85784      0.980     2.01    -12.27277     19.67397     71.72338         5     0.664     0.444  62.34   0
        39    875.8062    896.7056 300.1752529 +22.8987356     308.2725     69.62696      0.959     2.32    -12.35014     19.67397     76.22786         5     0.846     0.388 -84.18   0
        40    726.9423    895.8392 300.1291515 +22.8538343      428.311     69.73362      1.305     2.17    -12.08281     19.67397     76.64474         5     0.687     0.615 -41.07   0
        41    738.6360    893.3098 300.1336173 +22.8566166     276.8891     69.71585      1.152     2.93     -12.0887     19.67397     74.42241         7     0.994     0.673  59.78   0
        42    439.8280    892.4719 300.0408733 +22.7667089     2042.382     69.73362      1.029     1.75    -11.95195     19.67397     382.4643        15     0.831     0.761  67.10   0
        43    101.3089    880.8458 299.9394265 +22.6617289     193.0249     69.71585      1.058     3.39    -11.10109     19.67397     34.87493         5     0.778     0.427 -74.24   0
        44    164.8786    878.2376 299.9600245 +22.6800746     339.6711     69.71585      1.099     2.64    -10.56684     19.67397     58.57979         6     0.708     0.567 -31.12   0
        45    142.1154    875.3225 299.9539008 +22.6724026     795.5262     69.84011      1.157     2.01    -10.88932     19.67397     147.3614         9     0.785     0.648 -66.11   0
        46   1013.7034    863.8853 300.2289300 +22.9306636     1051.065     69.91101      0.982     1.58    -12.78462     19.67397     259.7935        10     0.736     0.679 -56.91   0
        47    968.0320    862.4572 300.2151525 +22.9165604     944.5653     69.75137      0.994     1.71    -12.50722     19.67397     215.9572        11     0.750     0.730  61.73   0
        48    174.3996    857.3994 299.9697646 +22.6769619     319.2018     69.52015      1.078     3.14    -11.33323     19.67397     63.17408         6     0.978     0.362  68.68   0
        49    619.7089    850.4731 300.1105242 +22.8086466     2297.425      69.8933      1.005     1.78    -11.58557     19.67397     422.0363        19     0.899     0.807  39.75   0
        50    109.1858    850.4188 299.9517755 +22.6553759     224.9578     69.69808      1.408     5.18    -11.53237     19.67397     47.96287         7     1.361     0.557  78.21   0
        51    421.9460    847.1086 300.0500750 +22.7483334     282.0769     69.78688      1.228     3.35    -11.47495     19.67397     56.21697         9     0.939     0.697 -73.17   0
        52    170.1682    844.4059 299.9726782 +22.6719672     565.6976     69.73362      1.068     1.89    -11.35137     19.67397     138.4225        12     1.011     0.676 -34.84   0
        53    640.3848    842.7997 300.1194590 +22.8126485     303.8102     69.59138      1.142     3.18    -11.59495     19.67397     70.02091         6     0.969     0.453 -33.93   0
        54    189.3598    841.8989 299.9794575 +22.6770119     282.0388     69.71585      1.299     4.48    -11.34343     19.67397      55.3344         5     1.315     0.475 -86.67   0
        55    795.7480    830.1957 300.1719523 +22.8556361     1868.606     69.73362      0.984     1.63    -11.87661     19.67397     458.1496        14     0.802     0.685 -76.56   0
        56   1012.6611    830.2292 300.2395592 +22.9206874     587.1343     69.75137      0.976     1.66    -12.60213     19.67397     129.2052         7     0.767     0.516 -26.40   0
        57    512.7503    822.6353 300.0862911 +22.7685668     245.8995     69.75138      0.862     2.51    -11.40767     19.67397     70.53899         5     0.790     0.411  47.80   0
        58    159.0656    820.9568 299.9768588 +22.6619124     485.5606     69.71585      1.172     2.26    -11.39462     19.67397     84.92013         9     0.782     0.685 -73.56   0
        59    574.5139    815.9692 300.1076833 +22.7851877     335.2488     69.71585      1.065     2.17    -11.31641     19.67397     52.02007         5     0.705     0.541   4.46   0
        60    308.8616    812.9455 300.0260238 +22.7045920     25896.31     69.78688      1.134     1.81    -11.28916     19.67397     5429.748        51     1.045     0.964  65.98   0
        61    566.6390    811.9949 300.1065254 +22.7816847     735.4907     69.75137      0.983     1.69    -11.28308     19.67397     182.1385         9     0.717     0.634  35.30   0
        62    979.5303    810.8591 300.2355310 +22.9051933     396.0175     69.75137      1.029     2.26    -12.26732     19.67397     88.40574         7     0.726     0.659 -16.96   0
        63    237.1639    811.0991 300.0043363 +22.6825373     197.2992     69.73362      1.132     2.12    -11.32345     19.67397     45.57228         6     0.721     0.538  44.73   0
        64    595.7013    807.8401 300.1169240 +22.7892126     437.4482     69.73362      1.134     2.15    -11.23394     19.67397     89.97846         7     0.769     0.594 -72.79   0
        65    606.5701    806.1746 300.1208496 +22.7919956      302.573     69.73362      1.087     1.82    -11.21449     19.67397     55.31077         5     0.663     0.455 -66.16   0
        66    711.5021    802.2537 300.1548007 +22.8223487     213.6422     69.82237      1.058     2.56    -11.59446     19.67397     47.77833         5     0.708     0.455  67.53   0
        67    749.4523    792.6613 300.1697431 +22.8309785     482.9108     69.78688      1.226     2.42    -11.62281     19.67397     71.51947         7     0.771     0.622 -88.91   0
        68    358.5733    790.2255 300.0488741 +22.7129998     15157.18     69.69808      1.065     1.84    -11.03953     19.67397     2728.365        38     0.971     0.924  79.36   0
        69    372.9823    790.6779 300.0532080 +22.7174544     943.9752     69.73362      1.073     2.01    -11.04856     19.67397     182.3372        11     0.831     0.751 -38.75   0
        70    881.7452    785.8421 300.2131856 +22.8686932     1356.749     69.73362      1.047     2.00    -11.73255     19.67397     265.2248        15     0.981     0.784  17.69   0
        71    369.5736    784.7891 300.0540638 +22.7147426     274.4466     69.73362      1.046     2.74    -10.99438     19.67397     58.84965         6     0.763     0.485 -80.40   0
        72    639.3539    782.0742 300.1388985 +22.7949159     496.1055     69.73362      1.180     2.25    -11.23873     19.67397     77.08556         8     0.810     0.605 -88.02   0
        73    241.0212    781.9016 300.0150348 +22.6753251     398.9635     69.66253      1.133     2.31    -11.23838     19.67397     102.9712         8     0.835     0.620   5.23   0
        74    486.5771    776.9412 300.0930146 +22.7476058     297.5887     69.73362      1.028     1.99    -10.93886     19.67397     72.93826         6     0.723     0.494 -87.64   0
        75     45.6504    777.3679 299.9558100 +22.6153598     315.8477     69.76913      1.382     3.08    -11.06022     19.67397     42.16048         6     0.816     0.526  47.72   0
        76    887.4620    773.6080 300.2189482 +22.8668949      390.237     69.68031      1.170     4.06    -11.65591     19.67397     53.91214         9     1.028     0.753  18.28   0
        77    388.6750    773.1503 300.0637912 +22.7171379      271.395     69.73362      0.900     2.86    -10.88602     19.67397      41.0941         5     0.747     0.432 -72.76   0
        78    238.6288    766.5836 300.0192746 +22.6702153     243.6654     69.73362      0.981     2.82     -11.1805     19.67397     54.66279         5     0.734     0.454  73.45   0
        79    561.8195    756.9198 300.1229446 +22.7644382     319.7991     69.73362      1.367     3.12    -11.07365     19.67397     50.52308         6     0.763     0.534  59.73   0
        80    531.8644    754.8713 300.1142877 +22.7548632     335.5975     69.76913      1.209     4.10     -10.9952     19.67397     50.66627         8     0.937     0.696 -25.88   0
        81    440.8444    753.9589 300.0862626 +22.7272901     174.8908     69.80463      1.098     3.67    -10.70745     19.67397     34.11697         5     0.802     0.505 -38.17   0
        82    553.7972    752.3942 300.1219199 +22.7607329     700.7151     69.55577      1.033     2.22    -11.06211     19.67397     110.7253        11     0.836     0.710  71.96   0
        83    947.8976    751.1348 300.2451008 +22.8785609      2237.91     69.82237      1.041     1.58    -11.44112     19.67397     570.6118        15     0.858     0.692  84.58   0
        84    936.3090    742.6308 300.2442543 +22.8726450     849.6721     69.68031      1.023     1.83     -11.4206     19.67397     153.5248        10     0.765     0.632  38.86   0
        85    299.5774    736.6174 300.0479693 +22.6799191     432.7387     69.71585      1.058     2.10     -10.6118     19.67397     73.38483         6     0.634     0.602  46.61   0
        86    762.6072    733.9213 300.1929521 +22.8180638     1294.856     69.66254      1.108     1.96    -11.04608     19.67397     215.7806        13     0.829     0.758 -83.21   2
        87    967.3899    732.7235 300.2571682 +22.8791169     765.0364     69.71585      0.947     1.77    -11.13528     19.67397     144.5005         9     0.725     0.626  24.86   0
        88    845.1791    719.3508 300.2234209 +22.8386400     336.5284     69.73362      1.170     3.51    -11.11866     19.67397     60.61132         9     1.048     0.762  27.71   0
        89    148.1901    720.4858 300.0061645 +22.6298475     202.6561     69.68031      0.961     1.80    -11.13136     19.67397      71.9704         5     0.663     0.477 -18.72   0
        90    881.1318    710.8009 300.2374077 +22.8469639     72328.34     69.69808      1.075     1.62    -11.14639     19.67397     17039.31        98     1.101     1.015  65.69   0
        91    733.6670    711.0214 300.1913857 +22.8028118     341.1571     69.71585      1.107     2.39    -10.87431     19.67397     54.06565         7     0.720     0.627 -78.15   0
        92    913.8522    703.3782 300.2500219 +22.8546414     295.0268     69.73362      1.164     3.67    -11.06233     19.67397      43.9615         6     0.925     0.541  72.31   0
        93    567.4779    699.6993 300.1433189 +22.7497174     795.2427     69.85784      1.143     2.22    -10.50936     19.67397     135.4747        14     0.949     0.763  37.10   0
        94    748.6110    696.9918 300.2006043 +22.8032658     4422.872     69.62696      1.021     1.75    -10.73766     19.67397     928.9238        21     0.902     0.786 -89.45   0
        95    250.3262    692.3412 300.0470590 +22.6524393     2350.908     69.76913      1.097     1.97    -10.67951     19.67397     413.5402        16     0.874     0.789  71.69   0
        96    332.2434    690.1548 300.0732381 +22.6763986     571.9561     69.76913      1.184     2.29    -10.49667     19.67397     87.71577         8     0.715     0.658 -87.33   0
        97    207.7334    688.0886 300.0352036 +22.6384347     196.3303     69.84011      0.965     2.94    -10.80283     19.67397     56.10074         6     0.893     0.539 -28.98   0
        98    540.5281    685.8214 300.1394442 +22.7376508     235.2021     69.73362      1.047     2.15     -10.2257     19.67397     58.62495         5     0.698     0.431  62.68   0
        99    532.1292    677.9257 300.1393980 +22.7328657     1582.087     69.80463      1.158     2.02    -10.09934     19.67397     283.9878        12     0.843     0.764 -57.97   0
       100    522.3774    671.6666 300.1383986 +22.7281443     589.9384     69.71585      1.069     2.29    -10.02639     19.67397     105.6195        10     0.849     0.694  49.05   0
       101    185.6770    667.6553 300.0349939 +22.6259549     298.6126     69.76913      1.045     2.48    -10.72718     19.67397     69.80224         6     0.835     0.467  87.66   0
       102    199.8576    666.1801 300.0398805 +22.6297886     379.9777     69.73362      1.078     2.72    -10.66261     19.67397     98.55306         6     0.759     0.529  30.84   0
       103    969.0001    663.0001 300.2803492 +22.8595748     100.8957     69.52015      1.005     3.31    -10.62247     19.67397      34.8886         5     0.641     0.588 -90.00   0
       104    225.9686    663.2572 300.0489460 +22.6367881     152.6996     69.75137      1.125     4.22    -10.54531     19.67397     43.67522         6     1.064     0.476 -27.71   0
       105    447.2169    661.4806 300.1183237 +22.7026732     829.6596     69.73362      1.081     2.08    -10.15705     19.67397     134.8647        10     0.809     0.674  82.87   0
       106    101.2204    656.5646 300.0123597 +22.5974208     9706.436     69.75137      1.130     1.97     -10.8012     19.67397     1540.385        31     1.007     0.921  65.80   0
       107     21.9814    657.8676 299.9873254 +22.5740028     353.7254     69.73362      1.100     2.23    -10.73748     19.67397     72.45525         7     0.702     0.639 -57.92   0
       108    531.9175    656.7783 300.1462093 +22.7267339     573.7712     69.69808      1.263     2.90    -9.982021     19.67397     83.39166         8     0.843     0.742  48.94   0
       109    950.0250    642.7416 300.2810207 +22.8480691     416.6882     69.73362      0.960     1.64    -10.51571     19.67397     114.9311         7     0.635     0.621   7.97   0
       110     47.0166    640.8270 300.0006407 +22.5766352     662.5256     69.75137      1.565     4.34    -10.73187     19.67397     73.77493        17     1.501     0.722 -83.19   0
       111    452.2545    629.4445 300.1303081 +22.6949930     303.4773     69.75138      1.060     2.74    -9.972269     19.67397     50.16348         5     0.704     0.468  18.37   0
       112    600.2315    627.8950 300.1768658 +22.7389350      278.113     69.69808      1.206     3.72    -9.973655     19.67397     43.01611         6     0.908     0.574 -28.40   0
       113    647.0281    626.7592 300.1918056 +22.7526431     112.7543     69.75137      1.119     3.73    -10.01215     19.67397     32.96767         5     0.806     0.497  50.54   0
       114    617.6177    626.1134 300.1828581 +22.7436378     315.0119     69.68031      1.191     3.63    -9.979333     19.67397     41.87064         5     0.870     0.483  85.95   0
       115    496.3165    625.1190 300.1454245 +22.7069698      477.192     69.87557      1.245     3.03    -9.902348     19.67397     71.98443         7     0.838     0.634 -85.18   0
       116    930.0068    620.8431 300.2819001 +22.8357797     1690.703     69.75137      1.055     1.67    -10.27817     19.67397     402.8769        13     0.898     0.672  88.17   0
       117    462.0168    620.9152 300.1361186 +22.6954743     936.4231     69.69808      1.202     2.22    -9.920354     19.67397     153.9617        11     0.924     0.671  74.83   0
       118     24.0111    614.8163 300.0019528 +22.5622716     2582.957     69.68031      1.218     1.99    -10.68537     19.67397      423.875        21     1.005     0.902  85.33   0
       119    325.3296    607.7640 300.0978787 +22.6506914     4472.819     69.73362      1.143     2.05    -10.09259     19.67397     681.1261        25     0.990     0.888  78.65   0
       120    447.8182    604.7381 300.1369606 +22.6865731     4292.604     69.69808      1.158     1.87    -9.839657     19.67397     813.8373        26     1.032     0.914  67.34   0
       121    859.4912    598.5584 300.2671643 +22.8082442     919.0896     69.73362      1.033     2.17    -10.05996     19.67397     144.7546        13     0.895     0.750  35.17   0
       122    943.9775    595.8600 300.2943791 +22.8327904     6134.491     69.71585      1.095     1.71    -10.21955     19.67397     1380.382        29     0.937     0.880  72.74   0
       123    508.3474    594.3008 300.1591881 +22.7017348     5606.804     69.82237      1.164     2.18    -9.663764     19.67397     825.1907        28     1.051     0.914  62.84   0
       124    235.9082    589.8582 300.0758995 +22.6187214     636.5528     69.78688      1.141     1.96    -10.09115     19.67397     135.6449         8     0.747     0.636 -48.75   0
       125    440.0702    582.4501 300.1417958 +22.6778534     2062.554     69.73362      1.210     2.24    -9.667727     19.67397      309.408        20     0.996     0.887  88.55   0
       126    782.6125    582.1683 300.2485354 +22.7804927     337.6952     69.71585      1.016     2.77    -10.02563     19.67397     59.72409         7     0.798     0.620  -9.32   0
       127    418.2348    580.9171 300.1355013 +22.6708632     648.9999     69.69808      1.262     2.41    -9.695567     19.67397     110.7106        11     0.937     0.783  74.03   0
       128    859.8768    577.8827 300.2740064 +22.8024216     738.9762     69.82237      1.301     2.71     -10.0168     19.67397     119.7014        13     1.037     0.737   7.99   0
       129    740.1121    574.6030 300.2377540 +22.7655794     372.2355     69.66254      1.045     2.02    -9.875769     19.67397     79.55418         8     0.739     0.649  79.37   0
       130    556.6181    570.0319 300.1821011 +22.7092470     99524.76     69.71585      1.215     2.05    -9.188094     19.67397     16723.11       121     1.237     1.180  84.74   0
       131    242.7705    570.1851 300.0844275 +22.6151380     1576.466     69.73362      1.183     2.01    -9.997465     19.67397     294.6076        18     1.013     0.811  76.80   0
       132    808.5014    565.6535 300.2619710 +22.7835104     299.7556     69.82237      0.979     2.46    -9.839665     19.67397      64.0274         7     0.779     0.658 -63.43   0
       133    827.3817    563.4332 300.2685763 +22.7885319     44.69194     69.71585      1.025     4.18    -9.868082     19.67397     27.75005         5     1.028     0.486 -89.95   0
       134    447.2246    550.6636 300.1543541 +22.6708780     1410.732     69.71585      1.327     2.64    -9.409982     19.67397     176.7987        21     1.430     0.840 -87.50   0
       135    764.3942    538.8179 300.2569511 +22.7625825     102.1129     69.69808      0.894     3.36    -9.434721     19.67397     38.74597         5     0.769     0.426 -68.01   0
       136    844.1199    536.3035 300.2826115 +22.7857566     765.2831     69.85784      1.116     1.99    -9.783947     19.67397     149.8722        11     0.835     0.690  69.11   0
       137    715.4374    534.1985 300.2432016 +22.7465803     1164.188     69.75137      1.076     2.05    -9.334439     19.67397      227.351        13     0.953     0.721  44.26   0
       138    620.1448    530.4604 300.2147403 +22.7169372     193.2807     69.80463      0.888     2.55    -8.842613     19.67397     43.76891         5     0.719     0.475  16.11   0
       139    502.6597    530.2396 300.1782416 +22.6816432     363.9475     69.73362      1.103     1.67    -8.995954     19.67397     75.33884         5     0.653     0.452 -72.63   0
       140    972.6115    527.7933 300.3254348 +22.8218159     588.4366     69.60917      1.091     2.12      -9.9921     19.67397     117.5751         8     0.818     0.572  75.75   0
       141    844.4698    526.3267 300.2859634 +22.7829958     1238.913     69.80463      1.505     4.31    -9.725307     19.67397     184.1948        18     1.541     0.753  74.82   0
       142    958.5533    527.0583 300.3212900 +22.8173926     377.3207     69.78688      1.275     2.05    -9.958971     19.67397     68.05919         6     0.705     0.563  30.85   0
       143    882.5311    521.5338 300.2993844 +22.7930254     2123.594     69.78688      1.055     1.99    -9.831849     19.67397     317.2862        15     0.889     0.761  60.46   0
       144    114.5262    512.2727 300.0633969 +22.5600410     482.5346     69.78688      1.152     2.43      -10.069     19.67397     88.75258        11     0.852     0.810 -84.32   0
       145    974.4139    511.9518 300.3311457 +22.8178043     516.1695     69.73362      1.249     1.55    -9.880709     19.67397     86.67735         6     0.674     0.492 -88.59   0
       146    656.0018    492.1313 300.2383623 +22.7166827     437.3414     69.69808      1.278     3.04     -8.83613     19.67397     57.32579         9     0.894     0.729 -78.61   0
       147    716.7325    484.4338 300.2597783 +22.7326776     361.6823     69.73362      1.066     2.42     -9.16722     19.67397     68.07393         7     0.844     0.523 -56.23   0
       148    970.5373    484.1811 300.3389622 +22.8086634     300.4227     69.71585      1.180     2.51    -9.682076     19.67397     47.13024         6     0.744     0.495  83.56   0
       149    874.0734    480.4079 300.3101138 +22.7786765     490.4384     69.71585      1.197     2.25    -9.516483     19.67397      89.3193         8     0.831     0.634  79.24   0
       150    858.1964    476.5850 300.3064073 +22.7728206     292.6794     69.59138      1.022     2.05     -9.47058     19.67397     54.38978         5     0.694     0.439 -24.51   0
       151    602.6256    474.9423 300.2273281 +22.6957448     1474.423     69.73362      1.232     2.43    -8.735937     19.67397     238.9976        18     1.015     0.870  56.31   0
       152    962.9895    473.2773 300.3401519 +22.8032689     243.7941     69.71585      1.104     2.69    -9.633469     19.67397     50.10509         6     0.858     0.459 -41.45   0
       153    442.5942    461.3046 300.1819531 +22.6438431     198.2676     69.62696      1.375     5.58     -8.91486     19.67397     34.92656         7     1.530     0.575 -52.80   0
       154    885.8546    453.9196 300.3223934 +22.7745965     366.8944     69.76913      1.351     4.02    -9.426484     19.67397     48.17675         7     0.943     0.573  73.18   0
       155   1013.8275    453.8127 300.3623313 +22.8129050     526.2745     69.73362      1.047     1.76    -9.683993     19.67397     138.6396        11     0.818     0.722  67.11   0
       156    972.3071    452.1111 300.3499354 +22.7999780     468.5816      69.8933      1.106     2.32    -9.582737     19.67397     81.15644         7     0.780     0.572  70.15   0
       157    713.2245    448.6686 300.2703071 +22.7213545     429.3091     69.73362      1.140     2.50    -8.939365     19.67397     81.59297        11     0.950     0.680  50.70   0
       158    217.0813    447.1209 300.1164344 +22.5721271     397.0101     69.85784      1.282     2.63    -9.476241     19.67397     53.47972         7     0.828     0.545  46.14   0
       159    279.6335    442.9556 300.1372324 +22.5896981     1780.753     69.76913      1.211     2.04    -9.135707     19.67397      316.551        17     0.922     0.867  87.72   0
       160   1012.5239    441.0803 300.3660619 +22.8088552     2171.595     69.84011      1.071     1.86    -9.691588     19.67397     393.5903        17     0.871     0.827  47.16   0
       161    226.7958    437.8132 300.1224777 +22.5723713      3738.76     69.59138      1.230     2.10    -9.419582     19.67397     616.9901        27     1.056     0.951  69.91   0
       162    992.3712    432.1222 300.3626872 +22.8002441     858.0043     69.73362      1.079     1.98    -9.611455     19.67397     178.0485        10     0.777     0.733  18.83   0
       163    367.5961    431.9478 300.1681613 +22.6129243     2317.234     69.73362      1.250     2.33    -8.981911     19.67397     364.9286        17     0.975     0.849 -88.25   0
       164    611.7236    428.5383 300.2452379 +22.6851480     8772.894     69.78688      1.230     2.21    -8.724809     19.67397     1357.539        33     1.074     0.980  71.87   0
       165    628.8208    428.8543 300.2504587 +22.6903641      333.864     69.73362      1.556     5.84    -8.734414     19.67397     32.84805        10     1.532     0.627 -31.83   0
       166    945.3819    410.8434 300.3549474 +22.7800530     418.7851     69.75137      1.164     2.29    -9.336875     19.67397     78.29208         8     0.753     0.727  26.39   0
       167    166.4787    408.7287 300.1131800 +22.5459304     1090.116     69.84011      1.262     2.39    -9.672175     19.67397      146.351        13     0.927     0.768 -85.00   0
       168    965.8405    398.1043 300.3654654 +22.7825204     531.3456     69.73362      1.127     2.09    -9.452062     19.67397     118.9872        11     0.933     0.717  87.58   0
       169    552.3499    397.9828 300.2366804 +22.6585746      3104.57     69.73362      1.247     2.45    -8.730554     19.67397      442.567        22     1.078     0.863  85.11   0
       170    267.1450    397.5345 300.1481048 +22.5729183     270.9167     69.78688      0.939     2.26    -9.052818     19.67397     45.55278         6     0.731     0.495   6.16   0
       171    124.8225    390.6342 300.1061139 +22.5282410     227.5285     69.75137      1.144     3.21    -9.646728     19.67397     40.88118         6     0.733     0.627 -73.30   0
       172    756.3970    386.7821 300.3038614 +22.7165168     546.2632     69.64475      1.410     2.84    -8.918974     19.67397     72.01894         9     0.873     0.712 -81.24   0
       173    458.9923    384.2166 300.2120982 +22.6266317     2892.199     69.66254      1.287     2.47    -8.702951     19.67397     378.2621        21     1.014     0.936  86.23   0
       174    850.9388    378.5886 300.3359836 +22.7424907     586.0403     69.68031      1.111     1.84    -9.084898     19.67397     126.5499        10     0.857     0.725  77.71   0
       175    948.5551    378.4062 300.3664742 +22.7716814     266.8705     69.75138      1.030     2.94    -9.335323     19.67397     55.98157         6     0.830     0.516  42.12   0
       176    443.8692    373.1275 300.2109946 +22.6189135     309.2469     69.80463      1.245     3.59    -8.723119     19.67397     41.93013         5     1.020     0.364 -55.57   0
       177    346.5520    363.5189 300.1838438 +22.5869726     1236.748     69.76913      1.256     2.49    -8.801029     19.67397     179.1078        15     1.001     0.841  59.54   0
       178     65.0250    360.8280 300.0972181 +22.5017482     458.7398     69.71585      1.262     2.21    -9.444749     19.67397     84.80109        10     0.840     0.699 -89.35   0
       179    315.9180    353.0504 300.1777172 +22.5747807      14536.7     69.75137      1.297     2.18     -8.85256     19.67397     2239.794        43     1.143     1.024  86.80   0
       180    850.4790    350.2603 300.3450414 +22.7342129     544.8459     69.78688      1.053     2.05    -8.970402     19.67397     104.2787         8     0.744     0.630 -39.45   0
       181     12.3575    341.0456 300.0872849 +22.4802698     2571.995     69.78688      1.227     2.25    -9.067061     19.67397     362.3388        20     0.964     0.920  43.33   0
       182    726.1724    332.5826 300.3120492 +22.6918892     1112.119     69.73362      1.304     2.50    -8.939652     19.67397     149.6757        16     1.004     0.970  52.33   0
       183    941.3589    325.3023 300.3814781 +22.7542631     305.3213     69.71585      1.107     2.19    -9.197213     19.67397     57.76116         5     0.690     0.454  72.76   0
       184    388.1879    317.4261 300.2117621 +22.5862266     1033.179     69.73362      1.417     2.85    -8.709196     19.67397     116.7681        15     1.050     0.836  65.33   0
       185    827.3339    309.9189 300.3509291 +22.7156865     375.1727     69.84011      1.645     3.96    -8.820925     19.67397     46.82104         8     0.933     0.740  57.23   0
       186    463.9556    296.5039 300.2421275 +22.6029357     630.6461     69.75137      1.380     3.11    -8.393908     19.67397     76.82172        11     0.924     0.825 -79.24   0
       187    708.6941    288.3660 300.3209629 +22.6739486     1200.105     69.69808      1.327     2.32    -8.920098     19.67397     150.7708        15     0.939     0.862  53.42   0
       188    969.8669    282.7130 300.4041975 +22.7505585     1537.987     69.84011      1.146     1.97     -9.36122     19.67397     292.4429        17     0.922     0.834 -57.50   0
       189    417.1213    272.3954 300.2353834 +22.5819726     319.7319     69.64475      1.068     3.49    -8.627722     19.67397      40.3131         7     0.830     0.632  71.08   0
       190     91.8291    266.8567 300.1360562 +22.4828302     658.1215     69.73362      1.393     2.90    -9.111137     19.67397     90.41398        12     0.959     0.887 -63.15   0
       191    985.7663    263.0164 300.4155510 +22.7496572     289.6951     69.71585      1.127     2.42    -9.378332     19.67397     42.95613         5     0.762     0.473  27.13   0
       192    852.0847    251.8099 300.3775106 +22.7064002      109.933     69.68031      1.113     3.82    -8.491402     19.67397     32.67896         5     0.815     0.514  48.18   0
       193    780.3350    249.8295 300.3557935 +22.6843389     234.4105     69.75137      1.122     4.17     -8.45634     19.67397     44.39497         7     0.887     0.603  -6.13   0
       194    878.4490    238.9221 300.3899124 +22.7105922     1032.879     69.73362      1.141     2.22    -8.537872     19.67397     156.7802        13     0.913     0.810  87.05   0
       195    297.0926    236.4908 300.2097083 +22.5356768      1096.94      69.8933      1.307     2.38    -8.594716     19.67397     137.8626        13     0.916     0.781  81.75   0
       196    374.9132    231.4079 300.2355595 +22.5575498     589.7072     69.64475      1.448     2.78    -8.425624     19.67397     80.60923        12     0.984     0.749  89.69   0
       197    776.9811    230.7206 300.3609519 +22.6778427     363.6432     69.73362      1.529     2.53    -8.294673     19.67397     41.71376         7     0.713     0.660  17.54   0
       198    191.8535    223.4494 300.1812263 +22.5003748     406.5926     69.76913      1.614     3.85    -8.766379     19.67397     58.68884         7     1.015     0.549 -71.69   0
       199    729.5922    220.2452 300.3495881 +22.6606362     746.8372     69.75138      1.252     2.56    -8.291482     19.67397     99.36296        14     0.963     0.841  54.31   0
       200    794.4922    219.8089 300.3699504 +22.6799521     275.2102     69.66254      1.207     2.90    -8.215109     19.67397     53.94016         7     0.839     0.636  16.37   0
       201   1001.0202    212.6450 300.4366609 +22.7397418     521.2062     69.78688      1.294     2.14     -9.03103     19.67397     88.16824         9     0.858     0.605  68.81   0
       202    733.2119    211.7354 300.3534780 +22.6592751     307.6768     69.68031      1.223     2.49    -8.279398     19.67397     51.25807         6     0.708     0.612  55.89   0
       203    654.1672    211.1022 300.3290631 +22.6354119     540.0596     69.71585      1.250     2.63    -8.267865     19.67397     80.48589        10     0.854     0.709   7.25   0
       204    849.7224    202.3642 300.3928252 +22.6914802     628.2592     69.69808      1.127     2.19    -8.268247     19.67397     107.8917        11     0.872     0.765 -12.98   0
       205    580.0424    203.0745 300.3085885 +22.6108950     403.7643     69.71585      1.299     3.43    -8.237205     19.67397     53.21489         8     0.845     0.737  -5.83   0
       206    861.6740    201.4777 300.3968382 +22.6948047     567.0883     69.84011      1.720     2.45    -8.282848     19.67397     65.41076         8     0.770     0.727 -75.23   0
       207   1022.4263    192.3981 300.4499095 +22.7403285     836.9096      60.5089      1.044     2.11    -8.786232     19.67397      138.396        11     0.940     0.623  78.70  24
       208    978.3645    191.8595 300.4363419 +22.7269819     530.1701     69.75137      1.048     2.19    -8.708522     19.67397     110.1338        10     0.877     0.695  26.30   0
       209      2.0045    188.7328 300.1335141 +22.4334678     188.7288     57.89365      1.184     2.90    -8.290269     19.67397     32.61628         5     0.785     0.486  56.30  24
       210    212.6555    185.5505 300.1999920 +22.4957344     280.9836     69.76913      1.079     2.37     -8.67695     19.67397     62.38906         5     0.716     0.448  73.49   0
       211     74.4082    180.0002 300.1588356 +22.4526806     1119.513     69.55577      1.313     2.59    -8.634145     19.67397     136.8378        15     1.042     0.775 -82.12   0
       212    897.3036    176.4865 300.4160561 +22.6982901     212.4269     69.91101      1.042     2.50    -8.343527     19.67397     62.50378         7     0.858     0.528  59.92   0
       213    231.7007    173.3633 300.2098669 +22.4979465     2895.267     69.73362      1.313     2.27    -8.641309     19.67397     388.6942        25     1.072     0.970  53.13   0
       214     15.8011    167.8587 300.1445723 +22.4316169     440.5842     69.69808      1.163     2.32    -8.225436     19.67397     97.31986         8     0.817     0.630  70.44   0
       215    875.6299    154.6323 300.4163921 +22.6855169     1565.274     69.73362      1.116     2.07    -8.227427     19.67397     284.7654        15     0.899     0.800  45.19   0
       216    979.3367    153.2643 300.4491711 +22.7161748     1226.495     69.76913      1.131     2.16    -8.321102     19.67397     218.8613        14     0.871     0.828  36.36   0
       217    425.3410    149.8665 300.2777103 +22.5492490     189.4341     69.76913      1.278     2.10    -8.139398     19.67397     47.27994         5     0.723     0.420 -68.12   0
       218    349.2343    141.8765 300.2566290 +22.5241424     411.7473     69.73362      1.307     2.77    -8.138622     19.67397      43.2745         8     0.810     0.653  40.42   0
       219    476.5738    137.4306 300.2976866 +22.5610312     880.0994     69.73362      1.338     2.94    -8.092456     19.67397     105.1128        14     1.058     0.804 -77.87   0
       220    115.1590    138.9882 300.1848032 +22.4531318     263.2806     69.71585      1.340     3.85    -8.557487     19.67397     45.98142         8     0.941     0.828  19.50   0
       221    764.9632    126.6633 300.3909788 +22.6443350     303.8969     69.73362      1.508     4.88    -8.155181     19.67397     32.38018         8     0.950     0.709 -79.89   0
       222    250.7110    117.1449 300.2340180 +22.4875056     2923.191     69.76913      1.267     2.24    -8.315229     19.67397     434.0299        22     1.037     0.918  83.10   0
       223    101.6355    116.3734 300.1879389 +22.4425850     412.4566     69.73362      1.292     2.49    -8.390344     19.67397     60.93675         6     0.699     0.620  53.75   0
       224    222.3153    111.3323 300.2270767 +22.4773235     153.5755     69.82237      1.054     4.04    -8.340603     19.67397     25.01424         6     0.906     0.514 -44.95   0
       225    496.6086    102.5159 300.3152496 +22.5570047      2953.54     69.68031      1.308     2.24    -7.941911     19.67397     437.6443        23     1.095     0.934  81.80   0
       226    381.9158    102.1046 300.2796981 +22.5225157     323.8879     69.91101      1.340     2.82     -7.91363     19.67397     48.35155         8     0.841     0.702  83.64   0
       227    749.0394     91.8613 300.3973091 +22.6295620     421.5782     69.73362      1.469     3.03    -8.073351     19.67397     60.66426         6     0.872     0.520  89.36   0
       228    624.9617     82.3970 300.3617329 +22.5896781     2971.214     69.76913      1.301     2.36     -7.91436     19.67397     431.7951        25     1.112     0.934  82.63   0
       229    399.9215     81.5839 300.2919562 +22.5220177     647.9248     69.73362      1.237     2.34    -7.862123     19.67397     113.2785        11     0.926     0.678  72.77   0
       230    665.9558     79.7681 300.3753519 +22.6012020     341.1761     69.78688      1.159     1.90    -7.966061     19.67397     86.77769         7     0.704     0.602  19.62   0
       231    682.3083     76.0338 300.3816564 +22.6050266     274.2655     69.69808      1.369     3.38    -7.975842     19.67397      41.0941         5     0.787     0.420  73.22   0
       232    148.6535     74.2671 300.2162071 +22.4445965     387.6806     69.75138      1.165     2.62    -8.231323     19.67397     55.26412         6     0.936     0.433  34.00   0
       233    951.8648     73.2958 300.4665511 +22.6849531     263.5929     69.84011      1.086     2.28    -8.469668     19.67397     53.61954         6     0.703     0.623  72.13   0
       234    669.0944     67.2674 300.3803846 +22.5985491     1319.093     69.87557      1.284     2.70    -7.939007     19.67397     161.4009        14     0.927     0.838  65.64   0
       235    684.2975     66.0782 300.3855055 +22.6027608     372.7809     69.84011      1.534     5.08    -7.956976     19.67397     56.02472        10     1.527     0.498  55.89   0
       236    755.7268     58.8115 300.4101141 +22.6220638     720.1184     69.75137      1.207     2.39    -8.054166     19.67397     119.6091        12     0.865     0.797  64.90   0
       237    693.3864     52.0839 300.3928759 +22.6014603     337.0237     69.69808      1.115     2.45    -7.944201     19.67397      65.3203         7     0.736     0.623  81.81   0
       238    499.1903     51.5531 300.3325851 +22.5431361     493.2533     69.75137      1.248     3.24    -7.850618     19.67397     67.71785         8     0.855     0.669  52.67   0
       239     72.3384     51.8901 300.1997547 +22.4152899     157.0352     69.82237      1.240     4.41    -8.112253     19.67397     37.89952         5     0.935     0.620 -15.02   0
       240    402.9425     49.7566 300.3032200 +22.5137804     330.6703     69.69808      1.218     2.86    -7.857587     19.67397     58.65422         8     0.987     0.500  56.30   0
       241    174.4845     39.8204 300.2354072 +22.4424510     1866.077     69.68031      1.320     2.43    -8.223516     19.67397      277.543        24     1.130     0.971 -27.37   0
       242    742.2621     40.1718 300.4119653 +22.6126730     351.0992     69.73362      1.188     2.77    -8.024026     19.67397      44.2838         6     0.728     0.565  50.42   0
       243    290.5775     31.9857 300.2740367 +22.4750009     623.2349     69.71585      1.372     3.45    -8.073848     19.67397     89.19751        14     1.198     0.760  69.36   0
       244    735.5964     31.7732 300.4126127 +22.6082624     525.1827     69.69808      1.417     2.83    -8.014176     19.67397     78.19311        10     0.929     0.738  85.24   0
       245    773.5662     26.5253 300.4261449 +22.6181234     210.1521     69.73362      1.326     4.46    -8.025271     19.67397     42.31721         7     1.183     0.479  83.15   0
       246    793.6460     23.1074 300.4335104 +22.6231529     1036.973     69.75137      1.206     2.63    -8.022256     19.67397     140.6375        16     0.972     0.858  71.60   0
       247    177.2270     18.6835 300.2431145 +22.4372039     431.2853     69.73362      1.227     2.58    -8.212924     19.67397     68.34035         9     0.851     0.679 -82.97   0
       248    968.6668     16.7132 300.4901445 +22.6737079      479.138     69.84011      1.257     2.88    -8.826674     19.67397     53.94633         8     0.865     0.618 -82.82   0
       249    741.9937     15.5474 300.4198683 +22.6055132     361.5658     69.69808      1.193     2.47    -8.008712     19.67397     57.01876         8     0.793     0.658  43.69   0
       250    535.0599    983.9459 300.0407239 +22.8215243     79.34718     69.78688      0.968     2.76    -12.18804     19.67397     43.18418         5     0.649     0.554  88.37   0
